title:000, start timestamp:2019-12-31T00:42:33.094599+03:00, stop timestamp:2019-12-31T00:42:38.606559+03:00, headset type:INSIGHT, headset serial:A2D200FB, headset firmware:930, subject name:Qasim, channels:56, sampling rate:eeg_128;mot_64;pow_8, samples:710       , version:2.0
Timestamp,EEG.Counter,EEG.Interpolated,EEG.AF3,EEG.T7,EEG.Pz,EEG.T8,EEG.AF4,EEG.RawCq,EEG.Battery,MarkerIndex,MarkerType,MarkerValueInt,EEG.MarkerHardware,CQ.AF3,CQ.T7,CQ.Pz,CQ.T8,CQ.AF4,MOT.CounterMems,MOT.InterpolatedMems,MOT.Q0,MOT.Q1,MOT.Q2,MOT.Q3,MOT.AccX,MOT.AccY,MOT.AccZ,MOT.MagX,MOT.MagY,MOT.MagZ,POW.AF3.Theta,POW.AF3.Alpha,POW.AF3.BetaL,POW.AF3.BetaH,POW.AF3.Gamma,POW.T7.Theta,POW.T7.Alpha,POW.T7.BetaL,POW.T7.BetaH,POW.T7.Gamma,POW.Pz.Theta,POW.Pz.Alpha,POW.Pz.BetaL,POW.Pz.BetaH,POW.Pz.Gamma,POW.T8.Theta,POW.T8.Alpha,POW.T8.BetaL,POW.T8.BetaH,POW.T8.Gamma,POW.AF4.Theta,POW.AF4.Alpha,POW.AF4.BetaL,POW.AF4.BetaH,POW.AF4.Gamma
1577742153.094599,72.000000,0.000000,4141.538574,4345.128418,4096.410156,4154.358887,4145.641113,450.000000,4.000000,,,,0.000000,4.000000,4.000000,4.000000,4.000000,4.000000,36.000000,0.000000,0.373456,0.230957,0.845459,0.303955,0.552743,-0.609384,0.567391,-2.652120,-51.644783,57.972240,,,,,,,,,,,,,,,,,,,,,,,,,
1577742153.102496,73.000000,0.000000,4122.563965,4340.000000,4078.461426,4138.461426,4128.717773,16201.000000,4.000000,,,,0.000000,4.000000,4.000000,4.000000,4.000000,4.000000,,,,,,,,,,,,,,,,,,,,,,,,,,,,,,,,,,,,,
1577742153.110293,74.000000,0.000000,4093.846191,4332.307617,4058.974365,4102.563965,4104.615234,450.000000,4.000000,,,,0.000000,4.000000,4.000000,4.000000,4.000000,4.000000,37.000000,0.000000,0.373456,0.230957,0.845459,0.303955,0.555184,-0.607431,0.581064,-1.669124,-51.564610,58.036922,,,,,,,,,,,,,,,,,,,,,,,,,
1577742153.118190,75.000000,0.000000,4115.384766,4334.871582,4089.230713,4129.743652,4125.641113,16214.000000,4.000000,,,,0.000000,4.000000,4.000000,4.000000,4.000000,4.000000,,,,,,,,,,,,,11.346301,7.848724,5.037527,2.369823,4.320252,0.909879,0.506740,0.862848,0.935575,2.262560,1.621688,3.267874,4.835222,1.972100,4.139341,1.161274,5.895323,4.869762,2.744695,4.893229,3.082777,8.923175,6.303549,2.800451,4.984644
1577742153.125987,76.000000,0.000000,4162.563965,4363.589844,4128.205078,4184.615234,4171.794922,450.000000,4.000000,,,,0.000000,4.000000,4.000000,4.000000,4.000000,4.000000,38.000000,0.000000,0.373253,0.230713,0.845703,0.303711,0.560067,-0.610849,0.561532,-4.672426,-51.552269,58.095139,,,,,,,,,,,,,,,,,,,,,,,,,
1577742153.133884,77.000000,0.000000,4172.820313,4372.307617,4134.871582,4195.897461,4191.282227,450.000000,4.000000,,,,0.000000,4.000000,4.000000,4.000000,4.000000,4.000000,,,,,,,,,,,,,,,,,,,,,,,,,,,,,,,,,,,,,
1577742153.141682,78.000000,0.000000,4152.307617,4335.384766,4121.538574,4170.769043,4175.384766,450.000000,4.000000,,,,0.000000,4.000000,4.000000,4.000000,4.000000,4.000000,39.000000,0.000000,0.373102,0.230957,0.845703,0.303711,0.560555,-0.616220,0.556649,-0.616261,-51.541164,58.207344,,,,,,,,,,,,,,,,,,,,,,,,,
1577742153.149579,79.000000,0.000000,4136.410156,4319.487305,4106.666504,4147.692383,4150.256348,16214.000000,4.000000,,,,0.000000,4.000000,4.000000,4.000000,4.000000,4.000000,,,,,,,,,,,,,,,,,,,,,,,,,,,,,,,,,,,,,
1577742153.157376,80.000000,0.000000,4128.205078,4329.743652,4096.410156,4142.051270,4133.846191,450.000000,4.000000,,,,0.000000,4.000000,4.000000,4.000000,4.000000,4.000000,40.000000,0.000000,0.372747,0.230957,0.845947,0.303467,0.551278,-0.614267,0.569345,-0.016297,-51.531170,58.248516,,,,,,,,,,,,,,,,,,,,,,,,,
1577742153.165273,81.000000,0.000000,4114.358887,4327.179688,4086.153809,4141.538574,4120.512695,450.000000,4.000000,,,,0.000000,4.000000,4.000000,4.000000,4.000000,4.000000,,,,,,,,,,,,,,,,,,,,,,,,,,,,,,,,,,,,,
1577742153.173070,82.000000,0.000000,4122.563965,4340.512695,4098.461426,4155.897461,4131.794922,450.000000,4.000000,,,,0.000000,4.000000,4.000000,4.000000,4.000000,4.000000,41.000000,0.000000,0.372945,0.230957,0.845947,0.303223,0.548837,-0.606455,0.569345,0.643302,-51.581989,58.165939,,,,,,,,,,,,,,,,,,,,,,,,,
1577742153.180968,83.000000,0.000000,4148.205078,4366.153809,4117.948730,4172.820313,4160.512695,16214.000000,4.000000,,,,0.000000,4.000000,4.000000,4.000000,4.000000,4.000000,,,,,,,,,,,,,,,,,,,,,,,,,,,,,,,,,,,,,
1577742153.188865,84.000000,0.000000,4153.846191,4347.692383,4112.307617,4171.794922,4167.692383,450.000000,4.000000,,,,0.000000,4.000000,4.000000,4.000000,4.000000,4.000000,42.000000,0.000000,0.372590,0.230957,0.846191,0.302979,0.547860,-0.605966,0.574228,1.236941,-51.448280,58.151436,,,,,,,,,,,,,,,,,,,,,,,,,
1577742153.196662,85.000000,0.000000,4144.615234,4325.641113,4098.974121,4153.333496,4152.307617,450.000000,4.000000,,,,0.000000,4.000000,4.000000,4.000000,4.000000,4.000000,,,,,,,,,,,,,,,,,,,,,,,,,,,,,,,,,,,,,
1577742153.204560,86.000000,0.000000,4135.897461,4345.128418,4098.461426,4136.922852,4138.974121,450.000000,4.000000,,,,0.000000,4.000000,4.000000,4.000000,4.000000,4.000000,43.000000,0.000000,0.372939,0.230713,0.846191,0.302734,0.560067,-0.609873,0.554696,1.890846,-51.447575,58.018753,,,,,,,,,,,,,,,,,,,,,,,,,
1577742153.212357,87.000000,0.000000,4134.871582,4345.128418,4098.974121,4144.102539,4142.563965,16214.000000,4.000000,,,,0.000000,4.000000,4.000000,4.000000,4.000000,4.000000,,,,,,,,,,,,,,,,,,,,,,,,,,,,,,,,,,,,,
1577742153.220254,88.000000,0.000000,4126.153809,4327.692383,4082.564209,4141.025879,4140.000000,450.000000,4.000000,,,,0.000000,4.000000,4.000000,4.000000,4.000000,4.000000,44.000000,0.000000,0.372583,0.230713,0.846436,0.302490,0.549325,-0.611826,0.560555,2.419546,-51.387123,56.224506,,,,,,,,,,,,,,,,,,,,,,,,,
1577742153.228051,89.000000,0.000000,4119.487305,4347.179688,4075.897461,4130.256348,4136.410156,450.000000,4.000000,,,,0.000000,4.000000,4.000000,4.000000,4.000000,4.000000,,,,,,,,,,,,,,,,,,,,,,,,,,,,,,,,,,,,,
1577742153.235948,90.000000,0.000000,4122.051270,4354.358887,4082.564209,4138.461426,4136.922852,450.000000,4.000000,,,,0.000000,4.000000,4.000000,4.000000,4.000000,4.000000,45.000000,0.000000,0.372590,0.230957,0.846191,0.302979,0.547860,-0.605966,0.574228,5.646883,-51.392532,54.549870,,,,,,,,,,,,,,,,,,,,,,,,,
1577742153.243746,91.000000,0.000000,4115.897461,4325.641113,4080.512939,4137.948730,4127.692383,16214.000000,4.000000,,,,0.000000,4.000000,4.000000,4.000000,4.000000,4.000000,,,,,,,,,,,,,9.522404,6.710147,6.045609,2.315633,4.464446,0.709210,0.551076,1.055203,1.134608,2.514981,1.968266,2.436602,4.232598,2.049000,4.259032,1.075707,3.832138,4.494186,2.723786,5.119782,3.015459,6.802834,6.180708,2.762721,5.089993
1577742153.251643,92.000000,0.000000,4117.436035,4325.128418,4086.153809,4134.358887,4135.384766,450.000000,4.000000,,,,0.000000,4.000000,4.000000,4.000000,4.000000,4.000000,46.000000,0.000000,0.372583,0.230713,0.846436,0.302490,0.549325,-0.611826,0.560555,5.799979,-51.337585,53.102512,,,,,,,,,,,,,,,,,,,,,,,,,
1577742153.259440,93.000000,0.000000,4134.358887,4355.384766,4102.051270,4151.282227,4157.436035,450.000000,4.000000,,,,0.000000,4.000000,4.000000,4.000000,4.000000,4.000000,,,,,,,,,,,,,,,,,,,,,,,,,,,,,,,,,,,,,
1577742153.267337,94.000000,0.000000,4134.871582,4358.461426,4100.512695,4154.358887,4154.871582,450.000000,4.000000,,,,0.000000,4.000000,4.000000,4.000000,4.000000,4.000000,47.000000,0.000000,0.372583,0.230713,0.846436,0.302490,0.561532,-0.599130,0.557137,8.868718,-51.347950,53.534534,,,,,,,,,,,,,,,,,,,,,,,,,
1577742153.275134,95.000000,0.000000,4121.025879,4334.871582,4085.641113,4141.538574,4139.487305,16214.000000,4.000000,,,,0.000000,4.000000,4.000000,4.000000,4.000000,4.000000,,,,,,,,,,,,,,,,,,,,,,,,,,,,,,,,,,,,,
1577742153.283032,96.000000,0.000000,4123.077148,4322.051270,4078.461426,4146.666504,4142.563965,450.000000,4.000000,,,,0.000000,4.000000,4.000000,4.000000,4.000000,4.000000,48.000000,0.000000,0.372932,0.230469,0.846436,0.302246,0.564950,-0.599619,0.557137,4.811632,-51.417091,54.042988,,,,,,,,,,,,,,,,,,,,,,,,,
1577742153.290929,97.000000,0.000000,4140.512695,4346.153809,4078.974365,4156.410156,4158.974121,450.000000,4.000000,,,,0.000000,4.000000,4.000000,4.000000,4.000000,4.000000,,,,,,,,,,,,,,,,,,,,,,,,,,,,,,,,,,,,,
1577742153.298726,98.000000,0.000000,4144.102539,4364.102539,4084.615479,4153.333496,4160.000000,450.000000,4.000000,,,,0.000000,4.000000,4.000000,4.000000,4.000000,4.000000,49.000000,0.000000,0.372932,0.230469,0.846436,0.302246,0.552254,-0.607431,0.567391,5.048253,-51.359688,54.560410,,,,,,,,,,,,,,,,,,,,,,,,,
1577742153.306624,99.000000,0.000000,4143.077148,4344.102539,4098.461426,4159.487305,4160.000000,16214.000000,4.000000,,,,0.000000,4.000000,4.000000,4.000000,4.000000,4.000000,,,,,,,,,,,,,,,,,,,,,,,,,,,,,,,,,,,,,
1577742153.314421,100.000000,0.000000,4137.436035,4334.871582,4092.820557,4150.256348,4160.000000,450.000000,4.000000,,,,0.000000,4.000000,4.000000,4.000000,4.000000,4.000000,50.000000,0.000000,0.372726,0.230225,0.846680,0.302002,0.562997,-0.600107,0.562997,8.192165,-51.367840,54.846645,,,,,,,,,,,,,,,,,,,,,,,,,
1577742153.322319,101.000000,0.000000,4118.974121,4351.794922,4067.692383,4114.871582,4144.102539,450.000000,4.000000,,,,0.000000,4.000000,4.000000,4.000000,4.000000,4.000000,,,,,,,,,,,,,,,,,,,,,,,,,,,,,,,,,,,,,
1577742153.330116,102.000000,0.000000,4139.487305,4371.282227,4087.692383,4134.871582,4160.512695,450.000000,4.000000,,,,0.000000,4.000000,4.000000,4.000000,4.000000,4.000000,51.000000,0.000000,0.372877,0.229980,0.846680,0.302002,0.550301,-0.598642,0.561532,10.961870,-51.255547,55.223885,,,,,,,,,,,,,,,,,,,,,,,,,
1577742153.337914,103.000000,0.000000,4184.615234,4367.179688,4130.769043,4182.563965,4204.615234,16214.000000,4.000000,,,,0.000000,4.000000,4.000000,4.000000,4.000000,4.000000,,,,,,,,,,,,,,,,,,,,,,,,,,,,,,,,,,,,,
1577742153.345811,104.000000,0.000000,4173.846191,4344.615234,4116.410156,4160.512695,4196.410156,450.000000,4.000000,,,,0.000000,4.000000,4.000000,4.000000,4.000000,4.000000,52.000000,0.000000,0.373028,0.229736,0.846680,0.302002,0.543954,-0.601083,0.564462,13.334975,-51.333927,55.623219,,,,,,,,,,,,,,,,,,,,,,,,,
1577742153.353708,105.000000,0.000000,4151.282227,4351.282227,4096.410156,4137.948730,4165.128418,450.000000,4.000000,,,,0.000000,4.000000,4.000000,4.000000,4.000000,4.000000,,,,,,,,,,,,,,,,,,,,,,,,,,,,,,,,,,,,,
1577742153.361506,106.000000,0.000000,4132.307617,4349.230957,4082.564209,4132.307617,4135.384766,450.000000,4.000000,,,,0.000000,4.000000,4.000000,4.000000,4.000000,4.000000,53.000000,0.000000,0.372623,0.229492,0.846924,0.302002,0.550301,-0.601083,0.570321,8.771447,-51.225025,55.982616,,,,,,,,,,,,,,,,,,,,,,,,,
1577742153.369403,107.000000,0.000000,4084.615479,4318.461426,4046.153809,4083.076904,4088.205078,16214.000000,4.000000,,,,0.000000,4.000000,4.000000,4.000000,4.000000,4.000000,,,,,,,,,,,,,11.054651,6.687100,7.416842,2.716367,4.720568,0.557755,0.618751,1.299529,1.337301,2.799240,2.292622,1.754072,3.944304,2.303862,4.360948,1.256097,2.350879,4.284084,2.873316,5.357042,4.018202,5.546336,6.291125,2.879588,5.285751
1577742153.377200,108.000000,0.000000,4111.794922,4345.128418,4076.923096,4102.051270,4115.384766,450.000000,4.000000,,,,0.000000,4.000000,4.000000,4.000000,4.000000,4.000000,54.000000,0.000000,0.372774,0.229248,0.846924,0.302002,0.561532,-0.595712,0.575692,7.655041,-51.246647,56.306076,,,,,,,,,,,,,,,,,,,,,,,,,
1577742153.385098,109.000000,0.000000,4200.000000,4388.205078,4143.077148,4195.384766,4201.538574,450.000000,4.000000,,,,0.000000,4.000000,4.000000,4.000000,4.000000,4.000000,,,,,,,,,,,,,,,,,,,,,,,,,,,,,,,,,,,,,
1577742153.392895,110.000000,0.000000,4179.487305,4350.769043,4113.846191,4180.512695,4184.615234,450.000000,4.000000,,,,0.000000,4.000000,4.000000,4.000000,4.000000,4.000000,55.000000,0.000000,0.372924,0.229004,0.846924,0.302002,0.568368,-0.602060,0.561532,3.719323,-51.325916,56.417744,,,,,,,,,,,,,,,,,,,,,,,,,
1577742153.400693,111.000000,0.000000,4121.025879,4321.025879,4070.769287,4122.051270,4128.717773,16214.000000,4.000000,,,,0.000000,4.000000,4.000000,4.000000,4.000000,4.000000,,,,,,,,,,,,,,,,,,,,,,,,,,,,,,,,,,,,,
1577742153.408390,112.000000,0.000000,4153.333496,4347.179688,4107.179688,4153.846191,4159.487305,450.000000,4.000000,,,,0.000000,4.000000,4.000000,4.000000,4.000000,4.000000,56.000000,0.000000,0.372717,0.228760,0.847168,0.301758,0.559091,-0.607919,0.571786,4.005360,-51.457077,56.637875,,,,,,,,,,,,,,,,,,,,,,,,,
1577742153.416287,113.000000,0.000000,4172.820313,4355.384766,4130.256348,4171.282227,4182.563965,450.000000,4.000000,,,,0.000000,4.000000,4.000000,4.000000,4.000000,4.000000,,,,,,,,,,,,,,,,,,,,,,,,,,,,,,,,,,,,,
1577742153.424084,114.000000,0.000000,4146.153809,4346.666504,4108.205078,4141.538574,4160.000000,450.000000,4.000000,,,,0.000000,4.000000,4.000000,4.000000,4.000000,4.000000,57.000000,0.000000,0.372717,0.228760,0.847168,0.301758,0.558114,-0.606455,0.565438,0.494425,-51.575123,56.835995,,,,,,,,,,,,,,,,,,,,,,,,,
1577742153.431982,115.000000,0.000000,4144.102539,4338.974121,4098.461426,4142.051270,4154.871582,16214.000000,4.000000,,,,0.000000,4.000000,4.000000,4.000000,4.000000,4.000000,,,,,,,,,,,,,,,,,,,,,,,,,,,,,,,,,,,,,
1577742153.439879,116.000000,0.000000,4143.077148,4325.128418,4094.358887,4141.025879,4148.205078,450.000000,4.000000,,,,0.000000,4.000000,4.000000,4.000000,4.000000,4.000000,58.000000,0.000000,0.372866,0.228516,0.847168,0.301758,0.551278,-0.605478,0.568368,1.162767,-51.561733,57.074116,,,,,,,,,,,,,,,,,,,,,,,,,
1577742153.447676,117.000000,0.000000,4132.307617,4336.922852,4088.718018,4124.615234,4137.948730,450.000000,4.000000,,,,0.000000,4.000000,4.000000,4.000000,4.000000,4.000000,,,,,,,,,,,,,,,,,,,,,,,,,,,,,,,,,,,,,
1577742153.455474,118.000000,0.000000,4138.461426,4361.025879,4093.333252,4126.666504,4148.205078,450.000000,4.000000,,,,0.000000,4.000000,4.000000,4.000000,4.000000,4.000000,59.000000,0.000000,0.372311,0.228516,0.847412,0.301758,0.563485,-0.586923,0.581552,1.764274,-51.489864,55.374332,,,,,,,,,,,,,,,,,,,,,,,,,
1577742153.463371,119.000000,0.000000,4158.974121,4362.563965,4108.205078,4144.615234,4169.743652,16214.000000,4.000000,,,,0.000000,4.000000,4.000000,4.000000,4.000000,4.000000,,,,,,,,,,,,,,,,,,,,,,,,,,,,,,,,,,,,,
1577742153.471168,120.000000,0.000000,4173.846191,4347.179688,4117.436035,4160.512695,4186.666504,450.000000,4.000000,,,,0.000000,4.000000,4.000000,4.000000,4.000000,4.000000,60.000000,0.000000,0.372658,0.228271,0.847412,0.301514,0.556161,-0.583017,0.554208,2.425262,-51.604630,55.579174,,,,,,,,,,,,,,,,,,,,,,,,,
1577742153.479065,121.000000,0.000000,4174.358887,4335.897461,4109.743652,4155.897461,4190.769043,450.000000,4.000000,,,,0.000000,4.000000,4.000000,4.000000,4.000000,4.000000,,,,,,,,,,,,,,,,,,,,,,,,,,,,,,,,,,,,,
1577742153.486963,122.000000,0.000000,4179.487305,4345.128418,4107.692383,4152.307617,4196.922852,450.000000,4.000000,,,,0.000000,4.000000,4.000000,4.000000,4.000000,4.000000,61.000000,0.000000,0.372658,0.228271,0.847412,0.301514,0.562509,-0.596201,0.579599,-1.047294,-51.588287,55.763535,,,,,,,,,,,,,,,,,,,,,,,,,
1577742153.494760,123.000000,0.000000,4191.282227,4350.256348,4116.922852,4169.743652,4211.282227,16214.000000,4.000000,,,,0.000000,4.000000,4.000000,4.000000,4.000000,4.000000,,,,,,,,,,,,,13.375194,6.869463,8.757443,3.501700,4.987806,0.478448,0.682373,1.493695,1.516180,3.043150,2.443040,1.330619,3.942309,2.675247,4.398665,1.665756,1.526277,4.188927,3.176274,5.527038,5.220193,4.901694,6.518829,3.192104,5.458679
1577742153.502558,124.000000,0.000000,4188.717773,4329.743652,4108.717773,4168.717773,4210.769043,450.000000,4.000000,,,,0.000000,4.000000,4.000000,4.000000,4.000000,4.000000,62.000000,0.000000,0.372658,0.228271,0.847412,0.301514,0.560067,-0.598642,0.580575,-0.284596,-51.693211,56.108902,,,,,,,,,,,,,,,,,,,,,,,,,
1577742153.510455,125.000000,0.000000,4180.000000,4335.384766,4093.846191,4150.256348,4201.025879,450.000000,4.000000,,,,0.000000,4.000000,4.000000,4.000000,4.000000,4.000000,,,,,,,,,,,,,,,,,,,,,,,,,,,,,,,,,,,,,
1577742153.518252,126.000000,0.000000,4177.436035,4359.487305,4086.666748,4150.769043,4196.410156,450.000000,4.000000,,,,0.000000,4.000000,4.000000,4.000000,4.000000,4.000000,63.000000,0.000000,0.371905,0.228271,0.847656,0.301758,0.558114,-0.600107,0.558602,0.581279,-51.787643,56.240288,,,,,,,,,,,,,,,,,,,,,,,,,
1577742153.525950,127.000000,0.000000,4174.358887,4338.974121,4079.487061,4150.769043,4189.743652,236.000000,4.000000,,,,0.000000,4.000000,4.000000,4.000000,4.000000,4.000000,,,,,,,,,,,,,,,,,,,,,,,,,,,,,,,,,,,,,
1577742153.533747,0.000000,0.000000,4169.743652,4316.922852,4081.025635,4143.589844,4189.230957,450.000000,4.000000,,,,0.000000,4.000000,4.000000,4.000000,4.000000,4.000000,0.000000,0.000000,0.372103,0.228271,0.847656,0.301514,0.556161,-0.598154,0.580087,1.181120,-51.753002,54.564072,,,,,,,,,,,,,,,,,,,,,,,,,
1577742153.541444,1.000000,0.000000,4146.666504,4337.436035,4076.410156,4134.358887,4179.487305,450.000000,4.000000,,,,0.000000,4.000000,4.000000,4.000000,4.000000,4.000000,,,,,,,,,,,,,,,,,,,,,,,,,,,,,,,,,,,,,
1577742153.549341,2.000000,0.000000,4130.769043,4358.974121,4065.128174,4124.102539,4166.666504,16210.000000,4.000000,,,,0.000000,4.000000,4.000000,4.000000,4.000000,4.000000,1.000000,0.000000,0.372103,0.228271,0.847656,0.301514,0.550790,-0.611826,0.576669,1.601346,-51.721821,54.909756,,,,,,,,,,,,,,,,,,,,,,,,,
1577742153.557139,3.000000,0.000000,4153.333496,4353.333496,4077.435791,4139.487305,4177.948730,450.000000,4.000000,,,,0.000000,4.000000,4.000000,4.000000,4.000000,4.000000,,,,,,,,,,,,,,,,,,,,,,,,,,,,,,,,,,,,,
1577742153.564936,4.000000,0.000000,4172.820313,4335.384766,4108.717773,4170.256348,4194.358887,16236.000000,4.000000,,,,0.000000,4.000000,4.000000,4.000000,4.000000,4.000000,2.000000,0.000000,0.372301,0.228271,0.847656,0.301270,0.553231,-0.596201,0.563485,5.089949,-51.873207,55.280685,,,,,,,,,,,,,,,,,,,,,,,,,
1577742153.572634,5.000000,0.000000,4176.410156,4332.307617,4122.051270,4175.384766,4202.051270,450.000000,4.000000,,,,0.000000,4.000000,4.000000,4.000000,4.000000,4.000000,,,,,,,,,,,,,,,,,,,,,,,,,,,,,,,,,,,,,
1577742153.580531,6.000000,0.000000,4193.333496,4350.769043,4118.974121,4173.333496,4216.922852,16142.000000,4.000000,,,,0.000000,4.000000,4.000000,4.000000,4.000000,4.000000,3.000000,0.000000,0.372301,0.228271,0.847656,0.301270,0.538582,-0.594247,0.566903,8.050245,-51.889824,55.614521,,,,,,,,,,,,,,,,,,,,,,,,,
1577742153.588329,7.000000,0.000000,4190.256348,4353.333496,4112.820313,4176.922852,4213.846191,450.000000,4.000000,,,,0.000000,4.000000,4.000000,4.000000,4.000000,4.000000,,,,,,,,,,,,,,,,,,,,,,,,,,,,,,,,,,,,,
1577742153.596126,8.000000,0.000000,4166.666504,4326.153809,4113.333496,4173.846191,4193.846191,450.000000,4.000000,,,,0.000000,4.000000,4.000000,4.000000,4.000000,4.000000,4.000000,0.000000,0.372301,0.228271,0.847656,0.301270,0.551766,-0.600107,0.572274,8.082636,-51.785149,56.094421,,,,,,,,,,,,,,,,,,,,,,,,,
1577742153.603823,9.000000,0.000000,4159.487305,4314.358887,4105.641113,4166.153809,4184.102539,16183.000000,4.000000,,,,0.000000,4.000000,4.000000,4.000000,4.000000,4.000000,,,,,,,,,,,,,,,,,,,,,,,,,,,,,,,,,,,,,
1577742153.611721,10.000000,0.000000,4154.871582,4330.256348,4084.102539,4153.333496,4171.794922,450.000000,4.000000,,,,0.000000,4.000000,4.000000,4.000000,4.000000,4.000000,5.000000,0.000000,0.372301,0.228271,0.847656,0.301270,0.562020,-0.586923,0.568856,10.863295,-51.690937,54.372978,,,,,,,,,,,,,,,,,,,,,,,,,
1577742153.619518,11.000000,0.000000,4156.922852,4337.436035,4090.256348,4152.307617,4170.256348,16206.000000,4.000000,,,,0.000000,4.000000,4.000000,4.000000,4.000000,4.000000,,,,,,,,,,,,,14.536589,6.744075,9.637341,4.566132,5.139034,0.451486,0.721009,1.554454,1.675716,3.198997,2.366332,1.164161,4.070025,3.118170,4.324914,2.171765,1.232736,4.084675,3.667014,5.550303,6.058944,4.585440,6.671809,3.769561,5.481159
1577742153.627415,12.000000,0.000000,4177.436035,4335.384766,4116.410156,4163.077148,4193.333496,450.000000,4.000000,,,,0.000000,4.000000,4.000000,4.000000,4.000000,4.000000,6.000000,0.000000,0.372301,0.228271,0.847656,0.301270,0.560067,-0.603525,0.575204,10.554564,-51.546337,52.883495,,,,,,,,,,,,,,,,,,,,,,,,,
1577742153.635212,13.000000,0.000000,4187.179688,4353.333496,4117.436035,4165.128418,4197.948730,450.000000,4.000000,,,,0.000000,4.000000,4.000000,4.000000,4.000000,4.000000,,,,,,,,,,,,,,,,,,,,,,,,,,,,,,,,,,,,,
1577742153.643109,14.000000,0.000000,4164.102539,4352.307617,4095.897461,4143.589844,4171.794922,450.000000,4.000000,,,,0.000000,4.000000,4.000000,4.000000,4.000000,4.000000,7.000000,0.000000,0.372301,0.228271,0.847656,0.301270,0.550790,-0.598154,0.563973,13.147845,-51.535824,53.397236,,,,,,,,,,,,,,,,,,,,,,,,,
1577742153.650907,15.000000,0.000000,4143.077148,4321.025879,4084.615479,4111.794922,4153.846191,16206.000000,4.000000,,,,0.000000,4.000000,4.000000,4.000000,4.000000,4.000000,,,,,,,,,,,,,,,,,,,,,,,,,,,,,,,,,,,,,
1577742153.658804,16.000000,0.000000,4163.077148,4323.589844,4101.025879,4125.128418,4172.820313,0.000000,4.000000,,,,0.000000,4.000000,4.000000,4.000000,4.000000,4.000000,8.000000,0.000000,0.372301,0.228271,0.847656,0.301270,0.559091,-0.601083,0.571298,12.431214,-51.406731,54.039047,,,,,,,,,,,,,,,,,,,,,,,,,
1577742153.666601,17.000000,0.000000,4188.717773,4360.000000,4114.871582,4164.615234,4197.948730,0.000000,4.000000,,,,0.000000,4.000000,4.000000,4.000000,4.000000,4.000000,,,,,,,,,,,,,,,,,,,,,,,,,,,,,,,,,,,,,
1577742153.674498,18.000000,0.000000,4175.384766,4364.102539,4104.102539,4156.922852,4189.743652,0.000000,4.000000,,,,0.000000,4.000000,4.000000,4.000000,4.000000,4.000000,9.000000,0.000000,0.372301,0.228271,0.847656,0.301270,0.560067,-0.603525,0.575204,10.889016,-51.410179,54.497051,,,,,,,,,,,,,,,,,,,,,,,,,
1577742153.682295,19.000000,0.000000,4150.256348,4325.128418,4086.153809,4120.000000,4162.563965,0.000000,4.000000,,,,0.000000,4.000000,4.000000,4.000000,4.000000,4.000000,,,,,,,,,,,,,,,,,,,,,,,,,,,,,,,,,,,,,
1577742153.690193,20.000000,0.000000,4169.230957,4328.717773,4095.897461,4133.333496,4176.922852,0.000000,4.000000,,,,0.000000,4.000000,4.000000,4.000000,4.000000,4.000000,10.000000,0.000000,0.372301,0.228271,0.847656,0.301270,0.559091,-0.601083,0.571298,10.398269,-51.293652,55.028881,,,,,,,,,,,,,,,,,,,,,,,,,
1577742153.697990,21.000000,0.000000,4198.974121,4370.769043,4114.871582,4169.743652,4209.230957,0.000000,4.000000,,,,0.000000,4.000000,4.000000,4.000000,4.000000,4.000000,,,,,,,,,,,,,,,,,,,,,,,,,,,,,,,,,,,,,
1577742153.705887,22.000000,0.000000,4193.333496,4366.153809,4109.743652,4165.128418,4201.538574,0.000000,4.000000,,,,0.000000,4.000000,4.000000,4.000000,4.000000,4.000000,11.000000,0.000000,0.371953,0.228516,0.847656,0.301514,0.559579,-0.599130,0.572763,9.059364,-51.308411,55.387897,,,,,,,,,,,,,,,,,,,,,,,,,
1577742153.713684,23.000000,0.000000,4172.820313,4320.512695,4087.692383,4140.000000,4177.436035,0.000000,4.000000,,,,0.000000,4.000000,4.000000,4.000000,4.000000,4.000000,,,,,,,,,,,,,,,,,,,,,,,,,,,,,,,,,,,,,
1577742153.721381,24.000000,0.000000,4151.794922,4312.820313,4065.641113,4118.974121,4162.051270,0.000000,4.000000,,,,0.000000,4.000000,4.000000,4.000000,4.000000,4.000000,12.000000,0.000000,0.372658,0.228271,0.847412,0.301514,0.563973,-0.600595,0.566903,8.691767,-51.261875,55.591385,,,,,,,,,,,,,,,,,,,,,,,,,
1577742153.729179,25.000000,0.000000,4150.256348,4347.179688,4070.769287,4122.563965,4167.692383,0.000000,4.000000,,,,0.000000,4.000000,4.000000,4.000000,4.000000,4.000000,,,,,,,,,,,,,,,,,,,,,,,,,,,,,,,,,,,,,
1577742153.736876,26.000000,0.000000,4153.333496,4341.538574,4076.410156,4126.666504,4170.769043,0.000000,4.000000,,,,0.000000,4.000000,4.000000,4.000000,4.000000,4.000000,13.000000,0.000000,0.372658,0.228271,0.847412,0.301514,0.553719,-0.601083,0.574716,8.480559,-51.279808,55.894154,,,,,,,,,,,,,,,,,,,,,,,,,
1577742153.744773,27.000000,0.000000,4129.230957,4312.307617,4056.923096,4092.820557,4141.025879,0.000000,4.000000,,,,0.000000,4.000000,4.000000,4.000000,4.000000,4.000000,,,,,,,,,,,,,14.014625,6.178616,9.772241,5.737669,5.092240,0.440626,0.721827,1.465079,1.839996,3.250626,2.132120,1.155630,4.193145,3.594598,4.127169,2.657251,1.272173,3.899174,4.354552,5.393004,6.219894,4.370381,6.657835,4.624367,5.286002
1577742153.752571,28.000000,0.000000,4146.153809,4329.230957,4080.512939,4113.333496,4156.922852,0.000000,4.000000,,,,0.000000,4.000000,4.000000,4.000000,4.000000,4.000000,14.000000,0.000000,0.372461,0.228271,0.847412,0.301758,0.560067,-0.611337,0.576669,11.221425,-51.295948,56.166641,,,,,,,,,,,,,,,,,,,,,,,,,
1577742153.760468,29.000000,0.000000,4194.358887,4354.871582,4124.615234,4178.974121,4211.282227,0.000000,4.000000,,,,0.000000,4.000000,4.000000,4.000000,4.000000,4.000000,,,,,,,,,,,,,,,,,,,,,,,,,,,,,,,,,,,,,
1577742153.768266,30.000000,0.000000,4192.820313,4350.256348,4111.794922,4173.333496,4207.179688,0.000000,4.000000,,,,0.000000,4.000000,4.000000,4.000000,4.000000,4.000000,15.000000,0.000000,0.372461,0.228271,0.847412,0.301758,0.559579,-0.602060,0.557137,10.697436,-51.370289,56.292252,,,,,,,,,,,,,,,,,,,,,,,,,
1577742153.776163,31.000000,0.000000,4176.410156,4350.256348,4090.769287,4146.666504,4186.153809,0.000000,4.000000,,,,0.000000,4.000000,4.000000,4.000000,4.000000,4.000000,,,,,,,,,,,,,,,,,,,,,,,,,,,,,,,,,,,,,
1577742153.783961,32.000000,0.000000,4168.717773,4332.820313,4087.179443,4143.077148,4181.025879,0.000000,4.000000,,,,0.000000,4.000000,4.000000,4.000000,4.000000,4.000000,16.000000,0.000000,0.372461,0.228271,0.847412,0.301758,0.562997,-0.589853,0.563973,6.577109,-51.377384,54.670658,,,,,,,,,,,,,,,,,,,,,,,,,
1577742153.791858,33.000000,0.000000,4154.871582,4315.897461,4073.333252,4125.641113,4163.077148,0.000000,4.000000,,,,0.000000,4.000000,4.000000,4.000000,4.000000,4.000000,,,,,,,,,,,,,,,,,,,,,,,,,,,,,,,,,,,,,
1577742153.799655,34.000000,0.000000,4172.307617,4341.025879,4090.769287,4139.487305,4171.282227,0.000000,4.000000,,,,0.000000,4.000000,4.000000,4.000000,4.000000,4.000000,17.000000,0.000000,0.372413,0.228027,0.847412,0.302002,0.552743,-0.610361,0.576669,5.799767,-51.383766,55.005684,,,,,,,,,,,,,,,,,,,,,,,,,
1577742153.807553,35.000000,0.000000,4207.179688,4355.897461,4130.769043,4183.589844,4211.282227,0.000000,4.000000,,,,0.000000,4.000000,4.000000,4.000000,4.000000,4.000000,,,,,,,,,,,,,,,,,,,,,,,,,,,,,,,,,,,,,
1577742153.815350,36.000000,0.000000,4189.230957,4330.769043,4112.820313,4162.563965,4201.025879,0.000000,4.000000,,,,0.000000,4.000000,4.000000,4.000000,4.000000,4.000000,18.000000,0.000000,0.372263,0.228271,0.847412,0.302002,0.549813,-0.597177,0.571786,5.877759,-51.449326,55.307205,,,,,,,,,,,,,,,,,,,,,,,,,
1577742153.823247,37.000000,0.000000,4162.563965,4318.461426,4085.128174,4136.410156,4168.717773,0.000000,4.000000,,,,0.000000,4.000000,4.000000,4.000000,4.000000,4.000000,,,,,,,,,,,,,,,,,,,,,,,,,,,,,,,,,,,,,
1577742153.831044,38.000000,0.000000,4177.436035,4340.512695,4101.538574,4166.666504,4177.436035,0.000000,4.000000,,,,0.000000,4.000000,4.000000,4.000000,4.000000,4.000000,19.000000,0.000000,0.372263,0.228271,0.847412,0.302002,0.559091,-0.599130,0.570809,6.007768,-51.568146,55.758022,,,,,,,,,,,,,,,,,,,,,,,,,
1577742153.838841,39.000000,0.000000,4173.333496,4350.769043,4098.461426,4158.461426,4170.769043,0.000000,4.000000,,,,0.000000,4.000000,4.000000,4.000000,4.000000,4.000000,,,,,,,,,,,,,,,,,,,,,,,,,,,,,,,,,,,,,
1577742153.846539,40.000000,0.000000,4166.666504,4343.077148,4085.641113,4142.051270,4165.128418,0.000000,4.000000,,,,0.000000,4.000000,4.000000,4.000000,4.000000,4.000000,20.000000,0.000000,0.372263,0.228271,0.847412,0.302002,0.565927,-0.617685,0.575204,6.064960,-51.555454,55.984310,,,,,,,,,,,,,,,,,,,,,,,,,
1577742153.854436,41.000000,0.000000,4183.077148,4346.153809,4091.794922,4171.282227,4190.769043,0.000000,4.000000,,,,0.000000,4.000000,4.000000,4.000000,4.000000,4.000000,,,,,,,,,,,,,,,,,,,,,,,,,,,,,,,,,,,,,
1577742153.862333,42.000000,0.000000,4169.743652,4346.153809,4085.641113,4169.743652,4186.153809,0.000000,4.000000,,,,0.000000,4.000000,4.000000,4.000000,4.000000,4.000000,21.000000,0.000000,0.372620,0.228271,0.847168,0.302246,0.560555,-0.603525,0.562020,9.047386,-51.484215,56.187969,,,,,,,,,,,,,,,,,,,,,,,,,
1577742153.870131,43.000000,0.000000,4159.487305,4327.179688,4090.256348,4160.000000,4175.384766,0.000000,4.000000,,,,0.000000,4.000000,4.000000,4.000000,4.000000,4.000000,,,,,,,,,,,,,12.051490,5.310760,9.191850,6.784830,4.839473,0.418547,0.694419,1.280256,2.025786,3.212036,1.912625,1.269025,4.289032,4.041559,3.831765,2.934329,1.524992,3.647901,5.143350,5.076465,5.867086,4.170930,6.545322,5.636600,4.891904
1577742153.878028,44.000000,0.000000,4181.538574,4317.948730,4108.717773,4182.563965,4191.282227,0.000000,4.000000,,,,0.000000,4.000000,4.000000,4.000000,4.000000,4.000000,22.000000,0.000000,0.372620,0.228271,0.847168,0.302246,0.566415,-0.610361,0.562997,7.903386,-51.479916,54.516987,,,,,,,,,,,,,,,,,,,,,,,,,
1577742153.885826,45.000000,0.000000,4189.743652,4340.000000,4103.077148,4179.487305,4192.307617,0.000000,4.000000,,,,0.000000,4.000000,4.000000,4.000000,4.000000,4.000000,,,,,,,,,,,,,,,,,,,,,,,,,,,,,,,,,,,,,
1577742153.893723,46.000000,0.000000,4193.846191,4359.487305,4105.128418,4177.436035,4198.461426,0.000000,4.000000,,,,0.000000,4.000000,4.000000,4.000000,4.000000,4.000000,23.000000,0.000000,0.372620,0.228271,0.847168,0.302246,0.557137,-0.598154,0.572274,7.830832,-51.476044,54.807564,,,,,,,,,,,,,,,,,,,,,,,,,
1577742153.901521,47.000000,0.000000,4191.794922,4346.666504,4112.820313,4190.769043,4207.692383,0.000000,4.000000,,,,0.000000,4.000000,4.000000,4.000000,4.000000,4.000000,,,,,,,,,,,,,,,,,,,,,,,,,,,,,,,,,,,,,
1577742153.909418,48.000000,0.000000,4150.256348,4327.692383,4090.256348,4153.333496,4170.769043,0.000000,4.000000,,,,0.000000,4.000000,4.000000,4.000000,4.000000,4.000000,24.000000,0.000000,0.372620,0.228271,0.847168,0.302246,0.546883,-0.586923,0.567391,3.937350,-51.592190,53.274620,,,,,,,,,,,,,,,,,,,,,,,,,
1577742153.917215,49.000000,0.000000,4142.563965,4342.563965,4093.333252,4132.820313,4155.897461,0.000000,4.000000,,,,0.000000,4.000000,4.000000,4.000000,4.000000,4.000000,,,,,,,,,,,,,,,,,,,,,,,,,,,,,,,,,,,,,
1577742153.925113,50.000000,0.000000,4162.051270,4356.922852,4112.307617,4163.077148,4181.025879,0.000000,4.000000,,,,0.000000,4.000000,4.000000,4.000000,4.000000,4.000000,25.000000,0.000000,0.372620,0.228271,0.847168,0.302246,0.562020,-0.614267,0.561044,4.201584,-51.577095,53.749249,,,,,,,,,,,,,,,,,,,,,,,,,
1577742153.932910,51.000000,0.000000,4152.307617,4352.307617,4101.025879,4167.692383,4182.563965,0.000000,4.000000,,,,0.000000,4.000000,4.000000,4.000000,4.000000,4.000000,,,,,,,,,,,,,,,,,,,,,,,,,,,,,,,,,,,,,
1577742153.940808,52.000000,0.000000,4171.794922,4357.948730,4117.948730,4183.077148,4203.077148,0.000000,4.000000,,,,0.000000,4.000000,4.000000,4.000000,4.000000,4.000000,26.000000,0.000000,0.372620,0.228271,0.847168,0.302246,0.557626,-0.607431,0.560067,3.482348,-51.563507,54.116600,,,,,,,,,,,,,,,,,,,,,,,,,
1577742153.948605,53.000000,0.000000,4204.615234,4361.025879,4149.230957,4214.358887,4236.410156,0.000000,4.000000,,,,0.000000,4.000000,4.000000,4.000000,4.000000,4.000000,,,,,,,,,,,,,,,,,,,,,,,,,,,,,,,,,,,,,
1577742153.956502,54.000000,0.000000,4189.230957,4351.282227,4132.307617,4195.897461,4217.436035,0.000000,4.000000,,,,0.000000,4.000000,4.000000,4.000000,4.000000,4.000000,27.000000,0.000000,0.372065,0.228271,0.847412,0.302246,0.561044,-0.603525,0.572763,6.663220,-51.611092,54.447216,,,,,,,,,,,,,,,,,,,,,,,,,
1577742153.964300,55.000000,0.000000,4162.563965,4344.102539,4103.589844,4159.487305,4185.641113,0.000000,4.000000,,,,0.000000,4.000000,4.000000,4.000000,4.000000,4.000000,,,,,,,,,,,,,,,,,,,,,,,,,,,,,,,,,,,,,
1577742153.972197,56.000000,0.000000,4161.025879,4331.282227,4106.153809,4158.974121,4186.153809,0.000000,4.000000,,,,0.000000,4.000000,4.000000,4.000000,4.000000,4.000000,28.000000,0.000000,0.372065,0.228271,0.847412,0.302246,0.562020,-0.602548,0.561044,6.714683,-51.474472,55.043846,,,,,,,,,,,,,,,,,,,,,,,,,
1577742153.979995,57.000000,0.000000,4171.794922,4323.077148,4116.410156,4178.974121,4195.384766,0.000000,4.000000,,,,0.000000,4.000000,4.000000,4.000000,4.000000,4.000000,,,,,,,,,,,,,,,,,,,,,,,,,,,,,,,,,,,,,
1577742153.987792,58.000000,0.000000,4192.307617,4358.461426,4127.692383,4206.666504,4215.384766,0.000000,4.000000,,,,0.000000,4.000000,4.000000,4.000000,4.000000,4.000000,29.000000,0.000000,0.372065,0.228271,0.847412,0.302246,0.562997,-0.604501,0.563485,6.641368,-51.471149,55.461182,,,,,,,,,,,,,,,,,,,,,,,,,
1577742153.995490,59.000000,0.000000,4200.512695,4382.563965,4132.820313,4214.358887,4229.743652,0.000000,4.000000,,,,0.000000,4.000000,4.000000,4.000000,4.000000,4.000000,,,,,,,,,,,,,9.035276,4.494308,8.151395,7.483377,4.441697,0.395498,0.662736,1.098443,2.211347,3.125233,1.855853,1.541490,4.375790,4.371577,3.492857,3.022460,2.020855,3.401290,5.847621,4.670906,5.127325,4.088053,6.429114,6.562820,4.389228
1577742154.003287,60.000000,0.000000,4164.102539,4337.948730,4104.102539,4175.384766,4191.282227,0.000000,4.000000,,,,0.000000,4.000000,4.000000,4.000000,4.000000,4.000000,30.000000,0.000000,0.372065,0.228271,0.847412,0.302246,0.565927,-0.615732,0.563973,2.926647,-51.587784,53.862877,,,,,,,,,,,,,,,,,,,,,,,,,
1577742154.010984,61.000000,0.000000,4144.102539,4321.025879,4092.820557,4163.077148,4170.256348,0.000000,4.000000,,,,0.000000,4.000000,4.000000,4.000000,4.000000,4.000000,,,,,,,,,,,,,,,,,,,,,,,,,,,,,,,,,,,,,
1577742154.018781,62.000000,0.000000,4176.922852,4368.717773,4126.666504,4198.974121,4209.743652,0.000000,4.000000,,,,0.000000,4.000000,4.000000,4.000000,4.000000,4.000000,31.000000,0.000000,0.372065,0.228271,0.847412,0.302246,0.550301,-0.605478,0.562020,-0.536232,-51.573128,54.218864,,,,,,,,,,,,,,,,,,,,,,,,,
1577742154.026479,63.000000,0.000000,4206.153809,4370.256348,4143.589844,4213.333496,4233.333496,0.000000,4.000000,,,,0.000000,4.000000,4.000000,4.000000,4.000000,4.000000,,,,,,,,,,,,,,,,,,,,,,,,,,,,,,,,,,,,,
1577742154.034376,64.000000,0.000000,4197.948730,4334.358887,4128.717773,4205.128418,4217.948730,450.000000,4.000000,,,,0.000000,4.000000,4.000000,4.000000,4.000000,4.000000,32.000000,0.000000,0.372113,0.228516,0.847412,0.302002,0.562509,-0.605478,0.571298,0.175361,-51.500122,54.718700,,,,,,,,,,,,,,,,,,,,,,,,,
1577742154.042173,65.000000,0.000000,4166.153809,4330.769043,4106.666504,4173.333496,4190.769043,450.000000,4.000000,,,,0.000000,4.000000,4.000000,4.000000,4.000000,4.000000,,,,,,,,,,,,,,,,,,,,,,,,,,,,,,,,,,,,,
1577742154.050070,66.000000,0.000000,4140.000000,4337.436035,4086.153809,4125.641113,4164.102539,16208.000000,4.000000,,,,0.000000,4.000000,4.000000,4.000000,4.000000,4.000000,33.000000,0.000000,0.372113,0.228516,0.847412,0.302002,0.562509,-0.598642,0.569345,0.755978,-51.494232,53.314274,,,,,,,,,,,,,,,,,,,,,,,,,
1577742154.057868,67.000000,0.000000,4144.615234,4337.948730,4090.256348,4137.436035,4170.256348,450.000000,4.000000,,,,0.000000,4.000000,4.000000,4.000000,4.000000,4.000000,,,,,,,,,,,,,,,,,,,,,,,,,,,,,,,,,,,,,
1577742154.065765,68.000000,0.000000,4154.358887,4321.538574,4104.102539,4177.948730,4188.205078,16233.000000,4.000000,,,,0.000000,4.000000,4.000000,4.000000,4.000000,4.000000,34.000000,0.000000,0.371557,0.228516,0.847656,0.302002,0.558602,-0.598154,0.555184,1.457980,-51.488930,53.725121,,,,,,,,,,,,,,,,,,,,,,,,,
1577742154.073562,69.000000,0.000000,4148.717773,4318.974121,4097.436035,4159.487305,4172.820313,450.000000,4.000000,,,,0.000000,4.000000,4.000000,4.000000,4.000000,4.000000,,,,,,,,,,,,,,,,,,,,,,,,,,,,,,,,,,,,,
1577742154.081459,70.000000,0.000000,4156.410156,4357.436035,4097.436035,4139.487305,4172.307617,16134.000000,4.000000,,,,0.000000,4.000000,4.000000,4.000000,4.000000,4.000000,35.000000,0.000000,0.371905,0.228271,0.847656,0.301758,0.561044,-0.607431,0.559579,1.132736,-51.424343,54.214516,,,,,,,,,,,,,,,,,,,,,,,,,
1577742154.089256,71.000000,0.000000,4182.563965,4368.717773,4119.487305,4165.641113,4212.307617,450.000000,4.000000,,,,0.000000,4.000000,4.000000,4.000000,4.000000,4.000000,,,,,,,,,,,,,,,,,,,,,,,,,,,,,,,,,,,,,
1577742154.096954,72.000000,0.000000,4202.051270,4335.897461,4131.794922,4184.615234,4230.769043,450.000000,4.000000,,,,0.000000,4.000000,4.000000,4.000000,4.000000,4.000000,36.000000,0.000000,0.371905,0.228271,0.847656,0.301758,0.548348,-0.602548,0.565438,4.668200,-51.545662,54.475525,,,,,,,,,,,,,,,,,,,,,,,,,
1577742154.104751,73.000000,0.000000,4194.358887,4344.102539,4109.230957,4162.051270,4209.230957,16185.000000,4.000000,,,,0.000000,4.000000,4.000000,4.000000,4.000000,4.000000,,,,,,,,,,,,,,,,,,,,,,,,,,,,,,,,,,,,,
1577742154.112448,74.000000,0.000000,4197.436035,4378.461426,4098.461426,4150.256348,4213.846191,450.000000,4.000000,,,,0.000000,4.000000,4.000000,4.000000,4.000000,4.000000,37.000000,0.000000,0.371557,0.228516,0.847656,0.302002,0.558602,-0.598154,0.555184,4.859349,-51.595032,55.009510,,,,,,,,,,,,,,,,,,,,,,,,,
1577742154.120246,75.000000,0.000000,4225.128418,4368.205078,4119.487305,4180.000000,4241.538574,16205.000000,4.000000,,,,0.000000,4.000000,4.000000,4.000000,4.000000,4.000000,,,,,,,,,,,,,6.055211,4.004630,6.963777,7.712381,3.976341,0.369084,0.647037,1.003959,2.349600,3.038025,1.998764,1.967086,4.428328,4.521009,3.154285,2.871597,2.767625,3.202602,6.292403,4.249197,4.381796,4.211163,6.297952,7.166467,3.873919
1577742154.127943,76.000000,0.000000,4224.615234,4354.358887,4128.717773,4193.333496,4237.948730,450.000000,4.000000,,,,0.000000,4.000000,4.000000,4.000000,4.000000,4.000000,38.000000,0.000000,0.371905,0.228271,0.847656,0.301758,0.548348,-0.602548,0.565438,8.022151,-51.699280,55.191017,,,,,,,,,,,,,,,,,,,,,,,,,
1577742154.135740,77.000000,0.000000,4193.333496,4358.974121,4110.256348,4168.717773,4215.384766,450.000000,4.000000,,,,0.000000,4.000000,4.000000,4.000000,4.000000,4.000000,,,,,,,,,,,,,,,,,,,,,,,,,,,,,,,,,,,,,
1577742154.143437,78.000000,0.000000,4185.641113,4350.256348,4102.051270,4154.871582,4205.128418,450.000000,4.000000,,,,0.000000,4.000000,4.000000,4.000000,4.000000,4.000000,39.000000,0.000000,0.371348,0.228271,0.847900,0.301758,0.549325,-0.588876,0.567880,7.937720,-51.793106,55.474007,,,,,,,,,,,,,,,,,,,,,,,,,
1577742154.151235,79.000000,0.000000,4204.102539,4344.102539,4120.512695,4172.307617,4212.307617,16205.000000,4.000000,,,,0.000000,4.000000,4.000000,4.000000,4.000000,4.000000,,,,,,,,,,,,,,,,,,,,,,,,,,,,,,,,,,,,,
1577742154.158932,80.000000,0.000000,4201.025879,4357.436035,4125.128418,4174.871582,4214.871582,450.000000,4.000000,,,,0.000000,4.000000,4.000000,4.000000,4.000000,4.000000,40.000000,0.000000,0.371348,0.228271,0.847900,0.301758,0.550301,-0.602060,0.567391,7.921548,-51.757915,55.668880,,,,,,,,,,,,,,,,,,,,,,,,,
1577742154.166729,81.000000,0.000000,4189.743652,4353.846191,4107.179688,4156.922852,4203.589844,450.000000,4.000000,,,,0.000000,4.000000,4.000000,4.000000,4.000000,4.000000,,,,,,,,,,,,,,,,,,,,,,,,,,,,,,,,,,,,,
1577742154.174427,82.000000,0.000000,4198.461426,4335.384766,4105.128418,4152.307617,4200.000000,450.000000,4.000000,,,,0.000000,4.000000,4.000000,4.000000,4.000000,4.000000,41.000000,0.000000,0.371696,0.228027,0.847900,0.301514,0.555673,-0.608408,0.571786,7.787363,-51.726246,53.989990,,,,,,,,,,,,,,,,,,,,,,,,,
1577742154.182324,83.000000,0.000000,4210.256348,4360.000000,4125.641113,4160.000000,4210.256348,16205.000000,4.000000,,,,0.000000,4.000000,4.000000,4.000000,4.000000,4.000000,,,,,,,,,,,,,,,,,,,,,,,,,,,,,,,,,,,,,
1577742154.190121,84.000000,0.000000,4202.563965,4375.384766,4128.205078,4158.974121,4206.666504,450.000000,4.000000,,,,0.000000,4.000000,4.000000,4.000000,4.000000,4.000000,42.000000,0.000000,0.371696,0.228027,0.847900,0.301514,0.563485,-0.597665,0.562997,10.597548,-51.817371,54.333267,,,,,,,,,,,,,,,,,,,,,,,,,
1577742154.198019,85.000000,0.000000,4197.948730,4347.692383,4116.922852,4158.461426,4201.538574,450.000000,4.000000,,,,0.000000,4.000000,4.000000,4.000000,4.000000,4.000000,,,,,,,,,,,,,,,,,,,,,,,,,,,,,,,,,,,,,
1577742154.205816,86.000000,0.000000,4225.641113,4355.897461,4133.846191,4188.717773,4228.717773,450.000000,4.000000,,,,0.000000,4.000000,4.000000,4.000000,4.000000,4.000000,43.000000,0.000000,0.371696,0.228027,0.847900,0.301514,0.563973,-0.607431,0.575204,13.246346,-51.839573,52.967384,,,,,,,,,,,,,,,,,,,,,,,,,
1577742154.213713,87.000000,0.000000,4231.794922,4371.794922,4140.000000,4192.820313,4232.307617,16205.000000,4.000000,,,,0.000000,4.000000,4.000000,4.000000,4.000000,4.000000,,,,,,,,,,,,,,,,,,,,,,,,,,,,,,,,,,,,,
1577742154.221511,88.000000,0.000000,4204.615234,4348.205078,4116.410156,4156.922852,4200.000000,450.000000,4.000000,,,,0.000000,4.000000,4.000000,4.000000,4.000000,4.000000,44.000000,0.000000,0.371894,0.228027,0.847900,0.301270,0.557137,-0.622080,0.573739,12.460050,-51.620289,53.412922,,,,,,,,,,,,,,,,,,,,,,,,,
1577742154.229408,89.000000,0.000000,4210.256348,4348.205078,4115.897461,4163.589844,4208.205078,450.000000,4.000000,,,,0.000000,4.000000,4.000000,4.000000,4.000000,4.000000,,,,,,,,,,,,,,,,,,,,,,,,,,,,,,,,,,,,,
1577742154.237205,90.000000,0.000000,4231.794922,4364.615234,4129.743652,4194.871582,4234.871582,450.000000,4.000000,,,,0.000000,4.000000,4.000000,4.000000,4.000000,4.000000,45.000000,0.000000,0.371487,0.227783,0.848145,0.301270,0.562020,-0.606943,0.559091,11.931829,-51.722015,54.053165,,,,,,,,,,,,,,,,,,,,,,,,,
1577742154.245102,91.000000,0.000000,4216.410156,4346.666504,4119.487305,4179.487305,4224.615234,16205.000000,4.000000,,,,0.000000,4.000000,4.000000,4.000000,4.000000,4.000000,,,,,,,,,,,,,3.775187,3.946239,5.895522,7.479282,3.504272,0.355187,0.664943,1.022247,2.386091,2.978704,2.287097,2.477031,4.400852,4.457493,2.834338,2.587083,3.675447,3.083196,6.389909,3.860837,3.819270,4.532194,6.068221,7.303982,3.406525
1577742154.252899,92.000000,0.000000,4201.538574,4339.487305,4116.410156,4160.000000,4214.871582,450.000000,4.000000,,,,0.000000,4.000000,4.000000,4.000000,4.000000,4.000000,46.000000,0.000000,0.371685,0.227783,0.848145,0.301025,0.552743,-0.583993,0.570321,11.456430,-51.873379,54.449940,,,,,,,,,,,,,,,,,,,,,,,,,
1577742154.260697,93.000000,0.000000,4215.897461,4354.871582,4131.794922,4178.461426,4224.615234,450.000000,4.000000,,,,0.000000,4.000000,4.000000,4.000000,4.000000,4.000000,,,,,,,,,,,,,,,,,,,,,,,,,,,,,,,,,,,,,
1577742154.268494,94.000000,0.000000,4209.743652,4347.692383,4117.948730,4171.282227,4211.282227,450.000000,4.000000,,,,0.000000,4.000000,4.000000,4.000000,4.000000,4.000000,47.000000,0.000000,0.371685,0.227783,0.848145,0.301025,0.560555,-0.599130,0.569345,7.200388,-51.830162,54.747223,,,,,,,,,,,,,,,,,,,,,,,,,
1577742154.276291,95.000000,0.000000,4215.897461,4351.282227,4120.000000,4172.820313,4213.846191,16205.000000,4.000000,,,,0.000000,4.000000,4.000000,4.000000,4.000000,4.000000,,,,,,,,,,,,,,,,,,,,,,,,,,,,,,,,,,,,,
1577742154.284088,96.000000,0.000000,4256.410156,4375.897461,4161.025879,4215.384766,4251.794922,450.000000,4.000000,,,,0.000000,4.000000,4.000000,4.000000,4.000000,4.000000,48.000000,0.000000,0.371685,0.227783,0.848145,0.301025,0.562997,-0.602548,0.563973,9.889826,-51.851086,55.134403,,,,,,,,,,,,,,,,,,,,,,,,,
1577742154.291786,97.000000,0.000000,4247.692383,4377.436035,4153.333496,4204.615234,4245.128418,450.000000,4.000000,,,,0.000000,4.000000,4.000000,4.000000,4.000000,4.000000,,,,,,,,,,,,,,,,,,,,,,,,,,,,,,,,,,,,,
1577742154.299583,98.000000,0.000000,4204.615234,4357.436035,4111.282227,4155.897461,4207.179688,450.000000,4.000000,,,,0.000000,4.000000,4.000000,4.000000,4.000000,4.000000,49.000000,0.000000,0.371685,0.227783,0.848145,0.301025,0.565927,-0.590341,0.575692,12.549581,-51.869911,55.542686,,,,,,,,,,,,,,,,,,,,,,,,,
1577742154.307280,99.000000,0.000000,4208.205078,4341.025879,4115.897461,4157.948730,4220.000000,16205.000000,4.000000,,,,0.000000,4.000000,4.000000,4.000000,4.000000,4.000000,,,,,,,,,,,,,,,,,,,,,,,,,,,,,,,,,,,,,
1577742154.315178,100.000000,0.000000,4233.333496,4336.922852,4132.307617,4174.871582,4240.000000,450.000000,4.000000,,,,0.000000,4.000000,4.000000,4.000000,4.000000,4.000000,50.000000,0.000000,0.371325,0.227783,0.848389,0.300781,0.563485,-0.593271,0.572274,11.892776,-51.827042,55.730694,,,,,,,,,,,,,,,,,,,,,,,,,
1577742154.322975,101.000000,0.000000,4226.666504,4336.922852,4120.512695,4163.077148,4217.948730,450.000000,4.000000,,,,0.000000,4.000000,4.000000,4.000000,4.000000,4.000000,,,,,,,,,,,,,,,,,,,,,,,,,,,,,,,,,,,,,
1577742154.330873,102.000000,0.000000,4222.051270,4364.102539,4126.153809,4173.846191,4224.615234,450.000000,4.000000,,,,0.000000,4.000000,4.000000,4.000000,4.000000,4.000000,51.000000,0.000000,0.371325,0.227783,0.848389,0.300781,0.541024,-0.601572,0.569833,7.413653,-51.728645,54.045620,,,,,,,,,,,,,,,,,,,,,,,,,
1577742154.338670,103.000000,0.000000,4243.077148,4391.794922,4145.128418,4211.282227,4260.512695,16205.000000,4.000000,,,,0.000000,4.000000,4.000000,4.000000,4.000000,4.000000,,,,,,,,,,,,,,,,,,,,,,,,,,,,,,,,,,,,,
1577742154.346567,104.000000,0.000000,4245.641113,4364.615234,4132.820313,4210.769043,4248.205078,450.000000,4.000000,,,,0.000000,4.000000,4.000000,4.000000,4.000000,4.000000,52.000000,0.000000,0.371325,0.227783,0.848389,0.300781,0.556161,-0.607431,0.571298,7.330257,-51.699902,54.562782,,,,,,,,,,,,,,,,,,,,,,,,,
1577742154.354365,105.000000,1.000000,4242.563965,4363.717773,4131.282227,4206.025879,4243.012695,450.000000,4.000000,,,,0.000000,4.000000,4.000000,4.000000,4.000000,4.000000,,,,,,,,,,,,,,,,,,,,,,,,,,,,,,,,,,,,,
1577742154.362162,106.000000,1.000000,4239.487305,4362.820313,4129.743652,4201.282227,4237.820313,450.000000,4.000000,,,,0.000000,4.000000,4.000000,4.000000,4.000000,4.000000,53.000000,1.000000,0.000000,0.227783,0.848389,0.300720,0.556649,-0.603891,0.000000,0.000000,0.000000,0.000000,,,,,,,,,,,,,,,,,,,,,,,,,
1577742154.369960,107.000000,1.000000,4236.410156,4361.922852,4128.205078,4196.538574,4232.628418,450.000000,4.000000,,,,0.000000,4.000000,4.000000,4.000000,4.000000,4.000000,,,,,,,,,,,,,2.557090,4.205843,5.093217,6.907956,3.071370,0.374853,0.737460,1.113087,2.291817,2.952981,2.572541,2.951802,4.258947,4.203976,2.544244,2.282170,4.555838,3.047640,6.186737,3.542012,3.493263,4.942272,5.671070,6.985634,3.019422
1577742154.377757,108.000000,1.000000,4233.333496,4361.025879,4126.666504,4191.794922,4227.436035,450.000000,4.000000,,,,0.000000,4.000000,4.000000,4.000000,4.000000,4.000000,54.000000,1.000000,0.000000,0.227783,0.848389,0.300659,0.557137,-0.600351,0.000000,0.000000,0.000000,0.000000,,,,,,,,,,,,,,,,,,,,,,,,,
1577742154.385555,109.000000,1.000000,4230.256348,4360.128418,4125.128418,4187.051270,4222.243652,450.000000,4.000000,,,,0.000000,4.000000,4.000000,4.000000,4.000000,4.000000,,,,,,,,,,,,,,,,,,,,,,,,,,,,,,,,,,,,,
1577742154.393352,110.000000,1.000000,4227.179688,4359.230957,4123.589844,4182.307617,4217.051270,450.000000,4.000000,,,,0.000000,4.000000,4.000000,4.000000,4.000000,4.000000,55.000000,1.000000,0.000000,0.227783,0.848389,0.300598,0.557626,-0.596811,0.000000,0.000000,0.000000,0.000000,,,,,,,,,,,,,,,,,,,,,,,,,
1577742154.401150,111.000000,1.000000,4224.102539,4358.333496,4122.051270,4177.563965,4211.858887,450.000000,4.000000,,,,0.000000,4.000000,4.000000,4.000000,4.000000,4.000000,,,,,,,,,,,,,,,,,,,,,,,,,,,,,,,,,,,,,
1577742154.408947,112.000000,0.000000,4221.025879,4357.436035,4120.512695,4172.820313,4206.666504,450.000000,4.000000,,,,0.000000,4.000000,4.000000,4.000000,4.000000,4.000000,56.000000,0.000000,0.371522,0.227783,0.848389,0.300537,0.558114,-0.593271,0.566415,6.417785,-51.674034,54.968410,,,,,,,,,,,,,,,,,,,,,,,,,
1577742154.416644,113.000000,0.000000,4222.051270,4355.897461,4128.205078,4188.717773,4211.282227,450.000000,4.000000,,,,0.000000,4.000000,4.000000,4.000000,4.000000,4.000000,,,,,,,,,,,,,,,,,,,,,,,,,,,,,,,,,,,,,
1577742154.424440,114.000000,0.000000,4232.820313,4369.230957,4133.846191,4204.615234,4233.846191,450.000000,4.000000,,,,0.000000,4.000000,4.000000,4.000000,4.000000,4.000000,57.000000,0.000000,0.371373,0.228027,0.848389,0.300537,0.561044,-0.610361,0.582528,9.245297,-51.650749,55.273659,,,,,,,,,,,,,,,,,,,,,,,,,
1577742154.432136,115.000000,0.000000,4200.512695,4348.717773,4096.410156,4168.205078,4204.102539,16205.000000,4.000000,,,,0.000000,4.000000,4.000000,4.000000,4.000000,4.000000,,,,,,,,,,,,,,,,,,,,,,,,,,,,,,,,,,,,,
1577742154.439933,116.000000,0.000000,4184.615234,4344.102539,4087.179443,4145.641113,4178.461426,450.000000,4.000000,,,,0.000000,4.000000,4.000000,4.000000,4.000000,4.000000,58.000000,0.000000,0.371373,0.228027,0.848389,0.300537,0.561532,-0.596689,0.562509,8.918921,-51.569981,55.608200,,,,,,,,,,,,,,,,,,,,,,,,,
1577742154.447729,117.000000,0.000000,4211.282227,4374.358887,4124.102539,4176.922852,4203.589844,450.000000,4.000000,,,,0.000000,4.000000,4.000000,4.000000,4.000000,4.000000,,,,,,,,,,,,,,,,,,,,,,,,,,,,,,,,,,,,,
1577742154.455425,118.000000,0.000000,4230.256348,4372.820313,4137.436035,4192.307617,4226.666504,450.000000,4.000000,,,,0.000000,4.000000,4.000000,4.000000,4.000000,4.000000,59.000000,0.000000,0.371373,0.228027,0.848389,0.300537,0.564950,-0.600107,0.564462,4.856815,-51.557106,55.789654,,,,,,,,,,,,,,,,,,,,,,,,,
1577742154.463122,119.000000,0.000000,4230.769043,4361.538574,4135.384766,4185.128418,4224.615234,16205.000000,4.000000,,,,0.000000,4.000000,4.000000,4.000000,4.000000,4.000000,,,,,,,,,,,,,,,,,,,,,,,,,,,,,,,,,,,,,
1577742154.470918,120.000000,0.000000,4208.205078,4360.512695,4132.820313,4168.205078,4207.179688,450.000000,4.000000,,,,0.000000,4.000000,4.000000,4.000000,4.000000,4.000000,60.000000,0.000000,0.371420,0.228271,0.848389,0.300293,0.568856,-0.609384,0.564462,5.029103,-51.485703,56.132408,,,,,,,,,,,,,,,,,,,,,,,,,
1577742154.478614,121.000000,0.000000,4197.436035,4357.948730,4132.820313,4163.589844,4209.743652,450.000000,4.000000,,,,0.000000,4.000000,4.000000,4.000000,4.000000,4.000000,,,,,,,,,,,,,,,,,,,,,,,,,,,,,,,,,,,,,
1577742154.486411,122.000000,0.000000,4212.307617,4355.897461,4139.487305,4182.051270,4217.948730,450.000000,4.000000,,,,0.000000,4.000000,4.000000,4.000000,4.000000,4.000000,61.000000,0.000000,0.371420,0.228271,0.848389,0.300293,0.564462,-0.605478,0.576181,8.294560,-51.600883,56.321259,,,,,,,,,,,,,,,,,,,,,,,,,
1577742154.494107,123.000000,0.000000,4218.974121,4354.871582,4140.000000,4190.769043,4216.922852,16205.000000,4.000000,,,,0.000000,4.000000,4.000000,4.000000,4.000000,4.000000,,,,,,,,,,,,,2.166049,4.576897,4.596505,6.183321,2.715217,0.444896,0.892661,1.209496,2.086273,2.952483,2.726061,3.254996,4.011915,3.834586,2.306335,2.096125,5.194328,3.102926,5.827276,3.328315,3.337966,5.282722,5.130906,6.371890,2.738223
1577742154.501903,124.000000,0.000000,4218.461426,4354.358887,4136.410156,4183.077148,4221.025879,450.000000,4.000000,,,,0.000000,4.000000,4.000000,4.000000,4.000000,4.000000,62.000000,0.000000,0.371617,0.228271,0.848389,0.300049,0.552743,-0.604501,0.569345,8.063258,-51.525101,56.491222,,,,,,,,,,,,,,,,,,,,,,,,,
1577742154.509600,125.000000,0.000000,4220.512695,4365.128418,4138.461426,4180.000000,4218.461426,450.000000,4.000000,,,,0.000000,4.000000,4.000000,4.000000,4.000000,4.000000,,,,,,,,,,,,,,,,,,,,,,,,,,,,,,,,,,,,,
1577742154.517396,126.000000,0.000000,4236.922852,4382.563965,4153.846191,4197.948730,4229.230957,450.000000,4.000000,,,,0.000000,4.000000,4.000000,4.000000,4.000000,4.000000,63.000000,0.000000,0.371060,0.228271,0.848633,0.300049,0.555673,-0.597665,0.566903,7.855086,-51.576527,56.943268,,,,,,,,,,,,,,,,,,,,,,,,,
1577742154.525092,127.000000,0.000000,4220.512695,4357.436035,4135.384766,4179.487305,4207.179688,236.000000,4.000000,,,,0.000000,4.000000,4.000000,4.000000,4.000000,4.000000,,,,,,,,,,,,,,,,,,,,,,,,,,,,,,,,,,,,,
1577742154.532789,0.000000,0.000000,4164.102539,4324.615234,4092.820557,4117.436035,4149.230957,450.000000,4.000000,,,,0.000000,4.000000,4.000000,4.000000,4.000000,4.000000,0.000000,0.000000,0.371060,0.228271,0.848633,0.300049,0.561532,-0.595224,0.577157,7.847177,-51.383549,56.871586,,,,,,,,,,,,,,,,,,,,,,,,,
1577742154.540586,1.000000,0.000000,4161.025879,4352.307617,4105.128418,4110.769043,4152.307617,450.000000,4.000000,,,,0.000000,4.000000,4.000000,4.000000,4.000000,4.000000,,,,,,,,,,,,,,,,,,,,,,,,,,,,,,,,,,,,,
1577742154.548282,2.000000,0.000000,4210.769043,4390.769043,4146.153809,4165.641113,4204.615234,16197.000000,4.000000,,,,0.000000,4.000000,4.000000,4.000000,4.000000,4.000000,1.000000,0.000000,0.370909,0.228516,0.848633,0.300049,0.561532,-0.596689,0.569833,7.780244,-51.568764,56.986519,,,,,,,,,,,,,,,,,,,,,,,,,
1577742154.556079,3.000000,0.000000,4222.563965,4377.948730,4143.589844,4184.102539,4211.794922,450.000000,4.000000,,,,0.000000,4.000000,4.000000,4.000000,4.000000,4.000000,,,,,,,,,,,,,,,,,,,,,,,,,,,,,,,,,,,,,
1577742154.563875,4.000000,0.000000,4192.307617,4346.666504,4114.358887,4150.769043,4178.461426,16233.000000,4.000000,,,,0.000000,4.000000,4.000000,4.000000,4.000000,4.000000,2.000000,0.000000,0.371060,0.228271,0.848633,0.300049,0.555673,-0.597665,0.566903,10.591142,-51.615822,55.175865,,,,,,,,,,,,,,,,,,,,,,,,,
1577742154.571572,5.000000,0.000000,4200.512695,4350.769043,4116.922852,4151.794922,4190.769043,450.000000,4.000000,,,,0.000000,4.000000,4.000000,4.000000,4.000000,4.000000,,,,,,,,,,,,,,,,,,,,,,,,,,,,,,,,,,,,,
1577742154.579368,6.000000,0.000000,4227.692383,4366.666504,4130.256348,4173.846191,4220.512695,16136.000000,4.000000,,,,0.000000,4.000000,4.000000,4.000000,4.000000,4.000000,3.000000,0.000000,0.370909,0.228516,0.848633,0.300049,0.561532,-0.596689,0.569833,10.249811,-51.777809,55.460369,,,,,,,,,,,,,,,,,,,,,,,,,
1577742154.587064,7.000000,0.000000,4206.153809,4351.794922,4110.769043,4148.717773,4198.461426,450.000000,4.000000,,,,0.000000,4.000000,4.000000,4.000000,4.000000,4.000000,,,,,,,,,,,,,,,,,,,,,,,,,,,,,,,,,,,,,
1577742154.594861,8.000000,0.000000,4194.871582,4342.051270,4108.205078,4140.000000,4196.922852,450.000000,4.000000,,,,0.000000,4.000000,4.000000,4.000000,4.000000,4.000000,4.000000,0.000000,0.371107,0.228516,0.848633,0.299805,0.548837,-0.599619,0.578134,5.994801,-51.744148,55.656609,,,,,,,,,,,,,,,,,,,,,,,,,
1577742154.602557,9.000000,0.000000,4221.538574,4371.282227,4134.871582,4174.358887,4230.769043,16183.000000,4.000000,,,,0.000000,4.000000,4.000000,4.000000,4.000000,4.000000,,,,,,,,,,,,,,,,,,,,,,,,,,,,,,,,,,,,,
1577742154.610353,10.000000,0.000000,4220.512695,4385.641113,4130.256348,4170.256348,4222.563965,450.000000,4.000000,,,,0.000000,4.000000,4.000000,4.000000,4.000000,4.000000,5.000000,0.000000,0.370956,0.228760,0.848633,0.299805,0.552254,-0.591318,0.562997,2.165291,-51.713856,54.158390,,,,,,,,,,,,,,,,,,,,,,,,,
1577742154.618050,11.000000,0.000000,4202.051270,4351.794922,4104.615234,4146.153809,4198.974121,16199.000000,4.000000,,,,0.000000,4.000000,4.000000,4.000000,4.000000,4.000000,,,,,,,,,,,,,2.241607,4.876652,4.348477,5.459249,2.445719,0.571649,1.141185,1.271759,1.836611,2.948942,2.676287,3.283626,3.702411,3.419329,2.127234,2.079675,5.446531,3.270544,5.444190,3.212785,3.258831,5.431480,4.539628,5.648194,2.557361
1577742154.625746,12.000000,0.000000,4197.436035,4323.077148,4095.384521,4147.179688,4194.871582,450.000000,4.000000,,,,0.000000,4.000000,4.000000,4.000000,4.000000,4.000000,6.000000,0.000000,0.371514,0.228760,0.848389,0.299805,0.547372,-0.589364,0.567391,5.418053,-51.566959,54.664272,,,,,,,,,,,,,,,,,,,,,,,,,
1577742154.633542,13.000000,0.000000,4210.769043,4350.769043,4117.948730,4166.153809,4209.743652,450.000000,4.000000,,,,0.000000,4.000000,4.000000,4.000000,4.000000,4.000000,,,,,,,,,,,,,,,,,,,,,,,,,,,,,,,,,,,,,
1577742154.641239,14.000000,0.000000,4225.641113,4387.179688,4137.948730,4178.974121,4223.589844,450.000000,4.000000,,,,0.000000,4.000000,4.000000,4.000000,4.000000,4.000000,7.000000,0.000000,0.371514,0.228760,0.848389,0.299805,0.552254,-0.585946,0.564462,5.474401,-51.674015,54.940121,,,,,,,,,,,,,,,,,,,,,,,,,
1577742154.649035,15.000000,0.000000,4184.615234,4361.538574,4098.974121,4136.410156,4184.615234,16199.000000,4.000000,,,,0.000000,4.000000,4.000000,4.000000,4.000000,4.000000,,,,,,,,,,,,,,,,,,,,,,,,,,,,,,,,,,,,,
1577742154.656731,16.000000,0.000000,4143.077148,4330.769043,4067.692383,4100.512695,4149.230957,0.000000,4.000000,,,,0.000000,4.000000,4.000000,4.000000,4.000000,4.000000,8.000000,0.000000,0.371467,0.228516,0.848389,0.300049,0.558602,-0.596689,0.565438,1.816562,-51.770367,53.453739,,,,,,,,,,,,,,,,,,,,,,,,,
1577742154.664528,17.000000,0.000000,4180.000000,4355.897461,4106.153809,4155.897461,4192.307617,0.000000,4.000000,,,,0.000000,4.000000,4.000000,4.000000,4.000000,4.000000,,,,,,,,,,,,,,,,,,,,,,,,,,,,,,,,,,,,,
1577742154.672224,18.000000,0.000000,4227.179688,4385.128418,4140.512695,4211.794922,4237.948730,0.000000,4.000000,,,,0.000000,4.000000,4.000000,4.000000,4.000000,4.000000,9.000000,0.000000,0.371060,0.228271,0.848633,0.300049,0.568368,-0.590341,0.577157,5.223828,-51.797268,54.030087,,,,,,,,,,,,,,,,,,,,,,,,,
1577742154.680020,19.000000,0.000000,4217.436035,4372.820313,4126.153809,4200.000000,4223.589844,0.000000,4.000000,,,,0.000000,4.000000,4.000000,4.000000,4.000000,4.000000,,,,,,,,,,,,,,,,,,,,,,,,,,,,,,,,,,,,,
1577742154.687717,20.000000,0.000000,4188.205078,4358.461426,4101.025879,4174.871582,4200.000000,0.000000,4.000000,,,,0.000000,4.000000,4.000000,4.000000,4.000000,4.000000,10.000000,0.000000,0.371012,0.228027,0.848633,0.300293,0.561044,-0.604013,0.570809,5.419230,-51.821476,54.488983,,,,,,,,,,,,,,,,,,,,,,,,,
1577742154.695513,21.000000,0.000000,4176.922852,4354.871582,4085.128174,4163.077148,4190.769043,0.000000,4.000000,,,,0.000000,4.000000,4.000000,4.000000,4.000000,4.000000,,,,,,,,,,,,,,,,,,,,,,,,,,,,,,,,,,,,,
1577742154.703209,22.000000,0.000000,4184.615234,4334.871582,4091.794922,4157.436035,4188.717773,0.000000,4.000000,,,,0.000000,4.000000,4.000000,4.000000,4.000000,4.000000,11.000000,0.000000,0.370862,0.228271,0.848633,0.300293,0.558114,-0.610849,0.584482,1.766908,-51.903084,53.047714,,,,,,,,,,,,,,,,,,,,,,,,,
1577742154.711006,23.000000,0.000000,4216.922852,4340.000000,4129.230957,4182.051270,4219.487305,0.000000,4.000000,,,,0.000000,4.000000,4.000000,4.000000,4.000000,4.000000,,,,,,,,,,,,,,,,,,,,,,,,,,,,,,,,,,,,,
1577742154.718702,24.000000,0.000000,4216.922852,4358.461426,4128.205078,4186.666504,4227.179688,0.000000,4.000000,,,,0.000000,4.000000,4.000000,4.000000,4.000000,4.000000,12.000000,0.000000,0.370862,0.228271,0.848633,0.300293,0.551278,-0.610361,0.571786,5.298769,-51.916710,53.604847,,,,,,,,,,,,,,,,,,,,,,,,,
1577742154.726498,25.000000,0.000000,4186.666504,4342.563965,4097.436035,4162.051270,4195.897461,0.000000,4.000000,,,,0.000000,4.000000,4.000000,4.000000,4.000000,4.000000,,,,,,,,,,,,,,,,,,,,,,,,,,,,,,,,,,,,,
1577742154.734195,26.000000,0.000000,4191.282227,4338.974121,4110.256348,4169.743652,4201.538574,0.000000,4.000000,,,,0.000000,4.000000,4.000000,4.000000,4.000000,4.000000,13.000000,0.000000,0.370909,0.228516,0.848633,0.300049,0.550301,-0.606943,0.576669,5.546492,-51.869160,53.986641,,,,,,,,,,,,,,,,,,,,,,,,,
1577742154.741991,27.000000,0.000000,4204.102539,4374.358887,4127.179688,4177.436035,4214.871582,0.000000,4.000000,,,,0.000000,4.000000,4.000000,4.000000,4.000000,4.000000,,,,,,,,,,,,,2.494687,5.026246,4.250569,4.813655,2.252526,0.734066,1.456129,1.295731,1.626435,2.899348,2.474408,3.030056,3.365091,2.998075,1.996228,2.215212,5.308343,3.554935,5.091502,3.150594,3.264334,5.375443,4.030039,4.935474,2.445214
1577742154.749687,28.000000,0.000000,4191.794922,4370.769043,4105.641113,4155.384766,4191.282227,0.000000,4.000000,,,,0.000000,4.000000,4.000000,4.000000,4.000000,4.000000,14.000000,0.000000,0.370956,0.228760,0.848633,0.299805,0.556161,-0.604501,0.579599,5.649812,-52.005814,54.390064,,,,,,,,,,,,,,,,,,,,,,,,,
1577742154.757484,29.000000,0.000000,4170.256348,4331.794922,4089.743652,4141.025879,4170.769043,0.000000,4.000000,,,,0.000000,4.000000,4.000000,4.000000,4.000000,4.000000,,,,,,,,,,,,,,,,,,,,,,,,,,,,,,,,,,,,,
1577742154.765180,30.000000,0.000000,4184.102539,4348.205078,4113.846191,4164.102539,4192.307617,0.000000,4.000000,,,,0.000000,4.000000,4.000000,4.000000,4.000000,4.000000,15.000000,0.000000,0.370956,0.228760,0.848633,0.299805,0.564462,-0.603525,0.566903,5.802615,-51.829723,54.753151,,,,,,,,,,,,,,,,,,,,,,,,,
1577742154.772976,31.000000,0.000000,4222.051270,4388.717773,4143.589844,4192.820313,4221.025879,0.000000,4.000000,,,,0.000000,4.000000,4.000000,4.000000,4.000000,4.000000,,,,,,,,,,,,,,,,,,,,,,,,,,,,,,,,,,,,,
1577742154.780673,32.000000,0.000000,4218.974121,4372.307617,4141.025879,4181.538574,4212.820313,0.000000,4.000000,,,,0.000000,4.000000,4.000000,4.000000,4.000000,4.000000,16.000000,0.000000,0.370956,0.228760,0.848633,0.299805,0.561532,-0.586435,0.562997,5.999953,-51.910503,55.139740,,,,,,,,,,,,,,,,,,,,,,,,,
1577742154.788369,33.000000,0.000000,4177.436035,4326.666504,4118.974121,4147.692383,4178.974121,0.000000,4.000000,,,,0.000000,4.000000,4.000000,4.000000,4.000000,4.000000,,,,,,,,,,,,,,,,,,,,,,,,,,,,,,,,,,,,,
1577742154.796166,34.000000,0.000000,4149.230957,4319.487305,4102.051270,4125.128418,4147.179688,0.000000,4.000000,,,,0.000000,4.000000,4.000000,4.000000,4.000000,4.000000,17.000000,0.000000,0.370956,0.228760,0.848633,0.299805,0.553231,-0.582040,0.566415,2.169928,-51.863575,55.487671,,,,,,,,,,,,,,,,,,,,,,,,,
1577742154.803862,35.000000,0.000000,4144.102539,4353.333496,4092.820557,4118.974121,4131.282227,0.000000,4.000000,,,,0.000000,4.000000,4.000000,4.000000,4.000000,4.000000,,,,,,,,,,,,,,,,,,,,,,,,,,,,,,,,,,,,,
1577742154.811658,36.000000,0.000000,4154.871582,4371.794922,4104.102539,4140.000000,4150.256348,0.000000,4.000000,,,,0.000000,4.000000,4.000000,4.000000,4.000000,4.000000,18.000000,0.000000,0.370909,0.228516,0.848633,0.300049,0.558602,-0.588388,0.560555,5.541858,-51.940968,55.740997,,,,,,,,,,,,,,,,,,,,,,,,,
1577742154.819355,37.000000,0.000000,4196.922852,4374.358887,4144.615234,4185.128418,4206.153809,0.000000,4.000000,,,,0.000000,4.000000,4.000000,4.000000,4.000000,4.000000,,,,,,,,,,,,,,,,,,,,,,,,,,,,,,,,,,,,,
1577742154.827151,38.000000,0.000000,4200.512695,4363.589844,4137.436035,4167.179688,4200.512695,0.000000,4.000000,,,,0.000000,4.000000,4.000000,4.000000,4.000000,4.000000,19.000000,0.000000,0.370909,0.228516,0.848633,0.300049,0.561532,-0.583017,0.564462,8.456963,-51.831177,54.234341,,,,,,,,,,,,,,,,,,,,,,,,,
1577742154.834847,39.000000,0.000000,4155.897461,4334.358887,4090.769287,4111.282227,4145.641113,0.000000,4.000000,,,,0.000000,4.000000,4.000000,4.000000,4.000000,4.000000,,,,,,,,,,,,,,,,,,,,,,,,,,,,,,,,,,,,,
1577742154.842644,40.000000,0.000000,4167.179688,4334.358887,4107.179688,4136.410156,4168.717773,0.000000,4.000000,,,,0.000000,4.000000,4.000000,4.000000,4.000000,4.000000,20.000000,0.000000,0.371060,0.228271,0.848633,0.300049,0.557626,-0.597665,0.572763,8.448682,-51.911812,54.672813,,,,,,,,,,,,,,,,,,,,,,,,,
1577742154.850340,41.000000,0.000000,4200.512695,4360.000000,4139.487305,4169.743652,4208.717773,0.000000,4.000000,,,,0.000000,4.000000,4.000000,4.000000,4.000000,4.000000,,,,,,,,,,,,,,,,,,,,,,,,,,,,,,,,,,,,,
1577742154.858136,42.000000,0.000000,4194.358887,4360.000000,4130.769043,4144.102539,4187.692383,0.000000,4.000000,,,,0.000000,4.000000,4.000000,4.000000,4.000000,4.000000,21.000000,0.000000,0.371060,0.228271,0.848633,0.300049,0.550790,-0.605966,0.567880,8.381413,-51.984383,54.947807,,,,,,,,,,,,,,,,,,,,,,,,,
1577742154.865833,43.000000,0.000000,4188.717773,4345.641113,4128.717773,4138.974121,4179.487305,0.000000,4.000000,,,,0.000000,4.000000,4.000000,4.000000,4.000000,4.000000,,,,,,,,,,,,,2.807338,5.014883,4.137650,4.265991,2.131042,0.877203,1.756925,1.308337,1.524083,2.779560,2.184027,2.584550,3.015722,2.604635,1.910009,2.395719,4.914305,3.898095,4.770247,3.109621,3.391571,5.207565,3.647986,4.295746,2.380981
1577742154.873629,44.000000,0.000000,4191.282227,4341.025879,4135.384766,4159.487305,4193.333496,0.000000,4.000000,,,,0.000000,4.000000,4.000000,4.000000,4.000000,4.000000,22.000000,0.000000,0.371060,0.228271,0.848633,0.300049,0.556649,-0.590829,0.559091,8.141426,-51.930065,55.314930,,,,,,,,,,,,,,,,,,,,,,,,,
1577742154.881325,45.000000,0.000000,4186.666504,4342.051270,4124.615234,4155.384766,4185.641113,0.000000,4.000000,,,,0.000000,4.000000,4.000000,4.000000,4.000000,4.000000,,,,,,,,,,,,,,,,,,,,,,,,,,,,,,,,,,,,,
1577742154.889122,46.000000,0.000000,4191.282227,4351.282227,4115.897461,4148.205078,4186.666504,0.000000,4.000000,,,,0.000000,4.000000,4.000000,4.000000,4.000000,4.000000,23.000000,0.000000,0.371210,0.228027,0.848633,0.300049,0.547860,-0.598642,0.582040,10.796575,-51.881180,53.731251,,,,,,,,,,,,,,,,,,,,,,,,,
1577742154.896818,47.000000,0.000000,4185.128418,4354.358887,4105.128418,4136.922852,4189.230957,0.000000,4.000000,,,,0.000000,4.000000,4.000000,4.000000,4.000000,4.000000,,,,,,,,,,,,,,,,,,,,,,,,,,,,,,,,,,,,,
1577742154.904515,48.000000,0.000000,4172.820313,4352.820313,4098.461426,4127.179688,4177.436035,0.000000,4.000000,,,,0.000000,4.000000,4.000000,4.000000,4.000000,4.000000,24.000000,0.000000,0.371012,0.228027,0.848633,0.300293,0.563973,-0.589853,0.579599,9.298209,-51.837185,54.040588,,,,,,,,,,,,,,,,,,,,,,,,,
1577742154.912311,49.000000,0.000000,4167.179688,4351.282227,4094.358887,4126.666504,4168.205078,0.000000,4.000000,,,,0.000000,4.000000,4.000000,4.000000,4.000000,4.000000,,,,,,,,,,,,,,,,,,,,,,,,,,,,,,,,,,,,,
1577742154.920108,50.000000,0.000000,4109.743652,4307.179688,4041.025635,4068.205078,4119.487305,0.000000,4.000000,,,,0.000000,4.000000,4.000000,4.000000,4.000000,4.000000,25.000000,0.000000,0.371012,0.228027,0.848633,0.300293,0.558602,-0.608408,0.577646,5.138359,-51.857403,54.498436,,,,,,,,,,,,,,,,,,,,,,,,,
1577742154.927804,51.000000,0.000000,4094.358887,4302.563965,4029.230713,4047.179443,4106.153809,0.000000,4.000000,,,,0.000000,4.000000,4.000000,4.000000,4.000000,4.000000,,,,,,,,,,,,,,,,,,,,,,,,,,,,,,,,,,,,,
1577742154.935600,52.000000,0.000000,4193.846191,4372.307617,4123.077148,4145.128418,4198.461426,0.000000,4.000000,,,,0.000000,4.000000,4.000000,4.000000,4.000000,4.000000,26.000000,0.000000,0.371012,0.228027,0.848633,0.300293,0.557626,-0.586923,0.563973,8.093814,-51.815784,52.996407,,,,,,,,,,,,,,,,,,,,,,,,,
1577742154.943297,53.000000,0.000000,4226.153809,4372.307617,4160.000000,4174.358887,4232.820313,0.000000,4.000000,,,,0.000000,4.000000,4.000000,4.000000,4.000000,4.000000,,,,,,,,,,,,,,,,,,,,,,,,,,,,,,,,,,,,,
1577742154.950993,54.000000,0.000000,4180.512695,4325.641113,4114.358887,4121.025879,4189.743652,0.000000,4.000000,,,,0.000000,4.000000,4.000000,4.000000,4.000000,4.000000,27.000000,0.000000,0.371373,0.228027,0.848389,0.300537,0.557626,-0.601572,0.573739,7.942401,-51.897957,53.618484,,,,,,,,,,,,,,,,,,,,,,,,,
1577742154.958789,55.000000,0.000000,4190.769043,4342.051270,4114.358887,4134.358887,4194.871582,0.000000,4.000000,,,,0.000000,4.000000,4.000000,4.000000,4.000000,4.000000,,,,,,,,,,,,,,,,,,,,,,,,,,,,,,,,,,,,,
1577742154.966486,56.000000,0.000000,4189.743652,4353.333496,4123.589844,4147.692383,4196.922852,0.000000,4.000000,,,,0.000000,4.000000,4.000000,4.000000,4.000000,4.000000,28.000000,0.000000,0.371570,0.228027,0.848389,0.300293,0.545907,-0.618173,0.575204,10.737083,-51.912098,54.118542,,,,,,,,,,,,,,,,,,,,,,,,,
1577742154.974282,57.000000,0.000000,4155.384766,4331.794922,4099.487305,4121.538574,4174.871582,0.000000,4.000000,,,,0.000000,4.000000,4.000000,4.000000,4.000000,4.000000,,,,,,,,,,,,,,,,,,,,,,,,,,,,,,,,,,,,,
1577742154.981978,58.000000,0.000000,4166.153809,4340.000000,4102.563965,4135.384766,4197.436035,0.000000,4.000000,,,,0.000000,4.000000,4.000000,4.000000,4.000000,4.000000,29.000000,0.000000,0.371012,0.228027,0.848633,0.300293,0.558602,-0.601572,0.567391,10.381160,-51.805195,54.508778,,,,,,,,,,,,,,,,,,,,,,,,,
1577742154.989775,59.000000,0.000000,4156.922852,4334.358887,4093.333252,4126.666504,4191.794922,0.000000,4.000000,,,,0.000000,4.000000,4.000000,4.000000,4.000000,4.000000,,,,,,,,,,,,,3.095650,4.868223,3.924270,3.853081,2.098194,0.946355,1.949813,1.331124,1.558216,2.612893,1.883126,2.087632,2.667412,2.301749,1.885979,2.522418,4.465426,4.213439,4.502624,3.090923,3.664728,5.048640,3.377409,3.790818,2.376717
1577742154.997471,60.000000,0.000000,4125.128418,4311.282227,4066.666748,4092.820557,4154.871582,0.000000,4.000000,,,,0.000000,4.000000,4.000000,4.000000,4.000000,4.000000,30.000000,0.000000,0.371373,0.228027,0.848389,0.300537,0.557626,-0.601572,0.573739,8.984151,-51.589352,54.800175,,,,,,,,,,,,,,,,,,,,,,,,,
1577742155.005267,61.000000,0.000000,4165.128418,4343.077148,4099.487305,4131.282227,4196.410156,0.000000,4.000000,,,,0.000000,4.000000,4.000000,4.000000,4.000000,4.000000,,,,,,,,,,,,,,,,,,,,,,,,,,,,,,,,,,,,,
1577742155.012964,62.000000,0.000000,4212.820313,4378.974121,4143.077148,4181.538574,4252.820313,0.000000,4.000000,,,,0.000000,4.000000,4.000000,4.000000,4.000000,4.000000,31.000000,0.000000,0.371012,0.228027,0.848633,0.300293,0.558602,-0.601572,0.567391,8.803520,-51.514721,55.122250,,,,,,,,,,,,,,,,,,,,,,,,,
1577742155.020760,63.000000,0.000000,4196.410156,4363.589844,4131.282227,4162.563965,4237.948730,0.000000,4.000000,,,,0.000000,4.000000,4.000000,4.000000,4.000000,4.000000,,,,,,,,,,,,,,,,,,,,,,,,,,,,,,,,,,,,,
1577742155.028456,64.000000,0.000000,4180.000000,4342.051270,4117.948730,4134.871582,4211.794922,450.000000,4.000000,,,,0.000000,4.000000,4.000000,4.000000,4.000000,4.000000,32.000000,0.000000,0.371012,0.228027,0.848633,0.300293,0.558114,-0.592782,0.566415,7.564276,-51.327927,55.352299,,,,,,,,,,,,,,,,,,,,,,,,,
1577742155.036253,65.000000,0.000000,4193.333496,4346.666504,4135.384766,4149.743652,4223.077148,450.000000,4.000000,,,,0.000000,4.000000,4.000000,4.000000,4.000000,4.000000,,,,,,,,,,,,,,,,,,,,,,,,,,,,,,,,,,,,,
1577742155.043949,66.000000,0.000000,4189.230957,4341.538574,4125.641113,4155.897461,4218.461426,16221.000000,4.000000,,,,0.000000,4.000000,4.000000,4.000000,4.000000,4.000000,33.000000,0.000000,0.371012,0.228027,0.848633,0.300293,0.561532,-0.599619,0.569833,7.465818,-51.339252,55.678974,,,,,,,,,,,,,,,,,,,,,,,,,
1577742155.051646,67.000000,0.000000,4165.128418,4324.102539,4098.461426,4134.871582,4186.153809,450.000000,4.000000,,,,0.000000,4.000000,4.000000,4.000000,4.000000,4.000000,,,,,,,,,,,,,,,,,,,,,,,,,,,,,,,,,,,,,
1577742155.059442,68.000000,0.000000,4155.384766,4332.820313,4095.897461,4123.589844,4169.743652,16242.000000,4.000000,,,,0.000000,4.000000,4.000000,4.000000,4.000000,4.000000,34.000000,0.000000,0.371210,0.228027,0.848633,0.300049,0.554208,-0.594247,0.565927,3.549021,-51.349449,55.972984,,,,,,,,,,,,,,,,,,,,,,,,,
1577742155.067139,69.000000,0.000000,4162.051270,4354.871582,4106.666504,4131.282227,4177.436035,450.000000,4.000000,,,,0.000000,4.000000,4.000000,4.000000,4.000000,4.000000,,,,,,,,,,,,,,,,,,,,,,,,,,,,,,,,,,,,,
1577742155.074935,70.000000,0.000000,4189.743652,4361.025879,4126.153809,4159.487305,4208.205078,16135.000000,4.000000,,,,0.000000,4.000000,4.000000,4.000000,4.000000,4.000000,35.000000,0.000000,0.371162,0.227783,0.848633,0.300293,0.566903,-0.596689,0.570809,0.083720,-51.238995,56.237591,,,,,,,,,,,,,,,,,,,,,,,,,
1577742155.082632,71.000000,0.000000,4203.077148,4351.282227,4130.256348,4170.769043,4224.102539,450.000000,4.000000,,,,0.000000,4.000000,4.000000,4.000000,4.000000,4.000000,,,,,,,,,,,,,,,,,,,,,,,,,,,,,,,,,,,,,
1577742155.090329,72.000000,0.000000,4192.307617,4352.820313,4121.025879,4157.436035,4209.230957,450.000000,4.000000,,,,0.000000,4.000000,4.000000,4.000000,4.000000,4.000000,36.000000,0.000000,0.371162,0.227783,0.848633,0.300293,0.571298,-0.597665,0.571298,0.613687,-51.139587,56.415924,,,,,,,,,,,,,,,,,,,,,,,,,
1577742155.098125,73.000000,0.000000,4202.051270,4360.512695,4132.307617,4168.205078,4214.358887,16191.000000,4.000000,,,,0.000000,4.000000,4.000000,4.000000,4.000000,4.000000,,,,,,,,,,,,,,,,,,,,,,,,,,,,,,,,,,,,,
1577742155.105922,74.000000,0.000000,4208.205078,4352.307617,4137.948730,4171.794922,4224.615234,450.000000,4.000000,,,,0.000000,4.000000,4.000000,4.000000,4.000000,4.000000,37.000000,0.000000,0.371162,0.227783,0.848633,0.300293,0.570809,-0.596201,0.562509,1.090656,-51.109936,56.636234,,,,,,,,,,,,,,,,,,,,,,,,,
1577742155.113618,75.000000,0.000000,4175.897461,4332.307617,4110.256348,4130.256348,4189.230957,16213.000000,4.000000,,,,0.000000,4.000000,4.000000,4.000000,4.000000,4.000000,,,,,,,,,,,,,3.291384,4.708106,3.606264,3.629468,2.189518,0.915682,1.971559,1.372457,1.714377,2.465086,1.661346,1.724719,2.323720,2.156882,1.959476,2.564634,4.151899,4.396691,4.333488,3.132680,4.032703,5.028421,3.131712,3.480205,2.472551
1577742155.121415,76.000000,0.000000,4166.666504,4330.769043,4109.230957,4125.128418,4172.820313,450.000000,4.000000,,,,0.000000,4.000000,4.000000,4.000000,4.000000,4.000000,38.000000,0.000000,0.371720,0.227783,0.848389,0.300293,0.554696,-0.606455,0.565438,-2.009178,-51.143063,56.834518,,,,,,,,,,,,,,,,,,,,,,,,,
1577742155.129112,77.000000,0.000000,4209.230957,4353.846191,4136.410156,4169.230957,4213.846191,450.000000,4.000000,,,,0.000000,4.000000,4.000000,4.000000,4.000000,4.000000,,,,,,,,,,,,,,,,,,,,,,,,,,,,,,,,,,,,,
1577742155.136908,78.000000,0.000000,4221.025879,4351.282227,4124.615234,4163.589844,4218.461426,450.000000,4.000000,,,,0.000000,4.000000,4.000000,4.000000,4.000000,4.000000,39.000000,0.000000,0.371162,0.227783,0.848633,0.300293,0.554208,-0.600595,0.572274,1.661031,-51.232693,57.072788,,,,,,,,,,,,,,,,,,,,,,,,,
1577742155.144605,79.000000,0.000000,4197.436035,4330.769043,4101.538574,4125.641113,4183.077148,16213.000000,4.000000,,,,0.000000,4.000000,4.000000,4.000000,4.000000,4.000000,,,,,,,,,,,,,,,,,,,,,,,,,,,,,,,,,,,,,
1577742155.152401,80.000000,0.000000,4205.128418,4333.846191,4112.307617,4129.743652,4187.692383,450.000000,4.000000,,,,0.000000,4.000000,4.000000,4.000000,4.000000,4.000000,40.000000,0.000000,0.371162,0.227783,0.848633,0.300293,0.569833,-0.597177,0.570321,5.024035,-51.253544,57.107784,,,,,,,,,,,,,,,,,,,,,,,,,
1577742155.160098,81.000000,0.000000,4217.948730,4341.025879,4124.615234,4149.230957,4208.205078,450.000000,4.000000,,,,0.000000,4.000000,4.000000,4.000000,4.000000,4.000000,,,,,,,,,,,,,,,,,,,,,,,,,,,,,,,,,,,,,
1577742155.167894,82.000000,0.000000,4198.974121,4342.051270,4116.410156,4146.666504,4199.487305,450.000000,4.000000,,,,0.000000,4.000000,4.000000,4.000000,4.000000,4.000000,41.000000,0.000000,0.371162,0.227783,0.848633,0.300293,0.547372,-0.600595,0.575692,5.119785,-51.212498,57.258911,,,,,,,,,,,,,,,,,,,,,,,,,
1577742155.175590,83.000000,0.000000,4184.102539,4348.205078,4110.256348,4136.410156,4187.692383,16213.000000,4.000000,,,,0.000000,4.000000,4.000000,4.000000,4.000000,4.000000,,,,,,,,,,,,,,,,,,,,,,,,,,,,,,,,,,,,,
1577742155.183387,84.000000,0.000000,4183.077148,4342.563965,4106.153809,4123.077148,4176.922852,450.000000,4.000000,,,,0.000000,4.000000,4.000000,4.000000,4.000000,4.000000,42.000000,0.000000,0.370964,0.227783,0.848633,0.300537,0.563485,-0.588876,0.559091,5.325591,-51.115738,57.574371,,,,,,,,,,,,,,,,,,,,,,,,,
1577742155.191083,85.000000,0.000000,4173.846191,4329.743652,4100.000000,4104.615234,4164.615234,450.000000,4.000000,,,,0.000000,4.000000,4.000000,4.000000,4.000000,4.000000,,,,,,,,,,,,,,,,,,,,,,,,,,,,,,,,,,,,,
1577742155.198780,86.000000,0.000000,4188.205078,4343.589844,4112.307617,4117.436035,4184.102539,450.000000,4.000000,,,,0.000000,4.000000,4.000000,4.000000,4.000000,4.000000,43.000000,0.000000,0.370964,0.227783,0.848633,0.300537,0.547372,-0.590341,0.568856,1.563002,-51.148285,57.559212,,,,,,,,,,,,,,,,,,,,,,,,,
1577742155.206577,87.000000,0.000000,4213.846191,4352.820313,4130.769043,4149.743652,4212.307617,16213.000000,4.000000,,,,0.000000,4.000000,4.000000,4.000000,4.000000,4.000000,,,,,,,,,,,,,,,,,,,,,,,,,,,,,,,,,,,,,
1577742155.214374,88.000000,0.000000,4204.102539,4331.794922,4129.743652,4148.717773,4208.205078,450.000000,4.000000,,,,0.000000,4.000000,4.000000,4.000000,4.000000,4.000000,44.000000,0.000000,0.370964,0.227783,0.848633,0.300537,0.567880,-0.589853,0.576181,-1.763513,-51.117764,55.751102,,,,,,,,,,,,,,,,,,,,,,,,,
1577742155.222171,89.000000,0.000000,4189.230957,4322.563965,4120.512695,4131.794922,4197.948730,450.000000,4.000000,,,,0.000000,4.000000,4.000000,4.000000,4.000000,4.000000,,,,,,,,,,,,,,,,,,,,,,,,,,,,,,,,,,,,,
1577742155.229867,90.000000,0.000000,4196.922852,4338.974121,4121.538574,4135.384766,4197.948730,450.000000,4.000000,,,,0.000000,4.000000,4.000000,4.000000,4.000000,4.000000,45.000000,0.000000,0.370964,0.227783,0.848633,0.300537,0.563973,-0.605966,0.567880,2.061576,-51.209923,54.243439,,,,,,,,,,,,,,,,,,,,,,,,,
1577742155.237664,91.000000,0.000000,4197.436035,4344.102539,4126.153809,4143.589844,4192.307617,16213.000000,4.000000,,,,0.000000,4.000000,4.000000,4.000000,4.000000,4.000000,,,,,,,,,,,,,3.356550,4.649335,3.297652,3.632343,2.439085,0.792107,1.821005,1.457715,1.965986,2.413200,1.579585,1.670055,2.088574,2.209796,2.168104,2.549258,4.064834,4.423052,4.308658,3.293646,4.417428,5.189355,2.896096,3.430837,2.712806
1577742155.245360,92.000000,0.000000,4185.641113,4335.384766,4128.717773,4139.487305,4189.230957,450.000000,4.000000,,,,0.000000,4.000000,4.000000,4.000000,4.000000,4.000000,46.000000,0.000000,0.370964,0.227783,0.848633,0.300537,0.562997,-0.591318,0.575204,5.504156,-51.352684,54.681000,,,,,,,,,,,,,,,,,,,,,,,,,
1577742155.253157,93.000000,0.000000,4187.179688,4330.769043,4125.641113,4136.922852,4189.230957,450.000000,4.000000,,,,0.000000,4.000000,4.000000,4.000000,4.000000,4.000000,,,,,,,,,,,,,,,,,,,,,,,,,,,,,,,,,,,,,
1577742155.260854,94.000000,0.000000,4208.717773,4335.384766,4122.563965,4148.717773,4198.974121,450.000000,4.000000,,,,0.000000,4.000000,4.000000,4.000000,4.000000,4.000000,47.000000,0.000000,0.370964,0.227783,0.848633,0.300537,0.559091,-0.596201,0.572763,8.602477,-51.361538,55.074806,,,,,,,,,,,,,,,,,,,,,,,,,
1577742155.268650,95.000000,0.000000,4224.615234,4344.615234,4125.128418,4164.615234,4216.410156,16213.000000,4.000000,,,,0.000000,4.000000,4.000000,4.000000,4.000000,4.000000,,,,,,,,,,,,,,,,,,,,,,,,,,,,,,,,,,,,,
1577742155.276347,96.000000,0.000000,4222.051270,4341.538574,4131.282227,4167.692383,4224.102539,450.000000,4.000000,,,,0.000000,4.000000,4.000000,4.000000,4.000000,4.000000,48.000000,0.000000,0.371114,0.227539,0.848633,0.300537,0.561044,-0.597665,0.575692,8.519830,-51.309689,55.489048,,,,,,,,,,,,,,,,,,,,,,,,,
1577742155.284143,97.000000,0.000000,4212.820313,4332.820313,4131.282227,4155.384766,4211.794922,450.000000,4.000000,,,,0.000000,4.000000,4.000000,4.000000,4.000000,4.000000,,,,,,,,,,,,,,,,,,,,,,,,,,,,,,,,,,,,,
1577742155.291840,98.000000,0.000000,4198.974121,4346.666504,4119.487305,4137.948730,4189.230957,450.000000,4.000000,,,,0.000000,4.000000,4.000000,4.000000,4.000000,4.000000,49.000000,0.000000,0.370964,0.227783,0.848633,0.300537,0.568368,-0.594247,0.574716,11.196953,-51.322842,55.861862,,,,,,,,,,,,,,,,,,,,,,,,,
1577742155.299636,99.000000,0.000000,4189.743652,4355.897461,4109.230957,4127.692383,4177.948730,16213.000000,4.000000,,,,0.000000,4.000000,4.000000,4.000000,4.000000,4.000000,,,,,,,,,,,,,,,,,,,,,,,,,,,,,,,,,,,,,
1577742155.307333,100.000000,0.000000,4190.256348,4327.179688,4109.743652,4128.205078,4178.461426,450.000000,4.000000,,,,0.000000,4.000000,4.000000,4.000000,4.000000,4.000000,50.000000,0.000000,0.370964,0.227783,0.848633,0.300537,0.550790,-0.600107,0.557137,10.735227,-51.274864,56.137581,,,,,,,,,,,,,,,,,,,,,,,,,
1577742155.315130,101.000000,0.000000,4186.153809,4313.333496,4106.153809,4124.102539,4173.333496,450.000000,4.000000,,,,0.000000,4.000000,4.000000,4.000000,4.000000,4.000000,,,,,,,,,,,,,,,,,,,,,,,,,,,,,,,,,,,,,
1577742155.322826,102.000000,0.000000,4192.307617,4342.563965,4107.692383,4126.153809,4179.487305,450.000000,4.000000,,,,0.000000,4.000000,4.000000,4.000000,4.000000,4.000000,51.000000,0.000000,0.370964,0.227783,0.848633,0.300537,0.566903,-0.616709,0.570809,10.439304,-51.291500,56.325916,,,,,,,,,,,,,,,,,,,,,,,,,
1577742155.330523,103.000000,0.000000,4223.077148,4370.256348,4134.358887,4158.974121,4213.846191,16213.000000,4.000000,,,,0.000000,4.000000,4.000000,4.000000,4.000000,4.000000,,,,,,,,,,,,,,,,,,,,,,,,,,,,,,,,,,,,,
1577742155.338319,104.000000,0.000000,4232.820313,4355.384766,4145.128418,4175.384766,4222.563965,450.000000,4.000000,,,,0.000000,4.000000,4.000000,4.000000,4.000000,4.000000,52.000000,0.000000,0.370814,0.228027,0.848633,0.300537,0.565438,-0.611337,0.575692,6.284975,-51.306469,56.495415,,,,,,,,,,,,,,,,,,,,,,,,,
1577742155.346016,105.000000,0.000000,4206.666504,4334.358887,4120.000000,4144.615234,4188.717773,450.000000,4.000000,,,,0.000000,4.000000,4.000000,4.000000,4.000000,4.000000,,,,,,,,,,,,,,,,,,,,,,,,,,,,,,,,,,,,,
1577742155.353813,106.000000,0.000000,4182.563965,4333.846191,4096.922852,4113.333496,4163.589844,450.000000,4.000000,,,,0.000000,4.000000,4.000000,4.000000,4.000000,4.000000,53.000000,0.000000,0.370814,0.228027,0.848633,0.300537,0.545907,-0.600107,0.579110,9.125769,-51.319946,56.647964,,,,,,,,,,,,,,,,,,,,,,,,,
1577742155.361509,107.000000,0.000000,4185.641113,4333.846191,4105.641113,4116.410156,4168.717773,16213.000000,4.000000,,,,0.000000,4.000000,4.000000,4.000000,4.000000,4.000000,,,,,,,,,,,,,3.322956,4.715261,3.309827,3.847362,2.834071,0.623158,1.545942,1.624862,2.279670,2.492366,1.658744,1.987116,2.186921,2.448728,2.509251,2.543026,4.148437,4.431217,4.431109,3.598089,4.733355,5.446326,2.879157,3.661652,3.100385
1577742155.369306,108.000000,0.000000,4213.846191,4351.794922,4129.230957,4143.589844,4193.333496,450.000000,4.000000,,,,0.000000,4.000000,4.000000,4.000000,4.000000,4.000000,54.000000,0.000000,0.370814,0.228027,0.848633,0.300537,0.546883,-0.589853,0.565438,8.811345,-51.152626,56.725441,,,,,,,,,,,,,,,,,,,,,,,,,
1577742155.377002,109.000000,0.000000,4229.230957,4374.358887,4134.871582,4154.871582,4209.743652,450.000000,4.000000,,,,0.000000,4.000000,4.000000,4.000000,4.000000,4.000000,,,,,,,,,,,,,,,,,,,,,,,,,,,,,,,,,,,,,
1577742155.384799,110.000000,0.000000,4229.230957,4353.333496,4135.384766,4150.769043,4215.897461,450.000000,4.000000,,,,0.000000,4.000000,4.000000,4.000000,4.000000,4.000000,55.000000,0.000000,0.370814,0.228027,0.848633,0.300537,0.550790,-0.600107,0.572763,8.528364,-51.301117,56.675541,,,,,,,,,,,,,,,,,,,,,,,,,
1577742155.392495,111.000000,0.000000,4229.743652,4329.230957,4133.333496,4151.282227,4214.358887,16213.000000,4.000000,,,,0.000000,4.000000,4.000000,4.000000,4.000000,4.000000,,,,,,,,,,,,,,,,,,,,,,,,,,,,,,,,,,,,,
1577742155.400292,112.000000,0.000000,4227.179688,4353.333496,4117.948730,4147.179688,4199.487305,450.000000,4.000000,,,,0.000000,4.000000,4.000000,4.000000,4.000000,4.000000,56.000000,0.000000,0.370814,0.228027,0.848633,0.300537,0.564462,-0.588876,0.553719,8.393312,-51.255310,56.869892,,,,,,,,,,,,,,,,,,,,,,,,,
1577742155.407989,113.000000,0.000000,4227.179688,4362.051270,4119.487305,4144.102539,4193.846191,450.000000,4.000000,,,,0.000000,4.000000,4.000000,4.000000,4.000000,4.000000,,,,,,,,,,,,,,,,,,,,,,,,,,,,,,,,,,,,,
1577742155.415785,114.000000,0.000000,4204.615234,4332.307617,4127.692383,4135.384766,4182.563965,450.000000,4.000000,,,,0.000000,4.000000,4.000000,4.000000,4.000000,4.000000,57.000000,0.000000,0.370814,0.228027,0.848633,0.300537,0.544442,-0.600107,0.574228,8.271766,-51.453346,56.984993,,,,,,,,,,,,,,,,,,,,,,,,,
1577742155.423482,115.000000,0.000000,4166.666504,4337.948730,4103.077148,4107.692383,4153.333496,16213.000000,4.000000,,,,0.000000,4.000000,4.000000,4.000000,4.000000,4.000000,,,,,,,,,,,,,,,,,,,,,,,,,,,,,,,,,,,,,
1577742155.431278,116.000000,0.000000,4188.717773,4366.153809,4109.743652,4120.512695,4168.717773,450.000000,4.000000,,,,0.000000,4.000000,4.000000,4.000000,4.000000,4.000000,58.000000,0.000000,0.370814,0.228027,0.848633,0.300537,0.553231,-0.602548,0.569833,4.214559,-51.571762,57.028770,,,,,,,,,,,,,,,,,,,,,,,,,
1577742155.438975,117.000000,0.000000,4237.436035,4365.641113,4155.897461,4177.436035,4213.846191,450.000000,4.000000,,,,0.000000,4.000000,4.000000,4.000000,4.000000,4.000000,,,,,,,,,,,,,,,,,,,,,,,,,,,,,,,,,,,,,
1577742155.446771,118.000000,0.000000,4216.410156,4353.333496,4137.948730,4173.846191,4193.333496,450.000000,4.000000,,,,0.000000,4.000000,4.000000,4.000000,4.000000,4.000000,59.000000,0.000000,0.370814,0.228027,0.848633,0.300537,0.564462,-0.588876,0.553719,7.382025,-51.498894,57.187798,,,,,,,,,,,,,,,,,,,,,,,,,
1577742155.454568,119.000000,0.000000,4188.717773,4352.307617,4101.025879,4133.846191,4160.512695,16213.000000,4.000000,,,,0.000000,4.000000,4.000000,4.000000,4.000000,4.000000,,,,,,,,,,,,,,,,,,,,,,,,,,,,,,,,,,,,,
1577742155.462264,120.000000,0.000000,4200.000000,4349.230957,4110.769043,4127.692383,4162.563965,450.000000,4.000000,,,,0.000000,4.000000,4.000000,4.000000,4.000000,4.000000,60.000000,0.000000,0.370814,0.228027,0.848633,0.300537,0.553231,-0.602548,0.569833,3.413793,-51.612755,57.211296,,,,,,,,,,,,,,,,,,,,,,,,,
1577742155.469961,121.000000,0.000000,4195.384766,4342.051270,4120.512695,4130.769043,4152.307617,450.000000,4.000000,,,,0.000000,4.000000,4.000000,4.000000,4.000000,4.000000,,,,,,,,,,,,,,,,,,,,,,,,,,,,,,,,,,,,,
1577742155.477758,122.000000,0.000000,4177.948730,4338.461426,4109.230957,4116.922852,4134.358887,450.000000,4.000000,,,,0.000000,4.000000,4.000000,4.000000,4.000000,4.000000,61.000000,0.000000,0.370814,0.228027,0.848633,0.300537,0.560067,-0.602548,0.560555,3.909829,-51.416157,57.232441,,,,,,,,,,,,,,,,,,,,,,,,,
1577742155.485454,123.000000,0.000000,4163.589844,4342.051270,4097.948730,4098.461426,4124.102539,16213.000000,4.000000,,,,0.000000,4.000000,4.000000,4.000000,4.000000,4.000000,,,,,,,,,,,,,3.221576,4.854525,3.998404,4.194770,3.305846,0.468541,1.232138,1.895144,2.596148,2.672678,1.905353,2.579279,2.821022,2.787855,2.925994,2.636978,4.244086,4.668270,4.631677,4.011515,4.952734,5.634642,3.418770,4.102808,3.581159
1577742155.493251,124.000000,0.000000,4154.358887,4348.205078,4093.846191,4093.846191,4112.820313,450.000000,4.000000,,,,0.000000,4.000000,4.000000,4.000000,4.000000,4.000000,62.000000,0.000000,0.370814,0.228027,0.848633,0.300537,0.554208,-0.610361,0.565438,4.296445,-51.478477,57.371101,,,,,,,,,,,,,,,,,,,,,,,,,
1577742155.500947,125.000000,0.000000,4155.897461,4339.487305,4094.358887,4104.102539,4109.743652,450.000000,4.000000,,,,0.000000,4.000000,4.000000,4.000000,4.000000,4.000000,,,,,,,,,,,,,,,,,,,,,,,,,,,,,,,,,,,,,
1577742155.508744,126.000000,0.000000,4165.128418,4324.102539,4096.410156,4114.358887,4122.051270,450.000000,4.000000,,,,0.000000,4.000000,4.000000,4.000000,4.000000,4.000000,63.000000,0.000000,0.370814,0.228027,0.848633,0.300537,0.551766,-0.594736,0.576669,4.644401,-51.594383,57.436081,,,,,,,,,,,,,,,,,,,,,,,,,
1577742155.516440,127.000000,0.000000,4180.000000,4334.871582,4104.102539,4123.589844,4138.461426,236.000000,4.000000,,,,0.000000,4.000000,4.000000,4.000000,4.000000,4.000000,,,,,,,,,,,,,,,,,,,,,,,,,,,,,,,,,,,,,
1577742155.524137,0.000000,0.000000,4196.410156,4353.846191,4121.025879,4139.487305,4157.948730,450.000000,4.000000,,,,0.000000,4.000000,4.000000,4.000000,4.000000,4.000000,0.000000,0.000000,0.370814,0.228027,0.848633,0.300537,0.541512,-0.587900,0.582040,1.129377,-51.638882,57.494564,,,,,,,,,,,,,,,,,,,,,,,,,
1577742155.531934,1.000000,0.000000,4193.333496,4350.256348,4120.000000,4141.025879,4156.922852,450.000000,4.000000,,,,0.000000,4.000000,4.000000,4.000000,4.000000,4.000000,,,,,,,,,,,,,,,,,,,,,,,,,,,,,,,,,,,,,
1577742155.539730,2.000000,0.000000,4176.410156,4347.692383,4108.205078,4129.230957,4137.436035,16217.000000,4.000000,,,,0.000000,4.000000,4.000000,4.000000,4.000000,4.000000,1.000000,0.000000,0.370814,0.228027,0.848633,0.300537,0.552254,-0.597665,0.571786,-2.153775,-51.619114,57.487385,,,,,,,,,,,,,,,,,,,,,,,,,
1577742155.547427,3.000000,0.000000,4174.871582,4346.153809,4115.384766,4119.487305,4135.384766,450.000000,4.000000,,,,0.000000,4.000000,4.000000,4.000000,4.000000,4.000000,,,,,,,,,,,,,,,,,,,,,,,,,,,,,,,,,,,,,
1577742155.555223,4.000000,0.000000,4162.563965,4322.051270,4109.743652,4096.410156,4125.641113,16243.000000,4.000000,,,,0.000000,4.000000,4.000000,4.000000,4.000000,4.000000,2.000000,0.000000,0.370814,0.228027,0.848633,0.300537,0.553719,-0.600595,0.576181,-1.220613,-51.720955,57.720181,,,,,,,,,,,,,,,,,,,,,,,,,
1577742155.562919,5.000000,0.000000,4137.948730,4311.794922,4088.718018,4076.410156,4103.077148,450.000000,4.000000,,,,0.000000,4.000000,4.000000,4.000000,4.000000,4.000000,,,,,,,,,,,,,,,,,,,,,,,,,,,,,,,,,,,,,
1577742155.570715,6.000000,0.000000,4142.051270,4332.820313,4088.718018,4085.128174,4109.230957,16141.000000,4.000000,,,,0.000000,4.000000,4.000000,4.000000,4.000000,4.000000,3.000000,0.000000,0.370814,0.228027,0.848633,0.300537,0.564950,-0.594247,0.582040,2.490370,-51.692982,57.810070,,,,,,,,,,,,,,,,,,,,,,,,,
1577742155.578412,7.000000,0.000000,4183.589844,4351.282227,4110.256348,4116.922852,4148.717773,450.000000,4.000000,,,,0.000000,4.000000,4.000000,4.000000,4.000000,4.000000,,,,,,,,,,,,,,,,,,,,,,,,,,,,,,,,,,,,,
1577742155.586208,8.000000,0.000000,4201.538574,4349.230957,4112.820313,4127.692383,4162.051270,450.000000,4.000000,,,,0.000000,4.000000,4.000000,4.000000,4.000000,4.000000,4.000000,0.000000,0.370616,0.228027,0.848633,0.300781,0.539559,-0.589853,0.577646,5.830255,-51.727619,57.950783,,,,,,,,,,,,,,,,,,,,,,,,,
1577742155.593905,9.000000,0.000000,4164.615234,4341.538574,4086.666748,4098.461426,4128.717773,16197.000000,4.000000,,,,0.000000,4.000000,4.000000,4.000000,4.000000,4.000000,,,,,,,,,,,,,,,,,,,,,,,,,,,,,,,,,,,,,
1577742155.601701,10.000000,0.000000,4148.717773,4335.384766,4089.230713,4094.358887,4121.538574,450.000000,4.000000,,,,0.000000,4.000000,4.000000,4.000000,4.000000,4.000000,5.000000,0.000000,0.370977,0.228027,0.848389,0.301025,0.557626,-0.594736,0.572274,6.024829,-51.758793,58.137241,,,,,,,,,,,,,,,,,,,,,,,,,
1577742155.609397,11.000000,0.000000,4164.102539,4336.922852,4101.025879,4106.153809,4136.410156,16212.000000,4.000000,,,,0.000000,4.000000,4.000000,4.000000,4.000000,4.000000,,,,,,,,,,,,,3.106112,4.954581,5.470553,4.554834,3.736609,0.361060,0.965286,2.227167,2.845755,2.868482,2.197218,3.253225,3.975852,3.099478,3.308054,2.832345,4.193691,5.284862,4.796827,4.431649,5.028432,5.576071,4.670443,4.621054,4.039810
1577742155.617194,12.000000,0.000000,4133.333496,4333.846191,4066.666748,4065.641113,4102.563965,450.000000,4.000000,,,,0.000000,4.000000,4.000000,4.000000,4.000000,4.000000,6.000000,0.000000,0.370827,0.228271,0.848389,0.301025,0.549813,-0.611337,0.569833,6.080316,-51.667221,58.005978,,,,,,,,,,,,,,,,,,,,,,,,,
1577742155.624890,13.000000,0.000000,4115.384766,4329.230957,4061.025635,4053.333252,4090.256348,450.000000,4.000000,,,,0.000000,4.000000,4.000000,4.000000,4.000000,4.000000,,,,,,,,,,,,,,,,,,,,,,,,,,,,,,,,,,,,,
1577742155.632587,14.000000,0.000000,4185.641113,4360.512695,4126.666504,4138.974121,4168.205078,450.000000,4.000000,,,,0.000000,4.000000,4.000000,4.000000,4.000000,4.000000,7.000000,0.000000,0.370676,0.228516,0.848389,0.301025,0.563485,-0.597177,0.583017,6.070437,-51.644619,58.127102,,,,,,,,,,,,,,,,,,,,,,,,,
1577742155.640383,15.000000,0.000000,4213.333496,4376.410156,4140.512695,4171.282227,4193.333496,16212.000000,4.000000,,,,0.000000,4.000000,4.000000,4.000000,4.000000,4.000000,,,,,,,,,,,,,,,,,,,,,,,,,,,,,,,,,,,,,
1577742155.648080,16.000000,0.000000,4157.948730,4347.179688,4089.230713,4109.230957,4131.794922,0.000000,4.000000,,,,0.000000,4.000000,4.000000,4.000000,4.000000,4.000000,8.000000,0.000000,0.371084,0.228760,0.848145,0.301025,0.552743,-0.602548,0.567880,6.121363,-51.624279,58.056667,,,,,,,,,,,,,,,,,,,,,,,,,
1577742155.655876,17.000000,0.000000,4171.282227,4343.589844,4097.948730,4113.333496,4146.666504,0.000000,4.000000,,,,0.000000,4.000000,4.000000,4.000000,4.000000,4.000000,,,,,,,,,,,,,,,,,,,,,,,,,,,,,,,,,,,,,
1577742155.663573,18.000000,0.000000,4221.538574,4362.051270,4134.358887,4165.641113,4201.538574,0.000000,4.000000,,,,0.000000,4.000000,4.000000,4.000000,4.000000,4.000000,9.000000,0.000000,0.370934,0.229004,0.848145,0.301025,0.562020,-0.610849,0.553231,9.098148,-51.665787,56.138996,,,,,,,,,,,,,,,,,,,,,,,,,
1577742155.671369,19.000000,0.000000,4189.743652,4342.563965,4115.897461,4151.282227,4170.256348,0.000000,4.000000,,,,0.000000,4.000000,4.000000,4.000000,4.000000,4.000000,,,,,,,,,,,,,,,,,,,,,,,,,,,,,,,,,,,,,
1577742155.679066,20.000000,0.000000,4161.538574,4326.666504,4093.333252,4123.589844,4138.974121,0.000000,4.000000,,,,0.000000,4.000000,4.000000,4.000000,4.000000,4.000000,10.000000,0.000000,0.370783,0.229248,0.848145,0.301025,0.554208,-0.595712,0.562509,8.906118,-51.822777,56.387005,,,,,,,,,,,,,,,,,,,,,,,,,
1577742155.686863,21.000000,0.000000,4205.128418,4357.948730,4115.897461,4151.282227,4179.487305,0.000000,4.000000,,,,0.000000,4.000000,4.000000,4.000000,4.000000,4.000000,,,,,,,,,,,,,,,,,,,,,,,,,,,,,,,,,,,,,
1577742155.694559,22.000000,0.000000,4198.461426,4356.410156,4111.794922,4146.153809,4173.333496,0.000000,4.000000,,,,0.000000,4.000000,4.000000,4.000000,4.000000,4.000000,11.000000,0.000000,0.370783,0.229248,0.848145,0.301025,0.553719,-0.596201,0.565438,5.084553,-51.844437,56.610210,,,,,,,,,,,,,,,,,,,,,,,,,
1577742155.702356,23.000000,0.000000,4135.384766,4324.102539,4071.794922,4088.718018,4111.282227,0.000000,4.000000,,,,0.000000,4.000000,4.000000,4.000000,4.000000,4.000000,,,,,,,,,,,,,,,,,,,,,,,,,,,,,,,,,,,,,
1577742155.710052,24.000000,0.000000,4157.436035,4342.051270,4091.794922,4098.461426,4127.179688,0.000000,4.000000,,,,0.000000,4.000000,4.000000,4.000000,4.000000,4.000000,12.000000,0.000000,0.370584,0.229248,0.848145,0.301270,0.550790,-0.603525,0.567391,5.353698,-51.804115,56.870911,,,,,,,,,,,,,,,,,,,,,,,,,
1577742155.717849,25.000000,0.000000,4198.974121,4359.487305,4130.769043,4134.358887,4165.641113,0.000000,4.000000,,,,0.000000,4.000000,4.000000,4.000000,4.000000,4.000000,,,,,,,,,,,,,,,,,,,,,,,,,,,,,,,,,,,,,
1577742155.725545,26.000000,0.000000,4158.974121,4332.307617,4106.666504,4098.974121,4134.358887,0.000000,4.000000,,,,0.000000,4.000000,4.000000,4.000000,4.000000,4.000000,13.000000,0.000000,0.370584,0.229248,0.848145,0.301270,0.566415,-0.602548,0.558602,5.536112,-51.947269,57.045723,,,,,,,,,,,,,,,,,,,,,,,,,
1577742155.733342,27.000000,0.000000,4127.179688,4320.512695,4075.384521,4066.153809,4109.230957,0.000000,4.000000,,,,0.000000,4.000000,4.000000,4.000000,4.000000,4.000000,,,,,,,,,,,,,2.966244,4.891401,7.500474,4.798212,3.996172,0.298538,0.797833,2.530416,2.967864,2.980412,2.438503,3.774747,5.361034,3.262537,3.527823,3.042352,3.922071,6.227493,4.819572,4.716764,4.939430,5.198780,6.481602,5.056651,4.331272
1577742155.741038,28.000000,0.000000,4174.871582,4344.615234,4107.179688,4120.512695,4155.897461,0.000000,4.000000,,,,0.000000,4.000000,4.000000,4.000000,4.000000,4.000000,14.000000,0.000000,0.370944,0.229248,0.847900,0.301514,0.547860,-0.614755,0.570809,8.571423,-51.896664,55.348782,,,,,,,,,,,,,,,,,,,,,,,,,
1577742155.748835,29.000000,0.000000,4227.692383,4346.153809,4151.282227,4178.461426,4208.717773,0.000000,4.000000,,,,0.000000,4.000000,4.000000,4.000000,4.000000,4.000000,,,,,,,,,,,,,,,,,,,,,,,,,,,,,,,,,,,,,
1577742155.756531,30.000000,0.000000,4209.743652,4330.256348,4129.743652,4146.666504,4189.743652,0.000000,4.000000,,,,0.000000,4.000000,4.000000,4.000000,4.000000,4.000000,15.000000,0.000000,0.370584,0.229248,0.848145,0.301270,0.558602,-0.610849,0.578134,11.363018,-51.851120,55.556179,,,,,,,,,,,,,,,,,,,,,,,,,
1577742155.764228,31.000000,0.000000,4174.358887,4350.256348,4090.769287,4102.563965,4148.717773,0.000000,4.000000,,,,0.000000,4.000000,4.000000,4.000000,4.000000,4.000000,,,,,,,,,,,,,,,,,,,,,,,,,,,,,,,,,,,,,
1577742155.772024,32.000000,0.000000,4189.230957,4363.589844,4104.615234,4125.128418,4158.974121,0.000000,4.000000,,,,0.000000,4.000000,4.000000,4.000000,4.000000,4.000000,16.000000,0.000000,0.370584,0.229248,0.848145,0.301270,0.558602,-0.624033,0.570321,13.755823,-51.630684,55.802650,,,,,,,,,,,,,,,,,,,,,,,,,
1577742155.779721,33.000000,0.000000,4190.256348,4330.256348,4105.641113,4130.769043,4158.974121,0.000000,4.000000,,,,0.000000,4.000000,4.000000,4.000000,4.000000,4.000000,,,,,,,,,,,,,,,,,,,,,,,,,,,,,,,,,,,,,
1577742155.787517,34.000000,0.000000,4129.743652,4317.436035,4054.358887,4067.179443,4097.948730,0.000000,4.000000,,,,0.000000,4.000000,4.000000,4.000000,4.000000,4.000000,17.000000,0.000000,0.370537,0.229004,0.848145,0.301514,0.551278,-0.603525,0.556161,13.038210,-51.611736,55.964661,,,,,,,,,,,,,,,,,,,,,,,,,
1577742155.795214,35.000000,0.000000,4129.230957,4354.871582,4064.102539,4067.692383,4095.384521,0.000000,4.000000,,,,0.000000,4.000000,4.000000,4.000000,4.000000,4.000000,,,,,,,,,,,,,,,,,,,,,,,,,,,,,,,,,,,,,
1577742155.803011,36.000000,0.000000,4220.000000,4369.230957,4140.512695,4162.563965,4191.282227,0.000000,4.000000,,,,0.000000,4.000000,4.000000,4.000000,4.000000,4.000000,18.000000,0.000000,0.370537,0.229004,0.848145,0.301514,0.561044,-0.602060,0.563973,8.504359,-51.534870,56.170284,,,,,,,,,,,,,,,,,,,,,,,,,
1577742155.810707,37.000000,0.000000,4241.025879,4344.102539,4142.563965,4178.461426,4217.436035,0.000000,4.000000,,,,0.000000,4.000000,4.000000,4.000000,4.000000,4.000000,,,,,,,,,,,,,,,,,,,,,,,,,,,,,,,,,,,,,
1577742155.818504,38.000000,0.000000,4172.820313,4330.256348,4083.589844,4099.487305,4145.641113,0.000000,4.000000,,,,0.000000,4.000000,4.000000,4.000000,4.000000,4.000000,19.000000,0.000000,0.370688,0.228760,0.848145,0.301514,0.556649,-0.593271,0.554208,11.183029,-51.525505,54.441257,,,,,,,,,,,,,,,,,,,,,,,,,
1577742155.826200,39.000000,0.000000,4150.256348,4334.871582,4076.410156,4080.512939,4122.563965,0.000000,4.000000,,,,0.000000,4.000000,4.000000,4.000000,4.000000,4.000000,,,,,,,,,,,,,,,,,,,,,,,,,,,,,,,,,,,,,
1577742155.833997,40.000000,0.000000,4196.922852,4342.051270,4116.410156,4141.538574,4174.871582,0.000000,4.000000,,,,0.000000,4.000000,4.000000,4.000000,4.000000,4.000000,20.000000,0.000000,0.370688,0.228760,0.848145,0.301514,0.549813,-0.597665,0.563973,9.825465,-51.576889,54.918850,,,,,,,,,,,,,,,,,,,,,,,,,
1577742155.841693,41.000000,0.000000,4210.769043,4334.871582,4120.512695,4152.307617,4189.743652,0.000000,4.000000,,,,0.000000,4.000000,4.000000,4.000000,4.000000,4.000000,,,,,,,,,,,,,,,,,,,,,,,,,,,,,,,,,,,,,
1577742155.849490,42.000000,0.000000,4158.974121,4327.179688,4084.102539,4091.281982,4131.282227,0.000000,4.000000,,,,0.000000,4.000000,4.000000,4.000000,4.000000,4.000000,21.000000,0.000000,0.370838,0.228516,0.848145,0.301514,0.551278,-0.605478,0.570321,9.441072,-51.503506,55.229057,,,,,,,,,,,,,,,,,,,,,,,,,
1577742155.857187,43.000000,0.000000,4134.871582,4349.230957,4073.846191,4082.051270,4106.666504,0.000000,4.000000,,,,0.000000,4.000000,4.000000,4.000000,4.000000,4.000000,,,,,,,,,,,,,2.840255,4.561234,9.591569,4.849216,4.013056,0.265198,0.718010,2.705463,2.932746,2.943251,2.527797,3.959898,6.493985,3.213407,3.509638,3.223182,3.460354,7.298642,4.674000,4.766460,4.747268,4.544068,8.438498,5.300885,4.360670
1577742155.864983,44.000000,0.000000,4185.641113,4362.051270,4098.974121,4138.974121,4164.102539,0.000000,4.000000,,,,0.000000,4.000000,4.000000,4.000000,4.000000,4.000000,22.000000,0.000000,0.370688,0.228760,0.848145,0.301514,0.552254,-0.614267,0.570321,9.214749,-51.437462,53.653965,,,,,,,,,,,,,,,,,,,,,,,,,
1577742155.872680,45.000000,0.000000,4216.922852,4327.692383,4105.128418,4156.410156,4197.436035,0.000000,4.000000,,,,0.000000,4.000000,4.000000,4.000000,4.000000,4.000000,,,,,,,,,,,,,,,,,,,,,,,,,,,,,,,,,,,,,
1577742155.880376,46.000000,0.000000,4185.641113,4311.282227,4088.205078,4122.563965,4162.051270,0.000000,4.000000,,,,0.000000,4.000000,4.000000,4.000000,4.000000,4.000000,23.000000,0.000000,0.370688,0.228760,0.848145,0.301514,0.549813,-0.597665,0.563973,12.001827,-51.437836,54.150475,,,,,,,,,,,,,,,,,,,,,,,,,
1577742155.888173,47.000000,0.000000,4170.769043,4349.743652,4088.718018,4114.358887,4147.179688,0.000000,4.000000,,,,0.000000,4.000000,4.000000,4.000000,4.000000,4.000000,,,,,,,,,,,,,,,,,,,,,,,,,,,,,,,,,,,,,
1577742155.895870,48.000000,0.000000,4185.641113,4360.000000,4100.512695,4135.897461,4170.769043,0.000000,4.000000,,,,0.000000,4.000000,4.000000,4.000000,4.000000,4.000000,24.000000,0.000000,0.370688,0.228760,0.848145,0.301514,0.552254,-0.614267,0.570321,11.519429,-51.378361,52.683243,,,,,,,,,,,,,,,,,,,,,,,,,
1577742155.903666,49.000000,0.000000,4195.897461,4326.666504,4104.615234,4149.743652,4181.025879,0.000000,4.000000,,,,0.000000,4.000000,4.000000,4.000000,4.000000,4.000000,,,,,,,,,,,,,,,,,,,,,,,,,,,,,,,,,,,,,
1577742155.911363,50.000000,0.000000,4206.153809,4322.563965,4109.230957,4155.897461,4181.025879,0.000000,4.000000,,,,0.000000,4.000000,4.000000,4.000000,4.000000,4.000000,25.000000,0.000000,0.370886,0.228760,0.848145,0.301270,0.548837,-0.604501,0.570809,13.896592,-51.324829,53.336639,,,,,,,,,,,,,,,,,,,,,,,,,
1577742155.919159,51.000000,0.000000,4213.333496,4358.974121,4115.384766,4159.487305,4186.666504,0.000000,4.000000,,,,0.000000,4.000000,4.000000,4.000000,4.000000,4.000000,,,,,,,,,,,,,,,,,,,,,,,,,,,,,,,,,,,,,
1577742155.926856,52.000000,0.000000,4187.692383,4367.179688,4098.974121,4142.051270,4169.230957,0.000000,4.000000,,,,0.000000,4.000000,4.000000,4.000000,4.000000,4.000000,26.000000,0.000000,0.370327,0.228760,0.848389,0.301270,0.545419,-0.609384,0.568856,16.036039,-51.276653,53.984512,,,,,,,,,,,,,,,,,,,,,,,,,
1577742155.934652,53.000000,0.000000,4163.077148,4334.871582,4080.512939,4117.436035,4145.128418,0.000000,4.000000,,,,0.000000,4.000000,4.000000,4.000000,4.000000,4.000000,,,,,,,,,,,,,,,,,,,,,,,,,,,,,,,,,,,,,
1577742155.942349,54.000000,0.000000,4183.589844,4337.436035,4097.948730,4130.769043,4161.538574,0.000000,4.000000,,,,0.000000,4.000000,4.000000,4.000000,4.000000,4.000000,27.000000,0.000000,0.370526,0.228760,0.848389,0.301025,0.552743,-0.602060,0.557137,17.901728,-51.233295,54.447968,,,,,,,,,,,,,,,,,,,,,,,,,
1577742155.950146,55.000000,0.000000,4183.077148,4353.333496,4093.846191,4132.820313,4165.641113,0.000000,4.000000,,,,0.000000,4.000000,4.000000,4.000000,4.000000,4.000000,,,,,,,,,,,,,,,,,,,,,,,,,,,,,,,,,,,,,
1577742155.957842,56.000000,0.000000,4158.974121,4333.333496,4071.281982,4105.128418,4141.025879,0.000000,4.000000,,,,0.000000,4.000000,4.000000,4.000000,4.000000,4.000000,28.000000,0.000000,0.370526,0.228760,0.848389,0.301025,0.558114,-0.602548,0.566903,16.769524,-51.254086,54.984707,,,,,,,,,,,,,,,,,,,,,,,,,
1577742155.965639,57.000000,0.000000,4186.666504,4336.410156,4098.974121,4130.769043,4160.512695,0.000000,4.000000,,,,0.000000,4.000000,4.000000,4.000000,4.000000,4.000000,,,,,,,,,,,,,,,,,,,,,,,,,,,,,,,,,,,,,
1577742155.973435,58.000000,0.000000,4222.051270,4376.410156,4129.230957,4175.384766,4197.948730,0.000000,4.000000,,,,0.000000,4.000000,4.000000,4.000000,4.000000,4.000000,29.000000,0.000000,0.370724,0.228760,0.848389,0.300781,0.553719,-0.598154,0.572763,15.810355,-51.332615,55.467773,,,,,,,,,,,,,,,,,,,,,,,,,
1577742155.981132,59.000000,0.000000,4212.820313,4377.948730,4121.538574,4171.282227,4193.333496,0.000000,4.000000,,,,0.000000,4.000000,4.000000,4.000000,4.000000,4.000000,,,,,,,,,,,,,2.769820,3.983822,11.188265,4.777328,3.848445,0.255379,0.682030,2.676566,2.772459,2.755953,2.451430,3.767992,6.953256,3.002773,3.293488,3.374298,2.986166,8.236939,4.483164,4.608605,4.564917,3.799015,10.047080,5.396267,4.170272
1577742155.988828,60.000000,0.000000,4196.922852,4338.461426,4112.307617,4146.666504,4173.333496,0.000000,4.000000,,,,0.000000,4.000000,4.000000,4.000000,4.000000,4.000000,30.000000,0.000000,0.370724,0.228760,0.848389,0.300781,0.550301,-0.607431,0.576181,17.758427,-51.164028,53.868809,,,,,,,,,,,,,,,,,,,,,,,,,
1577742155.996625,61.000000,0.000000,4196.410156,4331.794922,4112.307617,4136.922852,4170.769043,0.000000,4.000000,,,,0.000000,4.000000,4.000000,4.000000,4.000000,4.000000,,,,,,,,,,,,,,,,,,,,,,,,,,,,,,,,,,,,,
1577742156.004421,62.000000,0.000000,4211.794922,4361.538574,4125.128418,4148.205078,4187.692383,0.000000,4.000000,,,,0.000000,4.000000,4.000000,4.000000,4.000000,4.000000,31.000000,0.000000,0.370922,0.228760,0.848389,0.300537,0.563973,-0.610849,0.559579,19.631321,-51.251564,54.523281,,,,,,,,,,,,,,,,,,,,,,,,,
1577742156.012118,63.000000,0.000000,4215.384766,4365.128418,4134.358887,4150.769043,4194.871582,0.000000,4.000000,,,,0.000000,4.000000,4.000000,4.000000,4.000000,4.000000,,,,,,,,,,,,,,,,,,,,,,,,,,,,,,,,,,,,,
1577742156.019814,64.000000,0.000000,4166.153809,4328.205078,4097.948730,4110.256348,4150.769043,450.000000,4.000000,,,,0.000000,4.000000,4.000000,4.000000,4.000000,4.000000,32.000000,0.000000,0.370363,0.228760,0.848633,0.300537,0.570321,-0.601572,0.573739,18.266342,-51.150898,54.992672,,,,,,,,,,,,,,,,,,,,,,,,,
1577742156.027611,65.000000,0.000000,4146.153809,4320.512695,4082.564209,4099.487305,4132.307617,450.000000,4.000000,,,,0.000000,4.000000,4.000000,4.000000,4.000000,4.000000,,,,,,,,,,,,,,,,,,,,,,,,,,,,,,,,,,,,,
1577742156.035307,66.000000,0.000000,4193.333496,4341.025879,4113.333496,4135.897461,4176.410156,16210.000000,4.000000,,,,0.000000,4.000000,4.000000,4.000000,4.000000,4.000000,33.000000,0.000000,0.370561,0.228760,0.848633,0.300293,0.562020,-0.591318,0.570809,17.157494,-51.120113,55.295498,,,,,,,,,,,,,,,,,,,,,,,,,
1577742156.043104,67.000000,0.000000,4208.205078,4342.563965,4115.897461,4134.871582,4188.205078,450.000000,4.000000,,,,0.000000,4.000000,4.000000,4.000000,4.000000,4.000000,,,,,,,,,,,,,,,,,,,,,,,,,,,,,,,,,,,,,
1577742156.050801,68.000000,0.000000,4206.153809,4355.384766,4122.051270,4133.846191,4184.102539,16234.000000,4.000000,,,,0.000000,4.000000,4.000000,4.000000,4.000000,4.000000,34.000000,0.000000,0.370561,0.228760,0.848633,0.300293,0.554696,-0.583993,0.562020,15.082851,-51.092407,55.627853,,,,,,,,,,,,,,,,,,,,,,,,,
1577742156.058597,69.000000,0.000000,4223.077148,4351.794922,4137.948730,4151.282227,4195.384766,450.000000,4.000000,,,,0.000000,4.000000,4.000000,4.000000,4.000000,4.000000,,,,,,,,,,,,,,,,,,,,,,,,,,,,,,,,,,,,,
1577742156.066294,70.000000,0.000000,4214.358887,4320.512695,4117.948730,4136.922852,4182.051270,16136.000000,4.000000,,,,0.000000,4.000000,4.000000,4.000000,4.000000,4.000000,35.000000,0.000000,0.370712,0.228516,0.848633,0.300293,0.560067,-0.593759,0.569833,14.292351,-51.067474,55.867157,,,,,,,,,,,,,,,,,,,,,,,,,
1577742156.073990,71.000000,0.000000,4186.666504,4325.641113,4096.410156,4113.846191,4156.922852,450.000000,4.000000,,,,0.000000,4.000000,4.000000,4.000000,4.000000,4.000000,,,,,,,,,,,,,,,,,,,,,,,,,,,,,,,,,,,,,
1577742156.081787,72.000000,0.000000,4168.717773,4349.743652,4087.692383,4099.487305,4144.615234,450.000000,4.000000,,,,0.000000,4.000000,4.000000,4.000000,4.000000,4.000000,36.000000,0.000000,0.370712,0.228516,0.848633,0.300293,0.548348,-0.599619,0.573251,13.521085,-51.045033,56.202164,,,,,,,,,,,,,,,,,,,,,,,,,
1577742156.089583,73.000000,0.000000,4178.974121,4345.128418,4092.820557,4108.717773,4154.871582,16196.000000,4.000000,,,,0.000000,4.000000,4.000000,4.000000,4.000000,4.000000,,,,,,,,,,,,,,,,,,,,,,,,,,,,,,,,,,,,,
1577742156.097280,74.000000,0.000000,4203.077148,4339.487305,4113.846191,4134.358887,4176.922852,450.000000,4.000000,,,,0.000000,4.000000,4.000000,4.000000,4.000000,4.000000,37.000000,0.000000,0.370712,0.228516,0.848633,0.300293,0.562997,-0.598642,0.573739,12.707314,-51.084652,56.503670,,,,,,,,,,,,,,,,,,,,,,,,,
1577742156.105077,75.000000,0.000000,4204.102539,4355.384766,4118.461426,4128.205078,4179.487305,16208.000000,4.000000,,,,0.000000,4.000000,4.000000,4.000000,4.000000,4.000000,,,,,,,,,,,,,2.771739,3.287134,11.897790,4.692450,3.700417,0.278477,0.652496,2.426732,2.557230,2.486715,2.245589,3.306039,6.571187,2.742426,3.032458,3.543246,2.694828,8.832647,4.394134,4.429354,4.450637,3.187674,10.957246,5.431954,3.959875
1577742156.112773,76.000000,0.000000,4196.922852,4356.922852,4113.846191,4116.922852,4178.461426,450.000000,4.000000,,,,0.000000,4.000000,4.000000,4.000000,4.000000,4.000000,38.000000,0.000000,0.370712,0.228516,0.848633,0.300293,0.552743,-0.606943,0.571786,12.094552,-51.120308,56.715206,,,,,,,,,,,,,,,,,,,,,,,,,
1577742156.120570,77.000000,0.000000,4223.589844,4341.538574,4138.974121,4143.589844,4211.794922,450.000000,4.000000,,,,0.000000,4.000000,4.000000,4.000000,4.000000,4.000000,,,,,,,,,,,,,,,,,,,,,,,,,,,,,,,,,,,,,
1577742156.128266,78.000000,0.000000,4246.153809,4333.846191,4151.794922,4158.974121,4233.333496,450.000000,4.000000,,,,0.000000,4.000000,4.000000,4.000000,4.000000,4.000000,39.000000,0.000000,0.370712,0.228516,0.848633,0.300293,0.555184,-0.594736,0.576669,7.774698,-51.092583,56.785961,,,,,,,,,,,,,,,,,,,,,,,,,
1577742156.136062,79.000000,0.000000,4222.051270,4348.205078,4122.563965,4135.897461,4208.205078,16208.000000,4.000000,,,,0.000000,4.000000,4.000000,4.000000,4.000000,4.000000,,,,,,,,,,,,,,,,,,,,,,,,,,,,,,,,,,,,,
1577742156.143759,80.000000,0.000000,4190.256348,4356.922852,4102.563965,4116.922852,4178.974121,450.000000,4.000000,,,,0.000000,4.000000,4.000000,4.000000,4.000000,4.000000,40.000000,0.000000,0.370712,0.228516,0.848633,0.300293,0.543954,-0.599619,0.564950,10.645966,-50.947998,54.995365,,,,,,,,,,,,,,,,,,,,,,,,,
1577742156.151555,81.000000,0.000000,4189.743652,4332.307617,4112.820313,4125.128418,4180.000000,450.000000,4.000000,,,,0.000000,4.000000,4.000000,4.000000,4.000000,4.000000,,,,,,,,,,,,,,,,,,,,,,,,,,,,,,,,,,,,,
1577742156.159252,82.000000,0.000000,4189.230957,4321.538574,4110.256348,4127.179688,4184.615234,450.000000,4.000000,,,,0.000000,4.000000,4.000000,4.000000,4.000000,4.000000,41.000000,0.000000,0.370712,0.228516,0.848633,0.300293,0.567880,-0.588388,0.575204,13.230106,-50.937504,55.357735,,,,,,,,,,,,,,,,,,,,,,,,,
1577742156.167048,83.000000,0.000000,4174.358887,4341.538574,4092.307617,4103.077148,4169.230957,16208.000000,4.000000,,,,0.000000,4.000000,4.000000,4.000000,4.000000,4.000000,,,,,,,,,,,,,,,,,,,,,,,,,,,,,,,,,,,,,
1577742156.174744,84.000000,0.000000,4181.538574,4342.051270,4097.948730,4096.922852,4167.179688,450.000000,4.000000,,,,0.000000,4.000000,4.000000,4.000000,4.000000,4.000000,42.000000,0.000000,0.370712,0.228516,0.848633,0.300293,0.560067,-0.597177,0.590341,15.555833,-50.808430,55.743683,,,,,,,,,,,,,,,,,,,,,,,,,
1577742156.182540,85.000000,0.000000,4220.000000,4341.025879,4132.820313,4143.077148,4207.692383,450.000000,4.000000,,,,0.000000,4.000000,4.000000,4.000000,4.000000,4.000000,,,,,,,,,,,,,,,,,,,,,,,,,,,,,,,,,,,,,
1577742156.190237,86.000000,0.000000,4234.358887,4365.128418,4141.025879,4163.077148,4228.717773,450.000000,4.000000,,,,0.000000,4.000000,4.000000,4.000000,4.000000,4.000000,43.000000,0.000000,0.370712,0.228516,0.848633,0.300293,0.555184,-0.606943,0.564462,14.777849,-50.871708,54.176941,,,,,,,,,,,,,,,,,,,,,,,,,
1577742156.198033,87.000000,0.000000,4193.333496,4356.922852,4105.128418,4109.230957,4184.615234,16208.000000,4.000000,,,,0.000000,4.000000,4.000000,4.000000,4.000000,4.000000,,,,,,,,,,,,,,,,,,,,,,,,,,,,,,,,,,,,,
1577742156.205730,88.000000,0.000000,4164.615234,4318.461426,4087.692383,4077.435791,4152.820313,450.000000,4.000000,,,,0.000000,4.000000,4.000000,4.000000,4.000000,4.000000,44.000000,0.000000,0.370712,0.228516,0.848633,0.300293,0.567880,-0.597665,0.571298,13.000987,-50.868843,54.621155,,,,,,,,,,,,,,,,,,,,,,,,,
1577742156.213426,89.000000,0.000000,4178.461426,4311.794922,4097.948730,4101.538574,4168.717773,450.000000,4.000000,,,,0.000000,4.000000,4.000000,4.000000,4.000000,4.000000,,,,,,,,,,,,,,,,,,,,,,,,,,,,,,,,,,,,,
1577742156.221223,90.000000,0.000000,4204.102539,4344.102539,4110.256348,4126.666504,4191.282227,450.000000,4.000000,,,,0.000000,4.000000,4.000000,4.000000,4.000000,4.000000,45.000000,0.000000,0.370712,0.228516,0.848633,0.300293,0.558602,-0.597665,0.578622,12.358858,-51.045712,55.020947,,,,,,,,,,,,,,,,,,,,,,,,,
1577742156.228919,91.000000,0.000000,4222.563965,4367.692383,4124.615234,4135.897461,4211.794922,16208.000000,4.000000,,,,0.000000,4.000000,4.000000,4.000000,4.000000,4.000000,,,,,,,,,,,,,2.813271,2.672583,11.638687,4.702611,3.800709,0.351246,0.613509,2.008509,2.359033,2.247779,1.954590,2.792482,5.533555,2.550689,2.909450,3.760587,2.711919,8.990649,4.492194,4.477569,4.421052,2.876970,11.054087,5.486597,3.989342
1577742156.236716,92.000000,0.000000,4221.538574,4353.846191,4121.025879,4127.179688,4213.846191,450.000000,4.000000,,,,0.000000,4.000000,4.000000,4.000000,4.000000,4.000000,46.000000,0.000000,0.370514,0.228516,0.848633,0.300537,0.552743,-0.604990,0.572763,11.721126,-51.085262,53.526482,,,,,,,,,,,,,,,,,,,,,,,,,
1577742156.244412,93.000000,0.000000,4217.948730,4332.307617,4105.641113,4116.922852,4201.538574,450.000000,4.000000,,,,0.000000,4.000000,4.000000,4.000000,4.000000,4.000000,,,,,,,,,,,,,,,,,,,,,,,,,,,,,,,,,,,,,
1577742156.252209,94.000000,0.000000,4204.615234,4333.846191,4097.948730,4103.589844,4185.641113,450.000000,4.000000,,,,0.000000,4.000000,4.000000,4.000000,4.000000,4.000000,47.000000,0.000000,0.370514,0.228516,0.848633,0.300537,0.562509,-0.601572,0.568856,7.438614,-51.120857,54.095554,,,,,,,,,,,,,,,,,,,,,,,,,
1577742156.259906,95.000000,0.000000,4187.692383,4338.461426,4104.615234,4097.948730,4181.025879,16208.000000,4.000000,,,,0.000000,4.000000,4.000000,4.000000,4.000000,4.000000,,,,,,,,,,,,,,,,,,,,,,,,,,,,,,,,,,,,,
1577742156.267702,96.000000,0.000000,4210.256348,4328.717773,4126.666504,4120.512695,4208.205078,450.000000,4.000000,,,,0.000000,4.000000,4.000000,4.000000,4.000000,4.000000,48.000000,0.000000,0.370514,0.228516,0.848633,0.300537,0.559579,-0.586435,0.575204,10.223859,-51.152893,54.607719,,,,,,,,,,,,,,,,,,,,,,,,,
1577742156.275399,97.000000,0.000000,4231.794922,4318.974121,4139.487305,4132.820313,4227.692383,450.000000,4.000000,,,,0.000000,4.000000,4.000000,4.000000,4.000000,4.000000,,,,,,,,,,,,,,,,,,,,,,,,,,,,,,,,,,,,,
1577742156.283195,98.000000,0.000000,4200.000000,4324.615234,4121.538574,4109.230957,4197.436035,450.000000,4.000000,,,,0.000000,4.000000,4.000000,4.000000,4.000000,4.000000,49.000000,0.000000,0.370664,0.228271,0.848633,0.300537,0.554208,-0.601572,0.567391,8.962212,-51.062096,55.068668,,,,,,,,,,,,,,,,,,,,,,,,,
1577742156.290892,99.000000,0.000000,4174.871582,4347.179688,4109.743652,4094.871826,4174.358887,16208.000000,4.000000,,,,0.000000,4.000000,4.000000,4.000000,4.000000,4.000000,,,,,,,,,,,,,,,,,,,,,,,,,,,,,,,,,,,,,
1577742156.298688,100.000000,0.000000,4194.871582,4355.897461,4116.410156,4110.769043,4195.384766,450.000000,4.000000,,,,0.000000,4.000000,4.000000,4.000000,4.000000,4.000000,50.000000,0.000000,0.370664,0.228271,0.848633,0.300537,0.558602,-0.600107,0.571786,8.843591,-51.159821,55.363892,,,,,,,,,,,,,,,,,,,,,,,,,
1577742156.306385,101.000000,0.000000,4205.641113,4329.230957,4101.538574,4112.820313,4203.589844,450.000000,4.000000,,,,0.000000,4.000000,4.000000,4.000000,4.000000,4.000000,,,,,,,,,,,,,,,,,,,,,,,,,,,,,,,,,,,,,
1577742156.314182,102.000000,0.000000,4190.256348,4322.563965,4087.179443,4097.436035,4181.538574,450.000000,4.000000,,,,0.000000,4.000000,4.000000,4.000000,4.000000,4.000000,51.000000,0.000000,0.370514,0.228516,0.848633,0.300537,0.559579,-0.586435,0.575204,8.677016,-51.367409,55.569778,,,,,,,,,,,,,,,,,,,,,,,,,
1577742156.321878,103.000000,0.000000,4184.615234,4347.179688,4110.769043,4104.102539,4183.589844,16208.000000,4.000000,,,,0.000000,4.000000,4.000000,4.000000,4.000000,4.000000,,,,,,,,,,,,,,,,,,,,,,,,,,,,,,,,,,,,,
1577742156.329575,104.000000,0.000000,4201.538574,4353.846191,4128.717773,4125.128418,4208.717773,450.000000,4.000000,,,,0.000000,4.000000,4.000000,4.000000,4.000000,4.000000,52.000000,0.000000,0.370664,0.228271,0.848633,0.300537,0.558602,-0.600107,0.571786,8.586914,-51.434605,55.814892,,,,,,,,,,,,,,,,,,,,,,,,,
1577742156.337371,105.000000,0.000000,4198.461426,4336.410156,4097.948730,4109.743652,4198.461426,450.000000,4.000000,,,,0.000000,4.000000,4.000000,4.000000,4.000000,4.000000,,,,,,,,,,,,,,,,,,,,,,,,,,,,,,,,,,,,,
1577742156.345168,106.000000,0.000000,4153.333496,4325.641113,4055.384521,4053.333252,4148.717773,450.000000,4.000000,,,,0.000000,4.000000,4.000000,4.000000,4.000000,4.000000,53.000000,0.000000,0.370664,0.228271,0.848633,0.300537,0.553231,-0.603525,0.574716,8.446007,-51.614712,55.975677,,,,,,,,,,,,,,,,,,,,,,,,,
1577742156.352864,107.000000,0.000000,4158.974121,4334.871582,4087.692383,4064.615479,4163.077148,16208.000000,4.000000,,,,0.000000,4.000000,4.000000,4.000000,4.000000,4.000000,,,,,,,,,,,,,2.812542,2.347491,10.746316,4.847212,4.259839,0.474957,0.567118,1.539069,2.215279,2.127418,1.631927,2.446013,4.326900,2.494164,3.024037,3.990552,3.045027,8.820244,4.733833,4.892358,4.376963,2.942710,10.600809,5.578065,4.403415
1577742156.360561,108.000000,0.000000,4237.948730,4347.692383,4165.128418,4156.922852,4246.153809,450.000000,4.000000,,,,0.000000,4.000000,4.000000,4.000000,4.000000,4.000000,54.000000,0.000000,0.370664,0.228271,0.848633,0.300537,0.542489,-0.593271,0.570809,4.491007,-51.657177,56.180199,,,,,,,,,,,,,,,,,,,,,,,,,
1577742156.368357,109.000000,0.000000,4254.871582,4341.538574,4170.256348,4186.153809,4267.179688,450.000000,4.000000,,,,0.000000,4.000000,4.000000,4.000000,4.000000,4.000000,,,,,,,,,,,,,,,,,,,,,,,,,,,,,,,,,,,,,
1577742156.376054,110.000000,0.000000,4216.922852,4347.179688,4130.769043,4144.102539,4233.846191,450.000000,4.000000,,,,0.000000,4.000000,4.000000,4.000000,4.000000,4.000000,55.000000,0.000000,0.370664,0.228271,0.848633,0.300537,0.546883,-0.602060,0.577157,3.683014,-51.755211,56.424084,,,,,,,,,,,,,,,,,,,,,,,,,
1577742156.383850,111.000000,0.000000,4215.897461,4364.615234,4125.641113,4130.256348,4227.179688,16208.000000,4.000000,,,,0.000000,4.000000,4.000000,4.000000,4.000000,4.000000,,,,,,,,,,,,,,,,,,,,,,,,,,,,,,,,,,,,,
1577742156.391547,112.000000,0.000000,4193.333496,4329.743652,4108.717773,4113.846191,4203.077148,450.000000,4.000000,,,,0.000000,4.000000,4.000000,4.000000,4.000000,4.000000,56.000000,0.000000,0.370664,0.228271,0.848633,0.300537,0.560067,-0.585458,0.565927,6.843820,-51.783627,56.703400,,,,,,,,,,,,,,,,,,,,,,,,,
1577742156.399344,113.000000,0.000000,4136.922852,4292.820313,4071.794922,4067.692383,4154.358887,450.000000,4.000000,,,,0.000000,4.000000,4.000000,4.000000,4.000000,4.000000,,,,,,,,,,,,,,,,,,,,,,,,,,,,,,,,,,,,,
1577742156.407040,114.000000,0.000000,4145.641113,4340.512695,4086.153809,4068.718018,4163.077148,450.000000,4.000000,,,,0.000000,4.000000,4.000000,4.000000,4.000000,4.000000,57.000000,0.000000,0.370466,0.228271,0.848633,0.300781,0.561532,-0.609384,0.571786,6.697776,-51.809200,56.894962,,,,,,,,,,,,,,,,,,,,,,,,,
1577742156.414837,115.000000,0.000000,4206.153809,4378.461426,4129.230957,4121.025879,4215.384766,16208.000000,4.000000,,,,0.000000,4.000000,4.000000,4.000000,4.000000,4.000000,,,,,,,,,,,,,,,,,,,,,,,,,,,,,,,,,,,,,
1577742156.422533,116.000000,0.000000,4210.769043,4345.641113,4124.102539,4130.256348,4219.487305,450.000000,4.000000,,,,0.000000,4.000000,4.000000,4.000000,4.000000,4.000000,58.000000,0.000000,0.370616,0.228027,0.848633,0.300781,0.568856,-0.591318,0.575692,6.745783,-51.772404,57.127190,,,,,,,,,,,,,,,,,,,,,,,,,
1577742156.430330,117.000000,0.000000,4174.871582,4330.256348,4099.487305,4102.051270,4189.743652,450.000000,4.000000,,,,0.000000,4.000000,4.000000,4.000000,4.000000,4.000000,,,,,,,,,,,,,,,,,,,,,,,,,,,,,,,,,,,,,
1577742156.438026,118.000000,0.000000,4187.692383,4357.436035,4116.410156,4114.871582,4202.051270,450.000000,4.000000,,,,0.000000,4.000000,4.000000,4.000000,4.000000,4.000000,59.000000,0.000000,0.370616,0.228027,0.848633,0.300781,0.559579,-0.603037,0.567880,6.908619,-51.559837,55.422100,,,,,,,,,,,,,,,,,,,,,,,,,
1577742156.445823,119.000000,0.000000,4216.410156,4363.589844,4140.512695,4141.538574,4229.743652,16208.000000,4.000000,,,,0.000000,4.000000,4.000000,4.000000,4.000000,4.000000,,,,,,,,,,,,,,,,,,,,,,,,,,,,,,,,,,,,,
1577742156.453520,120.000000,0.000000,4193.846191,4331.282227,4118.974121,4120.000000,4212.307617,450.000000,4.000000,,,,0.000000,4.000000,4.000000,4.000000,4.000000,4.000000,60.000000,0.000000,0.370616,0.228027,0.848633,0.300781,0.558114,-0.610361,0.579599,3.107358,-51.607792,55.921242,,,,,,,,,,,,,,,,,,,,,,,,,
1577742156.461316,121.000000,0.000000,4175.384766,4311.794922,4101.538574,4104.615234,4196.410156,450.000000,4.000000,,,,0.000000,4.000000,4.000000,4.000000,4.000000,4.000000,,,,,,,,,,,,,,,,,,,,,,,,,,,,,,,,,,,,,
