title:001, start timestamp:2019-12-31T00:42:49.020609+03:00, stop timestamp:2019-12-31T00:42:57.775065+03:00, headset type:INSIGHT, headset serial:A2D200FB, headset firmware:930, subject name:Qasim, channels:56, sampling rate:eeg_128;mot_64;pow_8, samples:1125      , version:2.0
Timestamp,EEG.Counter,EEG.Interpolated,EEG.AF3,EEG.T7,EEG.Pz,EEG.T8,EEG.AF4,EEG.RawCq,EEG.Battery,MarkerIndex,MarkerType,MarkerValueInt,EEG.MarkerHardware,CQ.AF3,CQ.T7,CQ.Pz,CQ.T8,CQ.AF4,MOT.CounterMems,MOT.InterpolatedMems,MOT.Q0,MOT.Q1,MOT.Q2,MOT.Q3,MOT.AccX,MOT.AccY,MOT.AccZ,MOT.MagX,MOT.MagY,MOT.MagZ,POW.AF3.Theta,POW.AF3.Alpha,POW.AF3.BetaL,POW.AF3.BetaH,POW.AF3.Gamma,POW.T7.Theta,POW.T7.Alpha,POW.T7.BetaL,POW.T7.BetaH,POW.T7.Gamma,POW.Pz.Theta,POW.Pz.Alpha,POW.Pz.BetaL,POW.Pz.BetaH,POW.Pz.Gamma,POW.T8.Theta,POW.T8.Alpha,POW.T8.BetaL,POW.T8.BetaH,POW.T8.Gamma,POW.AF4.Theta,POW.AF4.Alpha,POW.AF4.BetaL,POW.AF4.BetaH,POW.AF4.Gamma
1577742169.020609,69.000000,0.000000,4290.769043,4372.307617,4160.512695,4183.589844,4246.153809,450.000000,4.000000,,,,0.000000,4.000000,4.000000,4.000000,4.000000,4.000000,,,,,,,,,,,,,,,,,,,,,,,,,,,,,,,,,,,,,
1577742169.028506,70.000000,0.000000,4239.487305,4346.666504,4116.922852,4138.461426,4194.871582,16130.000000,4.000000,,,,0.000000,4.000000,4.000000,4.000000,4.000000,4.000000,35.000000,0.000000,0.368479,0.212646,0.851807,0.305664,0.565438,-0.581552,0.577646,10.441350,-51.176464,53.866688,,,,,,,,,,,,,,,,,,,,,,,,,
1577742169.036304,71.000000,0.000000,4208.205078,4344.615234,4101.025879,4109.230957,4165.641113,450.000000,4.000000,,,,0.000000,4.000000,4.000000,4.000000,4.000000,4.000000,,,,,,,,,,,,,,,,,,,,,,,,,,,,,,,,,,,,,
1577742169.044201,72.000000,0.000000,4233.846191,4362.563965,4124.615234,4136.922852,4190.769043,450.000000,4.000000,,,,0.000000,4.000000,4.000000,4.000000,4.000000,4.000000,36.000000,0.000000,0.367914,0.212646,0.852051,0.305664,0.571298,-0.579599,0.581552,12.926322,-51.143124,54.222294,,,,,,,,,,,,,,,,,,,,,,,,,
1577742169.052098,73.000000,0.000000,4235.384766,4365.128418,4122.051270,4140.000000,4191.794922,16179.000000,4.000000,,,,0.000000,4.000000,4.000000,4.000000,4.000000,4.000000,,,,,,,,,,,,,,,,,,,,,,,,,,,,,,,,,,,,,
1577742169.059896,74.000000,0.000000,4228.205078,4355.384766,4111.794922,4122.563965,4182.563965,450.000000,4.000000,,,,0.000000,4.000000,4.000000,4.000000,4.000000,4.000000,37.000000,0.000000,0.368257,0.212402,0.852051,0.305420,0.558602,-0.578622,0.585458,8.523291,-51.113117,52.807693,,,,,,,,,,,,,,,,,,,,,,,,,
1577742169.067693,75.000000,0.000000,4221.538574,4337.948730,4104.102539,4114.871582,4174.358887,16196.000000,4.000000,,,,0.000000,4.000000,4.000000,4.000000,4.000000,4.000000,,,,,,,,,,,,,6.340672,5.407886,4.050918,3.605702,3.749481,0.500769,1.196732,1.683447,1.999642,3.307060,1.590748,2.785939,2.171139,3.241894,3.257908,1.489933,3.185526,3.680263,3.408992,4.148536,5.645352,5.216743,3.262995,3.565427,4.416881
1577742169.075590,76.000000,0.000000,4198.974121,4327.179688,4087.179443,4109.230957,4154.358887,450.000000,4.000000,,,,0.000000,4.000000,4.000000,4.000000,4.000000,4.000000,38.000000,0.000000,0.368257,0.212402,0.852051,0.305420,0.561044,-0.597665,0.568856,7.312069,-51.086113,53.628094,,,,,,,,,,,,,,,,,,,,,,,,,
1577742169.083488,77.000000,0.000000,4216.410156,4350.256348,4102.563965,4122.563965,4171.282227,450.000000,4.000000,,,,0.000000,4.000000,4.000000,4.000000,4.000000,4.000000,,,,,,,,,,,,,,,,,,,,,,,,,,,,,,,,,,,,,
1577742169.091285,78.000000,0.000000,4265.128418,4377.436035,4140.000000,4152.307617,4217.436035,450.000000,4.000000,,,,0.000000,4.000000,4.000000,4.000000,4.000000,4.000000,39.000000,0.000000,0.368257,0.212402,0.852051,0.305420,0.560555,-0.574716,0.564950,7.298647,-51.181438,54.187004,,,,,,,,,,,,,,,,,,,,,,,,,
1577742169.099182,79.000000,0.000000,4276.410156,4365.641113,4140.512695,4159.487305,4226.666504,16196.000000,4.000000,,,,0.000000,4.000000,4.000000,4.000000,4.000000,4.000000,,,,,,,,,,,,,,,,,,,,,,,,,,,,,,,,,,,,,
1577742169.106980,80.000000,0.000000,4263.589844,4350.769043,4124.615234,4146.153809,4215.897461,450.000000,4.000000,,,,0.000000,4.000000,4.000000,4.000000,4.000000,4.000000,40.000000,0.000000,0.368116,0.212646,0.852051,0.305420,0.564950,-0.588388,0.576181,10.217520,-51.207413,54.690025,,,,,,,,,,,,,,,,,,,,,,,,,
1577742169.114877,81.000000,0.000000,4268.717773,4370.769043,4133.846191,4150.256348,4227.692383,450.000000,4.000000,,,,0.000000,4.000000,4.000000,4.000000,4.000000,4.000000,,,,,,,,,,,,,,,,,,,,,,,,,,,,,,,,,,,,,
1577742169.122675,82.000000,0.000000,4281.025879,4383.589844,4142.051270,4162.563965,4245.128418,450.000000,4.000000,,,,0.000000,4.000000,4.000000,4.000000,4.000000,4.000000,41.000000,0.000000,0.368116,0.212646,0.852051,0.305420,0.559091,-0.599619,0.562509,8.836875,-51.170979,55.322189,,,,,,,,,,,,,,,,,,,,,,,,,
1577742169.130572,83.000000,0.000000,4275.897461,4358.974121,4125.128418,4144.102539,4237.948730,16196.000000,4.000000,,,,0.000000,4.000000,4.000000,4.000000,4.000000,4.000000,,,,,,,,,,,,,,,,,,,,,,,,,,,,,,,,,,,,,
1577742169.138369,84.000000,0.000000,4262.051270,4338.461426,4113.333496,4128.717773,4220.512695,450.000000,4.000000,,,,0.000000,4.000000,4.000000,4.000000,4.000000,4.000000,42.000000,0.000000,0.368681,0.212646,0.851807,0.305420,0.556649,-0.589853,0.576181,8.670972,-51.078373,55.711693,,,,,,,,,,,,,,,,,,,,,,,,,
1577742169.146266,85.000000,0.000000,4247.179688,4346.666504,4112.307617,4131.282227,4204.102539,450.000000,4.000000,,,,0.000000,4.000000,4.000000,4.000000,4.000000,4.000000,,,,,,,,,,,,,,,,,,,,,,,,,,,,,,,,,,,,,
1577742169.154064,86.000000,0.000000,4245.128418,4362.563965,4111.282227,4131.794922,4197.436035,450.000000,4.000000,,,,0.000000,4.000000,4.000000,4.000000,4.000000,4.000000,43.000000,0.000000,0.368540,0.212891,0.851807,0.305420,0.573251,-0.593759,0.575692,4.573845,-50.935211,56.122059,,,,,,,,,,,,,,,,,,,,,,,,,
1577742169.161961,87.000000,0.000000,4260.512695,4358.974121,4121.025879,4138.974121,4210.256348,16196.000000,4.000000,,,,0.000000,4.000000,4.000000,4.000000,4.000000,4.000000,,,,,,,,,,,,,,,,,,,,,,,,,,,,,,,,,,,,,
1577742169.169758,88.000000,0.000000,4271.794922,4343.077148,4132.820313,4149.230957,4223.589844,450.000000,4.000000,,,,0.000000,4.000000,4.000000,4.000000,4.000000,4.000000,44.000000,0.000000,0.368116,0.212646,0.852051,0.305420,0.559091,-0.599619,0.562509,3.817384,-50.985809,56.431576,,,,,,,,,,,,,,,,,,,,,,,,,
1577742169.177655,89.000000,0.000000,4276.922852,4349.230957,4136.922852,4150.769043,4229.743652,450.000000,4.000000,,,,0.000000,4.000000,4.000000,4.000000,4.000000,4.000000,,,,,,,,,,,,,,,,,,,,,,,,,,,,,,,,,,,,,
1577742169.185452,90.000000,0.000000,4284.615234,4368.205078,4137.948730,4154.871582,4240.512695,450.000000,4.000000,,,,0.000000,4.000000,4.000000,4.000000,4.000000,4.000000,45.000000,0.000000,0.368540,0.212891,0.851807,0.305420,0.573251,-0.593759,0.575692,0.205616,-50.851906,56.769955,,,,,,,,,,,,,,,,,,,,,,,,,
1577742169.193349,91.000000,0.000000,4290.256348,4367.179688,4143.589844,4162.563965,4248.205078,16196.000000,4.000000,,,,0.000000,4.000000,4.000000,4.000000,4.000000,4.000000,,,,,,,,,,,,,6.973476,5.418146,4.503661,3.534863,3.775964,0.662766,1.503757,1.497288,1.659896,3.057764,1.809743,3.549716,2.520116,3.058634,3.407187,1.603924,4.141166,4.089633,3.111212,4.160097,5.845981,5.828579,3.865467,3.188918,4.457374
1577742169.201147,92.000000,0.000000,4280.000000,4346.666504,4141.538574,4152.307617,4235.384766,450.000000,4.000000,,,,0.000000,4.000000,4.000000,4.000000,4.000000,4.000000,46.000000,0.000000,0.368540,0.212891,0.851807,0.305420,0.563485,-0.598642,0.576669,3.773976,-50.910835,57.014679,,,,,,,,,,,,,,,,,,,,,,,,,
1577742169.209044,93.000000,0.000000,4244.102539,4334.358887,4108.205078,4117.436035,4199.487305,450.000000,4.000000,,,,0.000000,4.000000,4.000000,4.000000,4.000000,4.000000,,,,,,,,,,,,,,,,,,,,,,,,,,,,,,,,,,,,,
1577742169.216841,94.000000,0.000000,4232.307617,4349.230957,4092.307617,4104.615234,4189.743652,450.000000,4.000000,,,,0.000000,4.000000,4.000000,4.000000,4.000000,4.000000,47.000000,0.000000,0.368540,0.212891,0.851807,0.305420,0.566415,-0.595712,0.567391,4.114363,-50.904057,57.234932,,,,,,,,,,,,,,,,,,,,,,,,,
1577742169.224738,95.000000,0.000000,4281.538574,4367.179688,4133.333496,4148.205078,4233.846191,16196.000000,4.000000,,,,0.000000,4.000000,4.000000,4.000000,4.000000,4.000000,,,,,,,,,,,,,,,,,,,,,,,,,,,,,,,,,,,,,
1577742169.232535,96.000000,0.000000,4300.000000,4354.871582,4148.205078,4164.615234,4246.666504,450.000000,4.000000,,,,0.000000,4.000000,4.000000,4.000000,4.000000,4.000000,48.000000,0.000000,0.368540,0.212891,0.851807,0.305420,0.566903,-0.592782,0.567391,4.360896,-51.137218,57.612606,,,,,,,,,,,,,,,,,,,,,,,,,
1577742169.240433,97.000000,0.000000,4272.307617,4350.769043,4127.692383,4135.897461,4220.000000,450.000000,4.000000,,,,0.000000,4.000000,4.000000,4.000000,4.000000,4.000000,,,,,,,,,,,,,,,,,,,,,,,,,,,,,,,,,,,,,
1577742169.248230,98.000000,0.000000,4280.000000,4365.128418,4142.051270,4144.615234,4228.717773,450.000000,4.000000,,,,0.000000,4.000000,4.000000,4.000000,4.000000,4.000000,49.000000,0.000000,0.368540,0.212891,0.851807,0.305420,0.573251,-0.601572,0.569345,0.694776,-51.167618,57.832882,,,,,,,,,,,,,,,,,,,,,,,,,
1577742169.256127,99.000000,0.000000,4289.743652,4357.436035,4150.256348,4148.205078,4238.974121,16196.000000,4.000000,,,,0.000000,4.000000,4.000000,4.000000,4.000000,4.000000,,,,,,,,,,,,,,,,,,,,,,,,,,,,,,,,,,,,,
1577742169.264024,100.000000,0.000000,4263.589844,4343.077148,4122.563965,4109.743652,4215.897461,450.000000,4.000000,,,,0.000000,4.000000,4.000000,4.000000,4.000000,4.000000,50.000000,0.000000,0.368540,0.212891,0.851807,0.305420,0.561532,-0.592294,0.560555,1.283268,-51.075348,55.997410,,,,,,,,,,,,,,,,,,,,,,,,,
1577742169.271822,101.000000,0.000000,4264.102539,4350.256348,4120.000000,4114.871582,4215.897461,450.000000,4.000000,,,,0.000000,4.000000,4.000000,4.000000,4.000000,4.000000,,,,,,,,,,,,,,,,,,,,,,,,,,,,,,,,,,,,,
1577742169.279619,102.000000,0.000000,4280.000000,4357.948730,4130.256348,4151.282227,4232.307617,450.000000,4.000000,,,,0.000000,4.000000,4.000000,4.000000,4.000000,4.000000,51.000000,0.000000,0.368540,0.212891,0.851807,0.305420,0.576181,-0.583017,0.566903,4.564417,-51.052120,56.199760,,,,,,,,,,,,,,,,,,,,,,,,,
1577742169.287516,103.000000,0.000000,4259.487305,4348.205078,4113.846191,4136.922852,4216.922852,16196.000000,4.000000,,,,0.000000,4.000000,4.000000,4.000000,4.000000,4.000000,,,,,,,,,,,,,,,,,,,,,,,,,,,,,,,,,,,,,
1577742169.295414,104.000000,0.000000,4251.282227,4347.179688,4111.282227,4125.128418,4209.743652,450.000000,4.000000,,,,0.000000,4.000000,4.000000,4.000000,4.000000,4.000000,52.000000,0.000000,0.368540,0.212891,0.851807,0.305420,0.573251,-0.594247,0.562509,4.825759,-51.091030,54.527596,,,,,,,,,,,,,,,,,,,,,,,,,
1577742169.303211,105.000000,0.000000,4265.128418,4351.282227,4116.922852,4138.974121,4220.000000,450.000000,4.000000,,,,0.000000,4.000000,4.000000,4.000000,4.000000,4.000000,,,,,,,,,,,,,,,,,,,,,,,,,,,,,,,,,,,,,
1577742169.311009,106.000000,0.000000,4257.436035,4336.922852,4103.077148,4128.717773,4209.230957,450.000000,4.000000,,,,0.000000,4.000000,4.000000,4.000000,4.000000,4.000000,53.000000,0.000000,0.368540,0.212891,0.851807,0.305420,0.560067,-0.587411,0.573739,5.001153,-51.006416,54.996559,,,,,,,,,,,,,,,,,,,,,,,,,
1577742169.318906,107.000000,0.000000,4271.794922,4337.436035,4119.487305,4143.077148,4223.077148,16196.000000,4.000000,,,,0.000000,4.000000,4.000000,4.000000,4.000000,4.000000,,,,,,,,,,,,,7.146671,5.271211,4.857471,3.483095,3.917663,0.837477,1.723681,1.351623,1.422010,2.789880,1.898391,4.182019,2.829005,2.853284,3.565247,1.751698,4.986671,4.476727,2.892873,4.256129,5.754575,6.214489,4.431764,2.858796,4.562407
1577742169.326803,108.000000,0.000000,4302.051270,4359.487305,4146.666504,4171.794922,4254.358887,450.000000,4.000000,,,,0.000000,4.000000,4.000000,4.000000,4.000000,4.000000,54.000000,0.000000,0.368337,0.212891,0.851807,0.305664,0.569833,-0.600595,0.570321,5.218822,-50.990082,53.564346,,,,,,,,,,,,,,,,,,,,,,,,,
1577742169.334600,109.000000,0.000000,4283.589844,4364.102539,4118.461426,4143.589844,4229.743652,450.000000,4.000000,,,,0.000000,4.000000,4.000000,4.000000,4.000000,4.000000,,,,,,,,,,,,,,,,,,,,,,,,,,,,,,,,,,,,,
1577742169.342497,110.000000,0.000000,4256.922852,4347.692383,4089.743652,4118.974121,4194.871582,450.000000,4.000000,,,,0.000000,4.000000,4.000000,4.000000,4.000000,4.000000,55.000000,0.000000,0.368479,0.212646,0.851807,0.305664,0.568368,-0.590829,0.564950,5.354908,-51.154827,54.129635,,,,,,,,,,,,,,,,,,,,,,,,,
1577742169.350295,111.000000,0.000000,4264.102539,4337.948730,4105.128418,4139.487305,4206.666504,16196.000000,4.000000,,,,0.000000,4.000000,4.000000,4.000000,4.000000,4.000000,,,,,,,,,,,,,,,,,,,,,,,,,,,,,,,,,,,,,
1577742169.358192,112.000000,0.000000,4269.230957,4336.410156,4116.922852,4148.717773,4220.000000,450.000000,4.000000,,,,0.000000,4.000000,4.000000,4.000000,4.000000,4.000000,56.000000,0.000000,0.368479,0.212646,0.851807,0.305664,0.566903,-0.590829,0.566903,1.589388,-51.123650,54.817837,,,,,,,,,,,,,,,,,,,,,,,,,
1577742169.365989,113.000000,0.000000,4257.436035,4330.769043,4105.641113,4133.846191,4202.051270,450.000000,4.000000,,,,0.000000,4.000000,4.000000,4.000000,4.000000,4.000000,,,,,,,,,,,,,,,,,,,,,,,,,,,,,,,,,,,,,
1577742169.373886,114.000000,0.000000,4250.769043,4341.538574,4105.128418,4129.230957,4189.743652,450.000000,4.000000,,,,0.000000,4.000000,4.000000,4.000000,4.000000,4.000000,57.000000,0.000000,0.368276,0.212646,0.851807,0.305908,0.566903,-0.586923,0.568856,4.899740,-51.155407,55.257774,,,,,,,,,,,,,,,,,,,,,,,,,
1577742169.381683,115.000000,0.000000,4258.461426,4362.563965,4116.410156,4145.641113,4202.051270,16196.000000,4.000000,,,,0.000000,4.000000,4.000000,4.000000,4.000000,4.000000,,,,,,,,,,,,,,,,,,,,,,,,,,,,,,,,,,,,,
1577742169.389581,116.000000,0.000000,4265.128418,4350.769043,4115.384766,4156.922852,4211.282227,450.000000,4.000000,,,,0.000000,4.000000,4.000000,4.000000,4.000000,4.000000,58.000000,0.000000,0.368276,0.212646,0.851807,0.305908,0.560067,-0.595224,0.557137,5.067735,-51.004539,55.593903,,,,,,,,,,,,,,,,,,,,,,,,,
1577742169.397378,117.000000,0.000000,4250.256348,4325.641113,4100.000000,4136.922852,4194.358887,450.000000,4.000000,,,,0.000000,4.000000,4.000000,4.000000,4.000000,4.000000,,,,,,,,,,,,,,,,,,,,,,,,,,,,,,,,,,,,,
1577742169.405275,118.000000,0.000000,4235.384766,4344.102539,4092.307617,4114.358887,4178.974121,450.000000,4.000000,,,,0.000000,4.000000,4.000000,4.000000,4.000000,4.000000,59.000000,0.000000,0.368417,0.212402,0.851807,0.305908,0.570321,-0.589364,0.574716,1.390747,-50.988392,55.956234,,,,,,,,,,,,,,,,,,,,,,,,,
1577742169.413072,119.000000,0.000000,4276.922852,4381.538574,4128.205078,4150.256348,4218.974121,16196.000000,4.000000,,,,0.000000,4.000000,4.000000,4.000000,4.000000,4.000000,,,,,,,,,,,,,,,,,,,,,,,,,,,,,,,,,,,,,
1577742169.420969,120.000000,0.000000,4318.461426,4371.794922,4158.461426,4190.769043,4258.974121,450.000000,4.000000,,,,0.000000,4.000000,4.000000,4.000000,4.000000,4.000000,60.000000,0.000000,0.368778,0.212402,0.851563,0.306152,0.556161,-0.597665,0.563485,1.969457,-51.033676,56.342148,,,,,,,,,,,,,,,,,,,,,,,,,
1577742169.428767,121.000000,0.000000,4290.256348,4349.743652,4136.410156,4175.384766,4233.846191,450.000000,4.000000,,,,0.000000,4.000000,4.000000,4.000000,4.000000,4.000000,,,,,,,,,,,,,,,,,,,,,,,,,,,,,,,,,,,,,
1577742169.436664,122.000000,0.000000,4249.230957,4351.282227,4105.128418,4143.589844,4195.384766,450.000000,4.000000,,,,0.000000,4.000000,4.000000,4.000000,4.000000,4.000000,61.000000,0.000000,0.368778,0.212402,0.851563,0.306152,0.557626,-0.598642,0.564950,-1.397703,-50.954800,56.569839,,,,,,,,,,,,,,,,,,,,,,,,,
1577742169.444461,123.000000,0.000000,4244.102539,4338.461426,4099.487305,4124.615234,4187.179688,16196.000000,4.000000,,,,0.000000,4.000000,4.000000,4.000000,4.000000,4.000000,,,,,,,,,,,,,6.973736,5.000413,5.031947,3.391617,4.152050,0.956997,1.803596,1.262962,1.275292,2.573300,1.841836,4.492676,3.048499,2.638403,3.703672,1.902671,5.492317,4.736408,2.732891,4.445548,5.408442,6.277794,4.824700,2.585897,4.729485
1577742169.452358,124.000000,0.000000,4246.666504,4330.769043,4106.666504,4126.153809,4191.794922,450.000000,4.000000,,,,0.000000,4.000000,4.000000,4.000000,4.000000,4.000000,62.000000,0.000000,0.368778,0.212402,0.851563,0.306152,0.570321,-0.604990,0.581552,-1.437379,-51.003441,56.834576,,,,,,,,,,,,,,,,,,,,,,,,,
1577742169.460255,125.000000,0.000000,4256.922852,4364.615234,4121.538574,4152.820313,4211.794922,450.000000,4.000000,,,,0.000000,4.000000,4.000000,4.000000,4.000000,4.000000,,,,,,,,,,,,,,,,,,,,,,,,,,,,,,,,,,,,,
1577742169.468053,126.000000,0.000000,4287.692383,4386.153809,4138.461426,4178.974121,4243.589844,450.000000,4.000000,,,,0.000000,4.000000,4.000000,4.000000,4.000000,4.000000,63.000000,0.000000,0.368919,0.212158,0.851563,0.306152,0.566903,-0.605478,0.565438,-0.516041,-50.987400,57.072838,,,,,,,,,,,,,,,,,,,,,,,,,
1577742169.475850,127.000000,0.000000,4269.743652,4343.077148,4123.077148,4155.384766,4224.102539,236.000000,4.000000,,,,0.000000,4.000000,4.000000,4.000000,4.000000,4.000000,,,,,,,,,,,,,,,,,,,,,,,,,,,,,,,,,,,,,
1577742169.483748,0.000000,1.000000,4266.217773,4346.410156,4119.807617,4150.769043,4217.884766,450.000000,4.000000,,,,0.000000,4.000000,4.000000,4.000000,4.000000,4.000000,0.000000,1.000000,0.000000,0.212158,0.851611,0.306152,0.564657,-0.604208,0.000000,0.000000,0.000000,0.000000,,,,,,,,,,,,,,,,,,,,,,,,,
1577742169.491545,1.000000,1.000000,4262.692383,4349.743652,4116.538574,4146.153809,4211.666504,450.000000,4.000000,,,,0.000000,4.000000,4.000000,4.000000,4.000000,4.000000,,,,,,,,,,,,,,,,,,,,,,,,,,,,,,,,,,,,,
1577742169.499343,2.000000,1.000000,4259.166504,4353.077148,4113.269043,4141.538574,4205.448730,16203.000000,4.000000,,,,0.000000,4.000000,4.000000,4.000000,4.000000,4.000000,1.000000,1.000000,0.000000,0.212158,0.851660,0.306152,0.562411,-0.602939,0.000000,0.000000,0.000000,0.000000,,,,,,,,,,,,,,,,,,,,,,,,,
1577742169.507140,3.000000,1.000000,4255.641113,4356.410156,4110.000000,4136.922852,4199.230957,450.000000,4.000000,,,,0.000000,4.000000,4.000000,4.000000,4.000000,4.000000,,,,,,,,,,,,,,,,,,,,,,,,,,,,,,,,,,,,,
1577742169.514938,4.000000,1.000000,4252.115234,4359.743652,4106.730957,4132.307617,4193.012695,16231.000000,4.000000,,,,0.000000,4.000000,4.000000,4.000000,4.000000,4.000000,2.000000,1.000000,0.000000,0.212158,0.851709,0.306152,0.560165,-0.601669,0.000000,0.000000,0.000000,0.000000,,,,,,,,,,,,,,,,,,,,,,,,,
1577742169.522735,5.000000,1.000000,4248.589844,4363.077148,4103.461426,4127.692383,4186.794922,450.000000,4.000000,,,,0.000000,4.000000,4.000000,4.000000,4.000000,4.000000,,,,,,,,,,,,,,,,,,,,,,,,,,,,,,,,,,,,,
1577742169.530533,6.000000,1.000000,4245.063965,4366.410156,4100.192383,4123.077148,4180.577148,16130.000000,4.000000,,,,0.000000,4.000000,4.000000,4.000000,4.000000,4.000000,3.000000,1.000000,0.000000,0.212158,0.851758,0.306152,0.557919,-0.600400,0.000000,0.000000,0.000000,0.000000,,,,,,,,,,,,,,,,,,,,,,,,,
1577742169.538330,7.000000,0.000000,4241.538574,4369.743652,4096.922852,4118.461426,4174.358887,450.000000,4.000000,,,,0.000000,4.000000,4.000000,4.000000,4.000000,4.000000,,,,,,,,,,,,,,,,,,,,,,,,,,,,,,,,,,,,,
1577742169.546027,8.000000,0.000000,4277.436035,4368.717773,4124.615234,4153.333496,4215.897461,450.000000,4.000000,,,,0.000000,4.000000,4.000000,4.000000,4.000000,4.000000,4.000000,0.000000,0.368355,0.212158,0.851807,0.306152,0.555673,-0.599130,0.577157,3.064670,-51.152412,55.313370,,,,,,,,,,,,,,,,,,,,,,,,,
1577742169.553824,9.000000,0.000000,4264.102539,4341.025879,4108.205078,4131.282227,4199.487305,16205.000000,4.000000,,,,0.000000,4.000000,4.000000,4.000000,4.000000,4.000000,,,,,,,,,,,,,,,,,,,,,,,,,,,,,,,,,,,,,
1577742169.561621,10.000000,0.000000,4213.333496,4326.666504,4074.358887,4076.410156,4138.461426,450.000000,4.000000,,,,0.000000,4.000000,4.000000,4.000000,4.000000,4.000000,5.000000,0.000000,0.368355,0.212158,0.851807,0.306152,0.564462,-0.592294,0.564462,-0.412012,-51.360741,53.789661,,,,,,,,,,,,,,,,,,,,,,,,,
1577742169.569317,11.000000,0.000000,4220.000000,4346.666504,4092.820557,4085.128174,4146.153809,16205.000000,4.000000,,,,0.000000,4.000000,4.000000,4.000000,4.000000,4.000000,,,,,,,,,,,,,6.671835,4.635436,5.096537,3.233891,4.408274,0.980849,1.741188,1.220221,1.177363,2.446249,1.643190,4.353970,3.233526,2.410678,3.786702,1.939165,5.519818,4.851407,2.592020,4.671622,4.939650,5.973506,5.040286,2.375854,4.903738
1577742169.577114,12.000000,0.000000,4268.205078,4355.384766,4132.307617,4133.333496,4200.000000,450.000000,4.000000,,,,0.000000,4.000000,4.000000,4.000000,4.000000,4.000000,6.000000,0.000000,0.368355,0.212158,0.851807,0.306152,0.556161,-0.592294,0.575204,-3.600840,-51.368786,54.392231,,,,,,,,,,,,,,,,,,,,,,,,,
1577742169.584810,13.000000,0.000000,4267.692383,4332.820313,4123.589844,4137.436035,4195.897461,450.000000,4.000000,,,,0.000000,4.000000,4.000000,4.000000,4.000000,4.000000,,,,,,,,,,,,,,,,,,,,,,,,,,,,,,,,,,,,,
1577742169.592607,14.000000,0.000000,4235.897461,4335.384766,4096.922852,4118.974121,4165.128418,450.000000,4.000000,,,,0.000000,4.000000,4.000000,4.000000,4.000000,4.000000,7.000000,0.000000,0.368355,0.212158,0.851807,0.306152,0.562020,-0.594736,0.562020,-2.582787,-51.316216,54.814915,,,,,,,,,,,,,,,,,,,,,,,,,
1577742169.600303,15.000000,0.000000,4229.230957,4355.897461,4102.563965,4126.153809,4166.666504,16205.000000,4.000000,,,,0.000000,4.000000,4.000000,4.000000,4.000000,4.000000,,,,,,,,,,,,,,,,,,,,,,,,,,,,,,,,,,,,,
1577742169.608100,16.000000,0.000000,4231.282227,4344.102539,4114.871582,4133.333496,4170.256348,0.000000,4.000000,,,,0.000000,4.000000,4.000000,4.000000,4.000000,4.000000,8.000000,0.000000,0.368355,0.212158,0.851807,0.306152,0.564462,-0.592294,0.564462,-1.606724,-51.328716,53.281239,,,,,,,,,,,,,,,,,,,,,,,,,
1577742169.615797,17.000000,0.000000,4232.307617,4335.897461,4115.384766,4130.256348,4166.153809,0.000000,4.000000,,,,0.000000,4.000000,4.000000,4.000000,4.000000,4.000000,,,,,,,,,,,,,,,,,,,,,,,,,,,,,,,,,,,,,
1577742169.623593,18.000000,0.000000,4237.436035,4352.820313,4113.333496,4126.666504,4168.717773,0.000000,4.000000,,,,0.000000,4.000000,4.000000,4.000000,4.000000,4.000000,9.000000,0.000000,0.368355,0.212158,0.851807,0.306152,0.562020,-0.594736,0.562020,-0.788083,-51.280148,53.815022,,,,,,,,,,,,,,,,,,,,,,,,,
1577742169.631290,19.000000,0.000000,4232.820313,4357.436035,4104.615234,4120.512695,4165.641113,0.000000,4.000000,,,,0.000000,4.000000,4.000000,4.000000,4.000000,4.000000,,,,,,,,,,,,,,,,,,,,,,,,,,,,,,,,,,,,,
1577742169.639086,20.000000,0.000000,4224.615234,4337.436035,4096.410156,4104.615234,4153.846191,0.000000,4.000000,,,,0.000000,4.000000,4.000000,4.000000,4.000000,4.000000,10.000000,0.000000,0.368355,0.212158,0.851807,0.306152,0.567391,-0.582528,0.559091,-3.879489,-51.296257,54.415054,,,,,,,,,,,,,,,,,,,,,,,,,
1577742169.646783,21.000000,0.000000,4216.922852,4321.538574,4089.230713,4085.128174,4136.922852,0.000000,4.000000,,,,0.000000,4.000000,4.000000,4.000000,4.000000,4.000000,,,,,,,,,,,,,,,,,,,,,,,,,,,,,,,,,,,,,
1577742169.654579,22.000000,0.000000,4207.179688,4333.846191,4077.948730,4081.538574,4128.717773,0.000000,4.000000,,,,0.000000,4.000000,4.000000,4.000000,4.000000,4.000000,11.000000,0.000000,0.368355,0.212158,0.851807,0.306152,0.562509,-0.593759,0.558602,-2.713940,-51.191120,54.895271,,,,,,,,,,,,,,,,,,,,,,,,,
1577742169.662276,23.000000,0.000000,4216.922852,4362.051270,4095.384521,4102.051270,4151.794922,0.000000,4.000000,,,,0.000000,4.000000,4.000000,4.000000,4.000000,4.000000,,,,,,,,,,,,,,,,,,,,,,,,,,,,,,,,,,,,,
1577742169.670073,24.000000,0.000000,4243.077148,4351.794922,4124.102539,4123.077148,4182.051270,0.000000,4.000000,,,,0.000000,4.000000,4.000000,4.000000,4.000000,4.000000,12.000000,0.000000,0.368355,0.212158,0.851807,0.306152,0.560555,-0.596201,0.566903,-2.741623,-51.216129,55.267651,,,,,,,,,,,,,,,,,,,,,,,,,
1577742169.677769,25.000000,0.000000,4262.563965,4327.692383,4112.820313,4141.025879,4195.384766,0.000000,4.000000,,,,0.000000,4.000000,4.000000,4.000000,4.000000,4.000000,,,,,,,,,,,,,,,,,,,,,,,,,,,,,,,,,,,,,
1577742169.685566,26.000000,0.000000,4252.307617,4322.563965,4089.743652,4145.128418,4189.743652,0.000000,4.000000,,,,0.000000,4.000000,4.000000,4.000000,4.000000,4.000000,13.000000,0.000000,0.368152,0.212158,0.851807,0.306396,0.563973,-0.592782,0.574228,-5.577860,-51.178822,55.602791,,,,,,,,,,,,,,,,,,,,,,,,,
1577742169.693262,27.000000,0.000000,4226.153809,4323.077148,4092.820557,4123.077148,4171.282227,0.000000,4.000000,,,,0.000000,4.000000,4.000000,4.000000,4.000000,4.000000,,,,,,,,,,,,,6.211792,4.219144,5.169765,3.043611,4.585288,0.910323,1.575745,1.188506,1.102435,2.401063,1.365033,3.784523,3.446713,2.187190,3.777870,1.813505,5.108826,4.847425,2.462368,4.831898,4.440193,5.387458,5.140647,2.252417,4.994518
1577742169.700959,28.000000,0.000000,4233.846191,4338.461426,4102.051270,4121.538574,4176.922852,0.000000,4.000000,,,,0.000000,4.000000,4.000000,4.000000,4.000000,4.000000,14.000000,0.000000,0.368355,0.212158,0.851807,0.306152,0.563485,-0.598154,0.577646,-4.362105,-51.025616,55.964233,,,,,,,,,,,,,,,,,,,,,,,,,
1577742169.708756,29.000000,0.000000,4257.948730,4363.589844,4103.077148,4150.769043,4199.487305,0.000000,4.000000,,,,0.000000,4.000000,4.000000,4.000000,4.000000,4.000000,,,,,,,,,,,,,,,,,,,,,,,,,,,,,,,,,,,,,
1577742169.716552,30.000000,0.000000,4251.282227,4358.461426,4107.692383,4154.358887,4197.436035,0.000000,4.000000,,,,0.000000,4.000000,4.000000,4.000000,4.000000,4.000000,15.000000,0.000000,0.368152,0.212158,0.851807,0.306396,0.562020,-0.604013,0.569833,-3.208110,-51.067177,56.229713,,,,,,,,,,,,,,,,,,,,,,,,,
1577742169.724249,31.000000,0.000000,4230.256348,4323.077148,4103.589844,4126.153809,4177.436035,0.000000,4.000000,,,,0.000000,4.000000,4.000000,4.000000,4.000000,4.000000,,,,,,,,,,,,,,,,,,,,,,,,,,,,,,,,,,,,,
1577742169.732045,32.000000,0.000000,4224.615234,4326.153809,4094.871826,4114.871582,4168.717773,0.000000,4.000000,,,,0.000000,4.000000,4.000000,4.000000,4.000000,4.000000,16.000000,0.000000,0.368152,0.212158,0.851807,0.306396,0.566415,-0.605478,0.574228,-2.229330,-51.104580,56.408833,,,,,,,,,,,,,,,,,,,,,,,,,
1577742169.739742,33.000000,0.000000,4227.179688,4365.128418,4103.077148,4132.820313,4171.282227,0.000000,4.000000,,,,0.000000,4.000000,4.000000,4.000000,4.000000,4.000000,,,,,,,,,,,,,,,,,,,,,,,,,,,,,,,,,,,,,
1577742169.747538,34.000000,0.000000,4226.153809,4357.436035,4105.641113,4140.000000,4175.897461,0.000000,4.000000,,,,0.000000,4.000000,4.000000,4.000000,4.000000,4.000000,17.000000,0.000000,0.368355,0.212158,0.851807,0.306152,0.572763,-0.597665,0.567391,1.462894,-51.078426,56.510227,,,,,,,,,,,,,,,,,,,,,,,,,
1577742169.755234,35.000000,0.000000,4239.487305,4326.153809,4106.666504,4139.487305,4190.769043,0.000000,4.000000,,,,0.000000,4.000000,4.000000,4.000000,4.000000,4.000000,,,,,,,,,,,,,,,,,,,,,,,,,,,,,,,,,,,,,
1577742169.763031,36.000000,0.000000,4256.410156,4334.358887,4115.897461,4147.692383,4206.666504,0.000000,4.000000,,,,0.000000,4.000000,4.000000,4.000000,4.000000,4.000000,18.000000,0.000000,0.368152,0.212158,0.851807,0.306396,0.568856,-0.584482,0.575204,1.077343,-50.935261,56.780926,,,,,,,,,,,,,,,,,,,,,,,,,
1577742169.770727,37.000000,0.000000,4245.128418,4347.692383,4105.641113,4137.948730,4194.871582,0.000000,4.000000,,,,0.000000,4.000000,4.000000,4.000000,4.000000,4.000000,,,,,,,,,,,,,,,,,,,,,,,,,,,,,,,,,,,,,
1577742169.778424,38.000000,0.000000,4227.692383,4340.512695,4087.179443,4120.000000,4164.615234,0.000000,4.000000,,,,0.000000,4.000000,4.000000,4.000000,4.000000,4.000000,19.000000,0.000000,0.368292,0.211914,0.851807,0.306396,0.563973,-0.587411,0.569345,-2.260421,-50.866226,56.964737,,,,,,,,,,,,,,,,,,,,,,,,,
1577742169.786220,39.000000,0.000000,4247.692383,4348.205078,4105.641113,4140.512695,4176.410156,0.000000,4.000000,,,,0.000000,4.000000,4.000000,4.000000,4.000000,4.000000,,,,,,,,,,,,,,,,,,,,,,,,,,,,,,,,,,,,,
1577742169.793917,40.000000,0.000000,4258.974121,4345.128418,4117.436035,4158.461426,4197.436035,0.000000,4.000000,,,,0.000000,4.000000,4.000000,4.000000,4.000000,4.000000,20.000000,0.000000,0.368292,0.211914,0.851807,0.306396,0.564950,-0.593271,0.573739,-1.376410,-50.804092,57.130169,,,,,,,,,,,,,,,,,,,,,,,,,
1577742169.801713,41.000000,0.000000,4243.077148,4314.871582,4102.563965,4146.153809,4182.051270,0.000000,4.000000,,,,0.000000,4.000000,4.000000,4.000000,4.000000,4.000000,,,,,,,,,,,,,,,,,,,,,,,,,,,,,,,,,,,,,
1577742169.809410,42.000000,0.000000,4255.384766,4322.563965,4112.820313,4157.948730,4185.128418,0.000000,4.000000,,,,0.000000,4.000000,4.000000,4.000000,4.000000,4.000000,21.000000,0.000000,0.368495,0.211914,0.851807,0.306152,0.585458,-0.591806,0.554208,-0.461169,-50.867805,55.544415,,,,,,,,,,,,,,,,,,,,,,,,,
1577742169.817206,43.000000,0.000000,4266.153809,4350.769043,4121.025879,4165.128418,4199.487305,0.000000,4.000000,,,,0.000000,4.000000,4.000000,4.000000,4.000000,4.000000,,,,,,,,,,,,,5.660631,3.817779,5.354290,2.911942,4.588525,0.778401,1.385414,1.155382,1.075464,2.385402,1.111868,2.963678,3.718833,2.021250,3.649475,1.542860,4.442539,4.798927,2.396255,4.826327,3.954221,4.687960,5.238900,2.272587,4.916295
1577742169.824903,44.000000,0.000000,4231.794922,4335.384766,4100.512695,4131.282227,4170.769043,0.000000,4.000000,,,,0.000000,4.000000,4.000000,4.000000,4.000000,4.000000,22.000000,0.000000,0.368495,0.211914,0.851807,0.306152,0.555184,-0.602060,0.561532,-0.773944,-50.865330,55.911694,,,,,,,,,,,,,,,,,,,,,,,,,
1577742169.832700,45.000000,0.000000,4215.897461,4316.922852,4102.051270,4126.666504,4151.282227,0.000000,4.000000,,,,0.000000,4.000000,4.000000,4.000000,4.000000,4.000000,,,,,,,,,,,,,,,,,,,,,,,,,,,,,,,,,,,,,
1577742169.840396,46.000000,0.000000,4246.153809,4341.025879,4127.179688,4160.512695,4187.179688,0.000000,4.000000,,,,0.000000,4.000000,4.000000,4.000000,4.000000,4.000000,23.000000,0.000000,0.368495,0.211914,0.851807,0.306152,0.553231,-0.595224,0.559091,-0.098396,-51.042549,56.062798,,,,,,,,,,,,,,,,,,,,,,,,,
1577742169.848193,47.000000,0.000000,4256.922852,4350.769043,4118.974121,4151.282227,4202.563965,0.000000,4.000000,,,,0.000000,4.000000,4.000000,4.000000,4.000000,4.000000,,,,,,,,,,,,,,,,,,,,,,,,,,,,,,,,,,,,,
1577742169.855889,48.000000,0.000000,4242.563965,4328.205078,4098.974121,4122.051270,4182.051270,0.000000,4.000000,,,,0.000000,4.000000,4.000000,4.000000,4.000000,4.000000,24.000000,0.000000,0.368292,0.211914,0.851807,0.306396,0.560555,-0.602060,0.553719,3.380735,-51.022602,56.318424,,,,,,,,,,,,,,,,,,,,,,,,,
1577742169.863686,49.000000,0.000000,4255.897461,4335.384766,4114.358887,4141.538574,4190.769043,0.000000,4.000000,,,,0.000000,4.000000,4.000000,4.000000,4.000000,4.000000,,,,,,,,,,,,,,,,,,,,,,,,,,,,,,,,,,,,,
1577742169.871383,50.000000,0.000000,4268.205078,4354.358887,4129.230957,4167.179688,4205.641113,0.000000,4.000000,,,,0.000000,4.000000,4.000000,4.000000,4.000000,4.000000,25.000000,0.000000,0.368292,0.211914,0.851807,0.306396,0.569345,-0.589364,0.570321,6.691399,-50.944832,56.668118,,,,,,,,,,,,,,,,,,,,,,,,,
1577742169.879179,51.000000,0.000000,4255.897461,4347.692383,4118.461426,4161.538574,4197.948730,0.000000,4.000000,,,,0.000000,4.000000,4.000000,4.000000,4.000000,4.000000,,,,,,,,,,,,,,,,,,,,,,,,,,,,,,,,,,,,,
1577742169.886876,52.000000,0.000000,4236.410156,4325.641113,4103.077148,4142.563965,4177.436035,0.000000,4.000000,,,,0.000000,4.000000,4.000000,4.000000,4.000000,4.000000,26.000000,0.000000,0.368856,0.211914,0.851563,0.306396,0.565438,-0.602060,0.562509,9.611180,-50.874840,57.042660,,,,,,,,,,,,,,,,,,,,,,,,,
1577742169.894672,53.000000,0.000000,4210.256348,4308.205078,4088.205078,4114.358887,4150.769043,0.000000,4.000000,,,,0.000000,4.000000,4.000000,4.000000,4.000000,4.000000,,,,,,,,,,,,,,,,,,,,,,,,,,,,,,,,,,,,,
1577742169.902369,54.000000,0.000000,4209.743652,4320.000000,4097.436035,4115.384766,4150.769043,0.000000,4.000000,,,,0.000000,4.000000,4.000000,4.000000,4.000000,4.000000,27.000000,0.000000,0.368856,0.211914,0.851563,0.306396,0.569833,-0.594736,0.569345,9.128586,-50.931477,57.140484,,,,,,,,,,,,,,,,,,,,,,,,,
1577742169.910165,55.000000,0.000000,4243.077148,4353.333496,4127.692383,4152.307617,4183.589844,0.000000,4.000000,,,,0.000000,4.000000,4.000000,4.000000,4.000000,4.000000,,,,,,,,,,,,,,,,,,,,,,,,,,,,,,,,,,,,,
1577742169.917862,56.000000,0.000000,4252.820313,4353.333496,4125.641113,4154.871582,4191.282227,0.000000,4.000000,,,,0.000000,4.000000,4.000000,4.000000,4.000000,4.000000,28.000000,0.000000,0.368856,0.211914,0.851563,0.306396,0.560067,-0.591318,0.559579,5.105328,-50.922634,55.314434,,,,,,,,,,,,,,,,,,,,,,,,,
1577742169.925659,57.000000,0.000000,4221.538574,4324.102539,4091.794922,4116.410156,4159.487305,0.000000,4.000000,,,,0.000000,4.000000,4.000000,4.000000,4.000000,4.000000,,,,,,,,,,,,,,,,,,,,,,,,,,,,,,,,,,,,,
1577742169.933355,58.000000,0.000000,4211.282227,4332.307617,4096.410156,4103.077148,4153.333496,0.000000,4.000000,,,,0.000000,4.000000,4.000000,4.000000,4.000000,4.000000,29.000000,0.000000,0.368432,0.211670,0.851807,0.306396,0.561044,-0.599619,0.569345,1.364765,-50.914677,55.704712,,,,,,,,,,,,,,,,,,,,,,,,,
1577742169.941052,59.000000,0.000000,4237.436035,4362.051270,4129.743652,4125.641113,4183.589844,0.000000,4.000000,,,,0.000000,4.000000,4.000000,4.000000,4.000000,4.000000,,,,,,,,,,,,,4.886822,3.454687,5.604317,2.924541,4.374368,0.635675,1.235840,1.123355,1.153003,2.336241,0.967338,2.126375,3.982662,1.966796,3.395734,1.229217,3.755851,4.724695,2.463184,4.607773,3.543178,4.033811,5.358174,2.479597,4.635224
1577742169.948848,60.000000,0.000000,4238.461426,4353.333496,4121.025879,4131.282227,4185.641113,0.000000,4.000000,,,,0.000000,4.000000,4.000000,4.000000,4.000000,4.000000,30.000000,0.000000,0.368229,0.211670,0.851807,0.306641,0.561044,-0.598154,0.572274,-1.941926,-51.027145,55.996147,,,,,,,,,,,,,,,,,,,,,,,,,
1577742169.956545,61.000000,0.000000,4230.256348,4343.077148,4115.384766,4133.846191,4178.974121,0.000000,4.000000,,,,0.000000,4.000000,4.000000,4.000000,4.000000,4.000000,,,,,,,,,,,,,,,,,,,,,,,,,,,,,,,,,,,,,
1577742169.964341,62.000000,0.000000,4247.179688,4355.897461,4143.077148,4156.410156,4200.000000,0.000000,4.000000,,,,0.000000,4.000000,4.000000,4.000000,4.000000,4.000000,31.000000,0.000000,0.368229,0.211670,0.851807,0.306641,0.555673,-0.599619,0.581552,-2.106625,-50.948921,56.258438,,,,,,,,,,,,,,,,,,,,,,,,,
1577742169.972038,63.000000,0.000000,4228.717773,4330.769043,4123.077148,4132.820313,4178.974121,0.000000,4.000000,,,,0.000000,4.000000,4.000000,4.000000,4.000000,4.000000,,,,,,,,,,,,,,,,,,,,,,,,,,,,,,,,,,,,,
1577742169.979834,64.000000,0.000000,4197.948730,4298.974121,4084.102539,4094.871826,4140.000000,450.000000,4.000000,,,,0.000000,4.000000,4.000000,4.000000,4.000000,4.000000,32.000000,0.000000,0.368229,0.211670,0.851807,0.306641,0.563973,-0.608408,0.578134,1.633144,-50.998154,56.554314,,,,,,,,,,,,,,,,,,,,,,,,,
1577742169.987531,65.000000,0.000000,4246.666504,4339.487305,4124.102539,4138.974121,4187.179688,450.000000,4.000000,,,,0.000000,4.000000,4.000000,4.000000,4.000000,4.000000,,,,,,,,,,,,,,,,,,,,,,,,,,,,,,,,,,,,,
1577742169.995328,66.000000,0.000000,4289.230957,4370.256348,4158.974121,4177.436035,4229.743652,16210.000000,4.000000,,,,0.000000,4.000000,4.000000,4.000000,4.000000,4.000000,33.000000,0.000000,0.368794,0.211670,0.851563,0.306641,0.573251,-0.600595,0.567391,2.067983,-50.982643,56.820606,,,,,,,,,,,,,,,,,,,,,,,,,
1577742170.003024,67.000000,0.000000,4258.974121,4340.000000,4125.641113,4150.769043,4195.897461,450.000000,4.000000,,,,0.000000,4.000000,4.000000,4.000000,4.000000,4.000000,,,,,,,,,,,,,,,,,,,,,,,,,,,,,,,,,,,,,
1577742170.010821,68.000000,0.000000,4259.487305,4334.871582,4127.692383,4149.230957,4194.358887,16248.000000,4.000000,,,,0.000000,4.000000,4.000000,4.000000,4.000000,4.000000,34.000000,0.000000,0.368229,0.211670,0.851807,0.306641,0.563973,-0.601572,0.578134,2.459338,-50.908871,56.880821,,,,,,,,,,,,,,,,,,,,,,,,,
1577742170.018517,69.000000,0.000000,4289.230957,4355.384766,4156.922852,4165.641113,4222.051270,450.000000,4.000000,,,,0.000000,4.000000,4.000000,4.000000,4.000000,4.000000,,,,,,,,,,,,,,,,,,,,,,,,,,,,,,,,,,,,,
1577742170.026314,70.000000,0.000000,4265.641113,4341.538574,4133.846191,4147.179688,4194.871582,16142.000000,4.000000,,,,0.000000,4.000000,4.000000,4.000000,4.000000,4.000000,35.000000,0.000000,0.368229,0.211670,0.851807,0.306641,0.570321,-0.597177,0.558602,-0.956810,-50.842472,57.234089,,,,,,,,,,,,,,,,,,,,,,,,,
1577742170.034010,71.000000,0.000000,4239.487305,4333.333496,4116.922852,4143.077148,4172.820313,450.000000,4.000000,,,,0.000000,4.000000,4.000000,4.000000,4.000000,4.000000,,,,,,,,,,,,,,,,,,,,,,,,,,,,,,,,,,,,,
1577742170.041807,72.000000,0.000000,4252.307617,4334.871582,4136.922852,4155.897461,4187.692383,450.000000,4.000000,,,,0.000000,4.000000,4.000000,4.000000,4.000000,4.000000,36.000000,0.000000,0.368229,0.211670,0.851807,0.306641,0.560555,-0.585946,0.558602,2.608162,-50.842533,55.458496,,,,,,,,,,,,,,,,,,,,,,,,,
1577742170.049504,73.000000,0.000000,4248.717773,4320.000000,4137.436035,4137.948730,4178.461426,16195.000000,4.000000,,,,0.000000,4.000000,4.000000,4.000000,4.000000,4.000000,,,,,,,,,,,,,,,,,,,,,,,,,,,,,,,,,,,,,
1577742170.057300,74.000000,0.000000,4240.512695,4328.717773,4127.692383,4135.897461,4166.153809,450.000000,4.000000,,,,0.000000,4.000000,4.000000,4.000000,4.000000,4.000000,37.000000,0.000000,0.368229,0.211670,0.851807,0.306641,0.563973,-0.601572,0.578134,2.048270,-50.782768,55.834366,,,,,,,,,,,,,,,,,,,,,,,,,
1577742170.064997,75.000000,0.000000,4244.102539,4347.692383,4125.128418,4141.538574,4168.717773,16213.000000,4.000000,,,,0.000000,4.000000,4.000000,4.000000,4.000000,4.000000,,,,,,,,,,,,,3.923806,3.161402,5.759473,3.099747,3.967209,0.533159,1.152903,1.095586,1.361295,2.222940,0.977105,1.465337,4.113276,2.036542,3.038649,0.981841,3.247743,4.603777,2.687702,4.201370,3.197352,3.548000,5.428679,2.862393,4.185422
1577742170.072793,76.000000,0.000000,4242.563965,4351.794922,4127.692383,4122.563965,4167.692383,450.000000,4.000000,,,,0.000000,4.000000,4.000000,4.000000,4.000000,4.000000,38.000000,0.000000,0.368229,0.211670,0.851807,0.306641,0.560555,-0.585946,0.558602,5.312734,-50.788799,54.198746,,,,,,,,,,,,,,,,,,,,,,,,,
1577742170.080490,77.000000,0.000000,4240.512695,4350.769043,4143.589844,4124.615234,4173.846191,450.000000,4.000000,,,,0.000000,4.000000,4.000000,4.000000,4.000000,4.000000,,,,,,,,,,,,,,,,,,,,,,,,,,,,,,,,,,,,,
1577742170.088286,78.000000,0.000000,4249.230957,4346.153809,4157.948730,4159.487305,4193.846191,450.000000,4.000000,,,,0.000000,4.000000,4.000000,4.000000,4.000000,4.000000,39.000000,0.000000,0.368370,0.211426,0.851807,0.306641,0.566903,-0.604013,0.559091,8.250751,-50.734409,54.580959,,,,,,,,,,,,,,,,,,,,,,,,,
1577742170.095983,79.000000,0.000000,4258.974121,4341.025879,4151.282227,4176.410156,4199.487305,16213.000000,4.000000,,,,0.000000,4.000000,4.000000,4.000000,4.000000,4.000000,,,,,,,,,,,,,,,,,,,,,,,,,,,,,,,,,,,,,
1577742170.103780,80.000000,0.000000,4253.846191,4346.666504,4141.538574,4158.461426,4190.769043,450.000000,4.000000,,,,0.000000,4.000000,4.000000,4.000000,4.000000,4.000000,40.000000,0.000000,0.368370,0.211426,0.851807,0.306641,0.566415,-0.597177,0.555673,10.894968,-50.805092,55.164215,,,,,,,,,,,,,,,,,,,,,,,,,
1577742170.111476,81.000000,0.000000,4248.205078,4345.128418,4148.205078,4153.333496,4196.922852,450.000000,4.000000,,,,0.000000,4.000000,4.000000,4.000000,4.000000,4.000000,,,,,,,,,,,,,,,,,,,,,,,,,,,,,,,,,,,,,
1577742170.119273,82.000000,0.000000,4257.948730,4327.179688,4154.871582,4162.051270,4211.282227,450.000000,4.000000,,,,0.000000,4.000000,4.000000,4.000000,4.000000,4.000000,41.000000,0.000000,0.368370,0.211426,0.851807,0.306641,0.560067,-0.595712,0.564950,10.523255,-50.868702,55.629330,,,,,,,,,,,,,,,,,,,,,,,,,
1577742170.126969,83.000000,0.000000,4273.333496,4329.230957,4155.384766,4162.051270,4214.871582,16213.000000,4.000000,,,,0.000000,4.000000,4.000000,4.000000,4.000000,4.000000,,,,,,,,,,,,,,,,,,,,,,,,,,,,,,,,,,,,,
1577742170.134666,84.000000,0.000000,4271.282227,4347.692383,4151.794922,4161.538574,4211.282227,450.000000,4.000000,,,,0.000000,4.000000,4.000000,4.000000,4.000000,4.000000,42.000000,0.000000,0.368370,0.211426,0.851807,0.306641,0.577157,-0.598642,0.564462,10.069083,-50.806324,55.928303,,,,,,,,,,,,,,,,,,,,,,,,,
1577742170.142462,85.000000,0.000000,4241.538574,4345.128418,4134.871582,4140.000000,4191.794922,450.000000,4.000000,,,,0.000000,4.000000,4.000000,4.000000,4.000000,4.000000,,,,,,,,,,,,,,,,,,,,,,,,,,,,,,,,,,,,,
1577742170.150259,86.000000,0.000000,4223.589844,4328.717773,4125.641113,4115.897461,4172.307617,450.000000,4.000000,,,,0.000000,4.000000,4.000000,4.000000,4.000000,4.000000,43.000000,0.000000,0.368370,0.211426,0.851807,0.306641,0.562509,-0.602060,0.561532,12.531466,-50.869812,54.343102,,,,,,,,,,,,,,,,,,,,,,,,,
1577742170.157955,87.000000,0.000000,4244.102539,4337.436035,4150.256348,4143.077148,4188.205078,16213.000000,4.000000,,,,0.000000,4.000000,4.000000,4.000000,4.000000,4.000000,,,,,,,,,,,,,,,,,,,,,,,,,,,,,,,,,,,,,
1577742170.165752,88.000000,0.000000,4268.717773,4347.692383,4176.410156,4190.769043,4217.436035,450.000000,4.000000,,,,0.000000,4.000000,4.000000,4.000000,4.000000,4.000000,44.000000,0.000000,0.368370,0.211426,0.851807,0.306641,0.568856,-0.591318,0.558602,14.747611,-50.926952,54.950146,,,,,,,,,,,,,,,,,,,,,,,,,
1577742170.173448,89.000000,0.000000,4274.871582,4341.025879,4173.333496,4195.384766,4222.563965,450.000000,4.000000,,,,0.000000,4.000000,4.000000,4.000000,4.000000,4.000000,,,,,,,,,,,,,,,,,,,,,,,,,,,,,,,,,,,,,
1577742170.181145,90.000000,0.000000,4268.205078,4353.333496,4150.256348,4167.692383,4211.794922,450.000000,4.000000,,,,0.000000,4.000000,4.000000,4.000000,4.000000,4.000000,45.000000,0.000000,0.368934,0.211426,0.851563,0.306641,0.563973,-0.587411,0.562509,16.682325,-50.978378,55.317036,,,,,,,,,,,,,,,,,,,,,,,,,
1577742170.188941,91.000000,0.000000,4245.641113,4352.820313,4128.717773,4142.051270,4189.230957,16213.000000,4.000000,,,,0.000000,4.000000,4.000000,4.000000,4.000000,4.000000,,,,,,,,,,,,,2.843954,2.947184,5.641489,3.387790,3.451953,0.490197,1.129019,1.082804,1.673702,2.071310,1.091627,1.064750,3.975765,2.197704,2.634139,0.875756,3.005168,4.406207,3.044929,3.695479,2.955960,3.277015,5.332581,3.352774,3.658176
1577742170.196638,92.000000,0.000000,4235.384766,4326.153809,4132.307617,4132.820313,4182.051270,450.000000,4.000000,,,,0.000000,4.000000,4.000000,4.000000,4.000000,4.000000,46.000000,0.000000,0.368934,0.211426,0.851563,0.306641,0.560555,-0.591318,0.564950,18.662830,-51.084476,55.527607,,,,,,,,,,,,,,,,,,,,,,,,,
1577742170.204434,93.000000,0.000000,4247.179688,4328.205078,4142.563965,4142.051270,4199.487305,450.000000,4.000000,,,,0.000000,4.000000,4.000000,4.000000,4.000000,4.000000,,,,,,,,,,,,,,,,,,,,,,,,,,,,,,,,,,,,,
1577742170.212131,94.000000,0.000000,4243.077148,4334.871582,4133.333496,4133.846191,4197.948730,450.000000,4.000000,,,,0.000000,4.000000,4.000000,4.000000,4.000000,4.000000,47.000000,0.000000,0.368934,0.211426,0.851563,0.306641,0.560067,-0.589853,0.573251,17.334887,-51.000519,56.076015,,,,,,,,,,,,,,,,,,,,,,,,,
1577742170.219927,95.000000,0.000000,4221.025879,4310.769043,4127.692383,4112.820313,4171.794922,16213.000000,4.000000,,,,0.000000,4.000000,4.000000,4.000000,4.000000,4.000000,,,,,,,,,,,,,,,,,,,,,,,,,,,,,,,,,,,,,
1577742170.227624,96.000000,0.000000,4227.692383,4316.410156,4147.179688,4132.307617,4176.410156,450.000000,4.000000,,,,0.000000,4.000000,4.000000,4.000000,4.000000,4.000000,48.000000,0.000000,0.368934,0.211426,0.851563,0.306641,0.575204,-0.587411,0.571298,16.319181,-50.984776,56.330318,,,,,,,,,,,,,,,,,,,,,,,,,
1577742170.235421,97.000000,0.000000,4253.333496,4360.512695,4162.563965,4167.692383,4202.563965,450.000000,4.000000,,,,0.000000,4.000000,4.000000,4.000000,4.000000,4.000000,,,,,,,,,,,,,,,,,,,,,,,,,,,,,,,,,,,,,
1577742170.243117,98.000000,0.000000,4255.897461,4371.282227,4157.436035,4166.153809,4204.102539,450.000000,4.000000,,,,0.000000,4.000000,4.000000,4.000000,4.000000,4.000000,49.000000,0.000000,0.368731,0.211426,0.851563,0.306885,0.566415,-0.587900,0.571786,11.517049,-51.090233,56.619007,,,,,,,,,,,,,,,,,,,,,,,,,
1577742170.250814,99.000000,0.000000,4247.179688,4349.230957,4151.794922,4148.205078,4193.333496,16213.000000,4.000000,,,,0.000000,4.000000,4.000000,4.000000,4.000000,4.000000,,,,,,,,,,,,,,,,,,,,,,,,,,,,,,,,,,,,,
1577742170.258610,100.000000,0.000000,4247.692383,4337.948730,4151.282227,4145.641113,4192.307617,450.000000,4.000000,,,,0.000000,4.000000,4.000000,4.000000,4.000000,4.000000,50.000000,0.000000,0.368731,0.211426,0.851563,0.306885,0.559091,-0.596689,0.561044,11.142943,-51.065517,56.878830,,,,,,,,,,,,,,,,,,,,,,,,,
1577742170.266407,101.000000,0.000000,4241.025879,4340.512695,4146.153809,4140.512695,4186.666504,450.000000,4.000000,,,,0.000000,4.000000,4.000000,4.000000,4.000000,4.000000,,,,,,,,,,,,,,,,,,,,,,,,,,,,,,,,,,,,,
1577742170.274103,102.000000,0.000000,4226.153809,4341.538574,4143.589844,4129.230957,4176.410156,450.000000,4.000000,,,,0.000000,4.000000,4.000000,4.000000,4.000000,4.000000,51.000000,0.000000,0.368731,0.211426,0.851563,0.306885,0.558602,-0.597177,0.569345,10.746434,-51.162903,57.112667,,,,,,,,,,,,,,,,,,,,,,,,,
1577742170.281900,103.000000,0.000000,4241.025879,4342.563965,4158.974121,4145.641113,4191.282227,16213.000000,4.000000,,,,0.000000,4.000000,4.000000,4.000000,4.000000,4.000000,,,,,,,,,,,,,,,,,,,,,,,,,,,,,,,,,,,,,
1577742170.289597,104.000000,0.000000,4254.871582,4331.794922,4153.333496,4160.000000,4196.410156,450.000000,4.000000,,,,0.000000,4.000000,4.000000,4.000000,4.000000,4.000000,52.000000,0.000000,0.368590,0.211670,0.851563,0.306885,0.563485,-0.599130,0.560067,10.329760,-51.190735,57.323120,,,,,,,,,,,,,,,,,,,,,,,,,
1577742170.297393,105.000000,0.000000,4231.794922,4330.256348,4127.179688,4141.538574,4167.692383,450.000000,4.000000,,,,0.000000,4.000000,4.000000,4.000000,4.000000,4.000000,,,,,,,,,,,,,,,,,,,,,,,,,,,,,,,,,,,,,
1577742170.305090,106.000000,0.000000,4217.436035,4346.153809,4126.666504,4122.051270,4152.307617,450.000000,4.000000,,,,0.000000,4.000000,4.000000,4.000000,4.000000,4.000000,53.000000,0.000000,0.368590,0.211670,0.851563,0.306885,0.563973,-0.598154,0.569345,12.825891,-51.096149,57.452717,,,,,,,,,,,,,,,,,,,,,,,,,
1577742170.312886,107.000000,0.000000,4208.717773,4345.641113,4126.666504,4104.615234,4142.563965,16213.000000,4.000000,,,,0.000000,4.000000,4.000000,4.000000,4.000000,4.000000,,,,,,,,,,,,,1.920061,2.799700,5.183719,3.680195,2.937397,0.495400,1.133452,1.107646,2.018852,1.941960,1.226820,0.890576,3.520201,2.380446,2.254260,0.930939,3.004014,4.125793,3.451725,3.194510,2.893268,3.165609,4.998142,3.830372,3.154661
1577742170.320583,108.000000,0.000000,4197.948730,4332.820313,4126.666504,4099.487305,4133.846191,450.000000,4.000000,,,,0.000000,4.000000,4.000000,4.000000,4.000000,4.000000,54.000000,0.000000,0.368731,0.211426,0.851563,0.306885,0.559579,-0.597177,0.554696,12.201270,-51.070843,57.449718,,,,,,,,,,,,,,,,,,,,,,,,,
1577742170.328379,109.000000,0.000000,4223.077148,4332.820313,4154.871582,4139.487305,4166.153809,450.000000,4.000000,,,,0.000000,4.000000,4.000000,4.000000,4.000000,4.000000,,,,,,,,,,,,,,,,,,,,,,,,,,,,,,,,,,,,,
1577742170.336075,110.000000,0.000000,4244.615234,4342.051270,4166.153809,4174.871582,4190.769043,450.000000,4.000000,,,,0.000000,4.000000,4.000000,4.000000,4.000000,4.000000,55.000000,0.000000,0.368731,0.211426,0.851563,0.306885,0.560555,-0.602060,0.565927,7.810929,-51.167694,57.626469,,,,,,,,,,,,,,,,,,,,,,,,,
1577742170.343872,111.000000,0.000000,4221.538574,4347.179688,4146.666504,4152.307617,4167.692383,16213.000000,4.000000,,,,0.000000,4.000000,4.000000,4.000000,4.000000,4.000000,,,,,,,,,,,,,,,,,,,,,,,,,,,,,,,,,,,,,
1577742170.351568,112.000000,0.000000,4214.871582,4351.794922,4148.205078,4132.820313,4166.153809,450.000000,4.000000,,,,0.000000,4.000000,4.000000,4.000000,4.000000,4.000000,56.000000,0.000000,0.368731,0.211426,0.851563,0.306885,0.568856,-0.589364,0.558602,7.627989,-51.135231,57.845356,,,,,,,,,,,,,,,,,,,,,,,,,
1577742170.359364,113.000000,0.000000,4241.025879,4350.256348,4161.025879,4153.333496,4192.307617,450.000000,4.000000,,,,0.000000,4.000000,4.000000,4.000000,4.000000,4.000000,,,,,,,,,,,,,,,,,,,,,,,,,,,,,,,,,,,,,
1577742170.367061,114.000000,0.000000,4238.461426,4344.615234,4155.897461,4158.974121,4187.179688,450.000000,4.000000,,,,0.000000,4.000000,4.000000,4.000000,4.000000,4.000000,57.000000,0.000000,0.368527,0.211426,0.851563,0.307129,0.562020,-0.586435,0.565927,10.394297,-51.046200,55.948822,,,,,,,,,,,,,,,,,,,,,,,,,
1577742170.374757,115.000000,0.000000,4227.692383,4347.692383,4157.948730,4147.692383,4181.025879,16213.000000,4.000000,,,,0.000000,4.000000,4.000000,4.000000,4.000000,4.000000,,,,,,,,,,,,,,,,,,,,,,,,,,,,,,,,,,,,,
1577742170.382554,116.000000,0.000000,4234.871582,4335.897461,4163.077148,4145.641113,4192.820313,450.000000,4.000000,,,,0.000000,4.000000,4.000000,4.000000,4.000000,4.000000,58.000000,0.000000,0.369091,0.211426,0.851318,0.307129,0.568856,-0.586435,0.560067,12.824159,-51.085701,56.335476,,,,,,,,,,,,,,,,,,,,,,,,,
1577742170.390250,117.000000,0.000000,4227.692383,4324.615234,4147.692383,4141.538574,4180.512695,450.000000,4.000000,,,,0.000000,4.000000,4.000000,4.000000,4.000000,4.000000,,,,,,,,,,,,,,,,,,,,,,,,,,,,,,,,,,,,,
1577742170.398047,118.000000,0.000000,4206.153809,4339.487305,4129.230957,4125.128418,4159.487305,450.000000,4.000000,,,,0.000000,4.000000,4.000000,4.000000,4.000000,4.000000,59.000000,0.000000,0.369027,0.211182,0.851318,0.307373,0.567880,-0.604501,0.566903,15.011034,-51.001621,56.444202,,,,,,,,,,,,,,,,,,,,,,,,,
1577742170.405744,119.000000,0.000000,4189.230957,4342.563965,4111.794922,4102.051270,4147.179688,16213.000000,4.000000,,,,0.000000,4.000000,4.000000,4.000000,4.000000,4.000000,,,,,,,,,,,,,,,,,,,,,,,,,,,,,,,,,,,,,
1577742170.413540,120.000000,0.000000,4188.205078,4327.179688,4103.077148,4094.358887,4140.512695,450.000000,4.000000,,,,0.000000,4.000000,4.000000,4.000000,4.000000,4.000000,60.000000,0.000000,0.369027,0.211182,0.851318,0.307373,0.572274,-0.596201,0.564950,14.108085,-50.985764,56.721504,,,,,,,,,,,,,,,,,,,,,,,,,
1577742170.421237,121.000000,0.000000,4209.743652,4339.487305,4126.153809,4118.461426,4155.897461,450.000000,4.000000,,,,0.000000,4.000000,4.000000,4.000000,4.000000,4.000000,,,,,,,,,,,,,,,,,,,,,,,,,,,,,,,,,,,,,
1577742170.429033,122.000000,0.000000,4229.743652,4360.512695,4153.846191,4141.538574,4180.512695,450.000000,4.000000,,,,0.000000,4.000000,4.000000,4.000000,4.000000,4.000000,61.000000,0.000000,0.369027,0.211182,0.851318,0.307373,0.574228,-0.594247,0.563485,13.295429,-50.911678,56.971073,,,,,,,,,,,,,,,,,,,,,,,,,
1577742170.436730,123.000000,0.000000,4244.615234,4355.384766,4164.615234,4152.820313,4201.025879,16213.000000,4.000000,,,,0.000000,4.000000,4.000000,4.000000,4.000000,4.000000,,,,,,,,,,,,,1.442021,2.710892,4.517369,3.868664,2.516266,0.512622,1.139849,1.204816,2.300267,1.880621,1.286756,0.836754,2.861284,2.514195,1.961770,1.117735,3.121959,3.853453,3.812397,2.781972,3.061916,3.119710,4.503997,4.172690,2.747347
1577742170.444526,124.000000,0.000000,4249.743652,4342.051270,4165.641113,4161.025879,4206.153809,450.000000,4.000000,,,,0.000000,4.000000,4.000000,4.000000,4.000000,4.000000,62.000000,0.000000,0.369027,0.211182,0.851318,0.307373,0.558114,-0.601572,0.560555,11.786441,-50.964634,57.255505,,,,,,,,,,,,,,,,,,,,,,,,,
1577742170.452223,125.000000,0.000000,4220.000000,4322.051270,4146.666504,4140.000000,4176.410156,450.000000,4.000000,,,,0.000000,4.000000,4.000000,4.000000,4.000000,4.000000,,,,,,,,,,,,,,,,,,,,,,,,,,,,,,,,,,,,,
1577742170.460020,126.000000,0.000000,4193.333496,4318.461426,4130.256348,4111.794922,4153.333496,450.000000,4.000000,,,,0.000000,4.000000,4.000000,4.000000,4.000000,4.000000,63.000000,0.000000,0.368684,0.211426,0.851318,0.307617,0.556649,-0.585946,0.567880,14.077087,-51.012291,57.451675,,,,,,,,,,,,,,,,,,,,,,,,,
1577742170.467716,127.000000,0.000000,4214.358887,4349.230957,4151.282227,4130.256348,4177.948730,236.000000,4.000000,,,,0.000000,4.000000,4.000000,4.000000,4.000000,4.000000,,,,,,,,,,,,,,,,,,,,,,,,,,,,,,,,,,,,,
1577742170.475513,0.000000,0.000000,4227.179688,4345.128418,4164.615234,4146.153809,4191.282227,450.000000,4.000000,,,,0.000000,4.000000,4.000000,4.000000,4.000000,4.000000,0.000000,0.000000,0.368544,0.211670,0.851318,0.307617,0.565927,-0.594736,0.573251,13.387163,-50.995369,57.568413,,,,,,,,,,,,,,,,,,,,,,,,,
1577742170.483209,1.000000,0.000000,4195.384766,4311.794922,4137.948730,4115.897461,4160.000000,450.000000,4.000000,,,,0.000000,4.000000,4.000000,4.000000,4.000000,4.000000,,,,,,,,,,,,,,,,,,,,,,,,,,,,,,,,,,,,,
1577742170.490906,2.000000,0.000000,4181.025879,4322.051270,4128.717773,4105.128418,4147.692383,16219.000000,4.000000,,,,0.000000,4.000000,4.000000,4.000000,4.000000,4.000000,1.000000,0.000000,0.369027,0.211182,0.851318,0.307373,0.558114,-0.601572,0.560555,15.577554,-50.920322,57.852924,,,,,,,,,,,,,,,,,,,,,,,,,
1577742170.498703,3.000000,0.000000,4192.820313,4346.153809,4141.538574,4118.461426,4161.538574,450.000000,4.000000,,,,0.000000,4.000000,4.000000,4.000000,4.000000,4.000000,,,,,,,,,,,,,,,,,,,,,,,,,,,,,,,,,,,,,
1577742170.506499,4.000000,0.000000,4189.743652,4343.077148,4140.000000,4111.282227,4160.512695,16241.000000,4.000000,,,,0.000000,4.000000,4.000000,4.000000,4.000000,4.000000,2.000000,0.000000,0.368544,0.211670,0.851318,0.307617,0.565927,-0.594736,0.573251,14.737582,-50.912594,57.929539,,,,,,,,,,,,,,,,,,,,,,,,,
1577742170.514195,5.000000,0.000000,4197.436035,4348.717773,4145.641113,4119.487305,4163.589844,450.000000,4.000000,,,,0.000000,4.000000,4.000000,4.000000,4.000000,4.000000,,,,,,,,,,,,,,,,,,,,,,,,,,,,,,,,,,,,,
1577742170.521892,6.000000,0.000000,4229.743652,4366.666504,4166.666504,4156.410156,4186.153809,16137.000000,4.000000,,,,0.000000,4.000000,4.000000,4.000000,4.000000,4.000000,3.000000,0.000000,0.368340,0.211670,0.851318,0.307861,0.554696,-0.591806,0.572763,16.733116,-50.845825,58.118118,,,,,,,,,,,,,,,,,,,,,,,,,
1577742170.529689,7.000000,0.000000,4233.846191,4347.179688,4165.641113,4158.461426,4192.307617,450.000000,4.000000,,,,0.000000,4.000000,4.000000,4.000000,4.000000,4.000000,,,,,,,,,,,,,,,,,,,,,,,,,,,,,,,,,,,,,
1577742170.537385,8.000000,0.000000,4224.615234,4330.769043,4159.487305,4142.051270,4189.230957,450.000000,4.000000,,,,0.000000,4.000000,4.000000,4.000000,4.000000,4.000000,4.000000,0.000000,0.368340,0.211670,0.851318,0.307861,0.554696,-0.596689,0.576181,18.529095,-50.905365,58.228027,,,,,,,,,,,,,,,,,,,,,,,,,
1577742170.545182,9.000000,0.000000,4226.153809,4348.205078,4156.922852,4143.077148,4187.179688,16193.000000,4.000000,,,,0.000000,4.000000,4.000000,4.000000,4.000000,4.000000,,,,,,,,,,,,,,,,,,,,,,,,,,,,,,,,,,,,,
1577742170.552878,10.000000,0.000000,4203.077148,4351.794922,4140.000000,4128.717773,4169.743652,450.000000,4.000000,,,,0.000000,4.000000,4.000000,4.000000,4.000000,4.000000,5.000000,0.000000,0.368763,0.211914,0.851074,0.307861,0.544930,-0.593759,0.566415,13.505971,-50.839321,58.326946,,,,,,,,,,,,,,,,,,,,,,,,,
1577742170.560675,11.000000,0.000000,4164.615234,4336.922852,4126.153809,4105.128418,4149.230957,16211.000000,4.000000,,,,0.000000,4.000000,4.000000,4.000000,4.000000,4.000000,,,,,,,,,,,,,1.473608,2.688702,3.849975,3.884433,2.239855,0.513930,1.155556,1.386004,2.448055,1.893792,1.265209,0.856583,2.195854,2.553848,1.791888,1.369757,3.286299,3.703315,4.072888,2.508508,3.447963,3.138196,3.984136,4.295387,2.469862
1577742170.568372,12.000000,0.000000,4163.589844,4341.538574,4129.230957,4105.128418,4154.358887,450.000000,4.000000,,,,0.000000,4.000000,4.000000,4.000000,4.000000,4.000000,6.000000,0.000000,0.368560,0.211914,0.851074,0.308105,0.563485,-0.604501,0.572274,12.753528,-50.899509,58.535606,,,,,,,,,,,,,,,,,,,,,,,,,
1577742170.576168,13.000000,0.000000,4185.128418,4355.897461,4138.974121,4121.538574,4178.974121,450.000000,4.000000,,,,0.000000,4.000000,4.000000,4.000000,4.000000,4.000000,,,,,,,,,,,,,,,,,,,,,,,,,,,,,,,,,,,,,
1577742170.583865,14.000000,0.000000,4172.307617,4354.358887,4132.307617,4117.436035,4177.948730,450.000000,4.000000,,,,0.000000,4.000000,4.000000,4.000000,4.000000,4.000000,7.000000,0.000000,0.368560,0.211914,0.851074,0.308105,0.561044,-0.585458,0.564462,12.016513,-50.893864,58.663582,,,,,,,,,,,,,,,,,,,,,,,,,
1577742170.591661,15.000000,0.000000,4156.410156,4354.358887,4130.769043,4104.102539,4171.282227,16211.000000,4.000000,,,,0.000000,4.000000,4.000000,4.000000,4.000000,4.000000,,,,,,,,,,,,,,,,,,,,,,,,,,,,,,,,,,,,,
1577742170.599358,16.000000,0.000000,4177.436035,4349.230957,4150.769043,4122.563965,4195.897461,0.000000,4.000000,,,,0.000000,4.000000,4.000000,4.000000,4.000000,4.000000,8.000000,0.000000,0.368355,0.211914,0.851074,0.308350,0.551278,-0.597177,0.555673,11.472831,-51.008415,58.659130,,,,,,,,,,,,,,,,,,,,,,,,,
1577742170.607154,17.000000,0.000000,4195.897461,4329.230957,4158.461426,4143.077148,4213.846191,0.000000,4.000000,,,,0.000000,4.000000,4.000000,4.000000,4.000000,4.000000,,,,,,,,,,,,,,,,,,,,,,,,,,,,,,,,,,,,,
1577742170.614851,18.000000,0.000000,4172.820313,4337.948730,4143.589844,4127.179688,4190.769043,0.000000,4.000000,,,,0.000000,4.000000,4.000000,4.000000,4.000000,4.000000,9.000000,0.000000,0.368715,0.211914,0.850830,0.308594,0.572274,-0.599130,0.569833,13.974285,-51.051693,58.655121,,,,,,,,,,,,,,,,,,,,,,,,,
1577742170.622648,19.000000,0.000000,4148.717773,4358.461426,4143.077148,4111.282227,4170.769043,0.000000,4.000000,,,,0.000000,4.000000,4.000000,4.000000,4.000000,4.000000,,,,,,,,,,,,,,,,,,,,,,,,,,,,,,,,,,,,,
1577742170.630344,20.000000,0.000000,4173.846191,4349.230957,4157.436035,4125.641113,4192.307617,0.000000,4.000000,,,,0.000000,4.000000,4.000000,4.000000,4.000000,4.000000,10.000000,0.000000,0.368510,0.211914,0.850830,0.308838,0.572763,-0.589364,0.565438,16.165779,-50.911201,58.711330,,,,,,,,,,,,,,,,,,,,,,,,,
1577742170.638141,21.000000,0.000000,4191.282227,4340.000000,4147.179688,4118.974121,4203.077148,0.000000,4.000000,,,,0.000000,4.000000,4.000000,4.000000,4.000000,4.000000,,,,,,,,,,,,,,,,,,,,,,,,,,,,,,,,,,,,,
1577742170.645837,22.000000,0.000000,4167.692383,4355.897461,4132.820313,4093.333252,4184.615234,0.000000,4.000000,,,,0.000000,4.000000,4.000000,4.000000,4.000000,4.000000,11.000000,0.000000,0.368305,0.211914,0.850830,0.309082,0.565438,-0.599619,0.542977,15.266985,-50.964203,58.761917,,,,,,,,,,,,,,,,,,,,,,,,,
1577742170.653634,23.000000,0.000000,4148.717773,4356.922852,4133.846191,4079.487061,4164.102539,0.000000,4.000000,,,,0.000000,4.000000,4.000000,4.000000,4.000000,4.000000,,,,,,,,,,,,,,,,,,,,,,,,,,,,,,,,,,,,,
1577742170.661331,24.000000,0.000000,4160.000000,4345.128418,4138.461426,4078.461426,4165.641113,0.000000,4.000000,,,,0.000000,4.000000,4.000000,4.000000,4.000000,4.000000,12.000000,0.000000,0.368100,0.211914,0.850830,0.309326,0.548837,-0.605966,0.565927,10.689703,-51.011902,58.747631,,,,,,,,,,,,,,,,,,,,,,,,,
1577742170.669127,25.000000,0.000000,4180.000000,4342.563965,4155.384766,4097.436035,4194.358887,0.000000,4.000000,,,,0.000000,4.000000,4.000000,4.000000,4.000000,4.000000,,,,,,,,,,,,,,,,,,,,,,,,,,,,,,,,,,,,,
1577742170.676824,26.000000,0.000000,4215.897461,4349.230957,4188.717773,4144.615234,4240.000000,0.000000,4.000000,,,,0.000000,4.000000,4.000000,4.000000,4.000000,4.000000,13.000000,0.000000,0.368100,0.211914,0.850830,0.309326,0.569345,-0.604013,0.552254,6.510334,-51.114651,58.794590,,,,,,,,,,,,,,,,,,,,,,,,,
1577742170.684520,27.000000,0.000000,4254.871582,4363.077148,4210.256348,4180.512695,4276.410156,0.000000,4.000000,,,,0.000000,4.000000,4.000000,4.000000,4.000000,4.000000,,,,,,,,,,,,,1.853116,2.808842,3.367792,3.736322,2.094211,0.481985,1.206656,1.632677,2.439396,1.941149,1.203763,1.022867,1.692938,2.507091,1.725629,1.603765,3.565629,3.724056,4.239970,2.363431,3.890170,3.355016,3.552945,4.193479,2.301976
1577742170.692317,28.000000,0.000000,4235.384766,4361.538574,4190.256348,4157.436035,4262.563965,0.000000,4.000000,,,,0.000000,4.000000,4.000000,4.000000,4.000000,4.000000,14.000000,0.000000,0.368241,0.211670,0.850830,0.309326,0.561532,-0.610849,0.568368,5.679854,-51.027676,58.836853,,,,,,,,,,,,,,,,,,,,,,,,,
1577742170.700113,29.000000,0.000000,4191.794922,4336.410156,4158.974121,4105.641113,4223.589844,0.000000,4.000000,,,,0.000000,4.000000,4.000000,4.000000,4.000000,4.000000,,,,,,,,,,,,,,,,,,,,,,,,,,,,,,,,,,,,,
1577742170.707810,30.000000,0.000000,4201.025879,4339.487305,4165.641113,4090.769287,4227.692383,0.000000,4.000000,,,,0.000000,4.000000,4.000000,4.000000,4.000000,4.000000,15.000000,0.000000,0.368241,0.211670,0.850830,0.309326,0.555184,-0.604501,0.562997,8.820421,-51.069031,58.815075,,,,,,,,,,,,,,,,,,,,,,,,,
1577742170.715606,31.000000,0.000000,4241.025879,4377.948730,4194.358887,4123.077148,4267.179688,0.000000,4.000000,,,,0.000000,4.000000,4.000000,4.000000,4.000000,4.000000,,,,,,,,,,,,,,,,,,,,,,,,,,,,,,,,,,,,,
1577742170.723303,32.000000,0.000000,4229.230957,4367.692383,4188.717773,4130.256348,4266.666504,0.000000,4.000000,,,,0.000000,4.000000,4.000000,4.000000,4.000000,4.000000,16.000000,0.000000,0.368241,0.211670,0.850830,0.309326,0.558114,-0.610849,0.572274,8.656164,-51.046432,58.855286,,,,,,,,,,,,,,,,,,,,,,,,,
1577742170.731099,33.000000,0.000000,4192.307617,4328.717773,4158.461426,4097.948730,4236.410156,0.000000,4.000000,,,,0.000000,4.000000,4.000000,4.000000,4.000000,4.000000,,,,,,,,,,,,,,,,,,,,,,,,,,,,,,,,,,,,,
1577742170.738796,34.000000,0.000000,4204.102539,4345.128418,4163.589844,4100.512695,4245.641113,0.000000,4.000000,,,,0.000000,4.000000,4.000000,4.000000,4.000000,4.000000,17.000000,0.000000,0.368241,0.211670,0.850830,0.309326,0.567880,-0.606943,0.557137,4.680148,-51.085911,58.891479,,,,,,,,,,,,,,,,,,,,,,,,,
1577742170.746493,35.000000,0.000000,4235.384766,4378.974121,4184.615234,4138.461426,4270.769043,0.000000,4.000000,,,,0.000000,4.000000,4.000000,4.000000,4.000000,4.000000,,,,,,,,,,,,,,,,,,,,,,,,,,,,,,,,,,,,,
1577742170.754290,36.000000,0.000000,4235.384766,4371.282227,4173.846191,4150.769043,4269.743652,0.000000,4.000000,,,,0.000000,4.000000,4.000000,4.000000,4.000000,4.000000,18.000000,0.000000,0.368036,0.211670,0.850830,0.309570,0.555184,-0.607919,0.557137,4.989733,-51.001812,58.864239,,,,,,,,,,,,,,,,,,,,,,,,,
1577742170.762086,37.000000,0.000000,4222.051270,4345.128418,4150.256348,4129.743652,4256.410156,0.000000,4.000000,,,,0.000000,4.000000,4.000000,4.000000,4.000000,4.000000,,,,,,,,,,,,,,,,,,,,,,,,,,,,,,,,,,,,,
1577742170.769883,38.000000,0.000000,4230.769043,4349.230957,4157.948730,4129.743652,4257.948730,0.000000,4.000000,,,,0.000000,4.000000,4.000000,4.000000,4.000000,4.000000,19.000000,0.000000,0.368740,0.211426,0.850586,0.309570,0.556649,-0.600107,0.562997,5.208544,-50.985935,58.899536,,,,,,,,,,,,,,,,,,,,,,,,,
1577742170.777580,39.000000,0.000000,4244.102539,4353.846191,4175.384766,4146.666504,4263.589844,0.000000,4.000000,,,,0.000000,4.000000,4.000000,4.000000,4.000000,4.000000,,,,,,,,,,,,,,,,,,,,,,,,,,,,,,,,,,,,,
1577742170.785276,40.000000,0.000000,4233.333496,4342.563965,4168.717773,4136.922852,4250.769043,0.000000,4.000000,,,,0.000000,4.000000,4.000000,4.000000,4.000000,4.000000,20.000000,0.000000,0.368176,0.211426,0.850830,0.309570,0.561532,-0.604501,0.569833,8.216797,-51.151093,58.871487,,,,,,,,,,,,,,,,,,,,,,,,,
1577742170.793073,41.000000,0.000000,4220.000000,4348.205078,4168.205078,4121.025879,4240.512695,0.000000,4.000000,,,,0.000000,4.000000,4.000000,4.000000,4.000000,4.000000,,,,,,,,,,,,,,,,,,,,,,,,,,,,,,,,,,,,,
1577742170.800870,42.000000,0.000000,4210.769043,4362.051270,4172.820313,4113.333496,4236.410156,0.000000,4.000000,,,,0.000000,4.000000,4.000000,4.000000,4.000000,4.000000,21.000000,0.000000,0.368740,0.211426,0.850586,0.309570,0.567391,-0.604990,0.554208,8.172716,-51.000660,58.965874,,,,,,,,,,,,,,,,,,,,,,,,,
1577742170.808566,43.000000,0.000000,4197.436035,4350.769043,4158.461426,4092.307617,4223.589844,0.000000,4.000000,,,,0.000000,4.000000,4.000000,4.000000,4.000000,4.000000,,,,,,,,,,,,,2.360280,3.192979,3.176250,3.500206,2.020949,0.433294,1.306281,1.901766,2.296093,1.964901,1.140502,1.449011,1.456115,2.430111,1.701645,1.782496,4.100427,3.918607,4.351581,2.293182,4.247649,3.909518,3.319933,3.943055,2.188509
1577742170.816363,44.000000,0.000000,4208.717773,4337.948730,4168.205078,4100.512695,4235.897461,0.000000,4.000000,,,,0.000000,4.000000,4.000000,4.000000,4.000000,4.000000,22.000000,0.000000,0.368740,0.211426,0.850586,0.309570,0.562509,-0.591806,0.564950,4.125415,-50.984901,57.076916,,,,,,,,,,,,,,,,,,,,,,,,,
1577742170.824059,45.000000,0.000000,4244.102539,4350.256348,4204.615234,4150.256348,4270.769043,0.000000,4.000000,,,,0.000000,4.000000,4.000000,4.000000,4.000000,4.000000,,,,,,,,,,,,,,,,,,,,,,,,,,,,,,,,,,,,,
1577742170.831856,46.000000,0.000000,4247.692383,4361.025879,4203.589844,4154.358887,4273.333496,0.000000,4.000000,,,,0.000000,4.000000,4.000000,4.000000,4.000000,4.000000,23.000000,0.000000,0.368740,0.211426,0.850586,0.309570,0.567880,-0.598154,0.554696,4.370842,-50.970715,57.290947,,,,,,,,,,,,,,,,,,,,,,,,,
1577742170.839552,47.000000,0.000000,4224.102539,4365.641113,4177.948730,4128.717773,4254.358887,0.000000,4.000000,,,,0.000000,4.000000,4.000000,4.000000,4.000000,4.000000,,,,,,,,,,,,,,,,,,,,,,,,,,,,,,,,,,,,,
1577742170.847349,48.000000,0.000000,4206.666504,4352.307617,4166.153809,4129.230957,4237.436035,0.000000,4.000000,,,,0.000000,4.000000,4.000000,4.000000,4.000000,4.000000,24.000000,0.000000,0.368740,0.211426,0.850586,0.309570,0.573739,-0.605478,0.558114,4.412282,-51.017765,57.483574,,,,,,,,,,,,,,,,,,,,,,,,,
1577742170.855046,49.000000,0.000000,4191.282227,4325.128418,4161.025879,4115.384766,4213.333496,0.000000,4.000000,,,,0.000000,4.000000,4.000000,4.000000,4.000000,4.000000,,,,,,,,,,,,,,,,,,,,,,,,,,,,,,,,,,,,,
1577742170.862842,50.000000,0.000000,4189.230957,4341.538574,4165.641113,4100.000000,4209.230957,0.000000,4.000000,,,,0.000000,4.000000,4.000000,4.000000,4.000000,4.000000,25.000000,0.000000,0.368880,0.211182,0.850586,0.309570,0.552743,-0.597665,0.567391,4.748653,-50.940479,57.597122,,,,,,,,,,,,,,,,,,,,,,,,,
1577742170.870539,51.000000,0.000000,4201.025879,4369.230957,4168.717773,4113.846191,4230.256348,0.000000,4.000000,,,,0.000000,4.000000,4.000000,4.000000,4.000000,4.000000,,,,,,,,,,,,,,,,,,,,,,,,,,,,,,,,,,,,,
1577742170.878335,52.000000,0.000000,4205.641113,4345.128418,4161.538574,4116.410156,4234.358887,0.000000,4.000000,,,,0.000000,4.000000,4.000000,4.000000,4.000000,4.000000,26.000000,0.000000,0.368316,0.211182,0.850830,0.309570,0.565438,-0.581064,0.556649,4.871941,-50.930737,57.639500,,,,,,,,,,,,,,,,,,,,,,,,,
1577742170.886032,53.000000,0.000000,4201.025879,4322.051270,4155.384766,4094.871826,4215.384766,0.000000,4.000000,,,,0.000000,4.000000,4.000000,4.000000,4.000000,4.000000,,,,,,,,,,,,,,,,,,,,,,,,,,,,,,,,,,,,,
1577742170.893828,54.000000,0.000000,4213.846191,4357.436035,4168.717773,4106.153809,4218.461426,0.000000,4.000000,,,,0.000000,4.000000,4.000000,4.000000,4.000000,4.000000,27.000000,0.000000,0.368316,0.211182,0.850830,0.309570,0.564950,-0.597177,0.560555,5.102531,-50.921970,55.763550,,,,,,,,,,,,,,,,,,,,,,,,,
1577742170.901525,55.000000,0.000000,4244.102539,4383.077148,4198.461426,4150.256348,4254.358887,0.000000,4.000000,,,,0.000000,4.000000,4.000000,4.000000,4.000000,4.000000,,,,,,,,,,,,,,,,,,,,,,,,,,,,,,,,,,,,,
1577742170.909321,56.000000,0.000000,4254.871582,4352.307617,4203.589844,4158.461426,4268.205078,0.000000,4.000000,,,,0.000000,4.000000,4.000000,4.000000,4.000000,4.000000,28.000000,0.000000,0.368456,0.210938,0.850830,0.309570,0.575204,-0.598642,0.550301,8.121385,-50.914078,55.929470,,,,,,,,,,,,,,,,,,,,,,,,,
1577742170.917018,57.000000,0.000000,4235.897461,4325.128418,4176.922852,4123.589844,4241.025879,0.000000,4.000000,,,,0.000000,4.000000,4.000000,4.000000,4.000000,4.000000,,,,,,,,,,,,,,,,,,,,,,,,,,,,,,,,,,,,,
1577742170.924714,58.000000,0.000000,4227.692383,4338.461426,4161.025879,4111.282227,4229.743652,0.000000,4.000000,,,,0.000000,4.000000,4.000000,4.000000,4.000000,4.000000,29.000000,0.000000,0.368316,0.211182,0.850830,0.309570,0.565438,-0.581064,0.556649,10.898169,-50.906979,56.078796,,,,,,,,,,,,,,,,,,,,,,,,,
1577742170.932511,59.000000,0.000000,4247.692383,4356.922852,4174.871582,4145.641113,4251.282227,0.000000,4.000000,,,,0.000000,4.000000,4.000000,4.000000,4.000000,4.000000,,,,,,,,,,,,,2.812747,3.923936,3.315443,3.270519,1.973460,0.386043,1.448099,2.133343,2.068055,1.928013,1.131808,2.203318,1.515895,2.387938,1.660082,1.858479,4.997269,4.351340,4.444548,2.246438,4.369988,4.852164,3.378715,3.661132,2.087995
1577742170.940207,60.000000,0.000000,4245.641113,4345.128418,4176.922852,4147.692383,4243.589844,0.000000,4.000000,,,,0.000000,4.000000,4.000000,4.000000,4.000000,4.000000,30.000000,0.000000,0.368456,0.210938,0.850830,0.309570,0.575204,-0.598642,0.550301,13.337459,-50.900585,56.213192,,,,,,,,,,,,,,,,,,,,,,,,,
1577742170.948004,61.000000,0.000000,4214.358887,4327.692383,4157.948730,4102.051270,4211.282227,0.000000,4.000000,,,,0.000000,4.000000,4.000000,4.000000,4.000000,4.000000,,,,,,,,,,,,,,,,,,,,,,,,,,,,,,,,,,,,,
1577742170.955700,62.000000,0.000000,4217.948730,4357.436035,4164.102539,4093.846191,4220.000000,0.000000,4.000000,,,,0.000000,4.000000,4.000000,4.000000,4.000000,4.000000,31.000000,0.000000,0.368661,0.210938,0.850830,0.309326,0.557626,-0.593271,0.569833,15.413188,-50.835018,56.453781,,,,,,,,,,,,,,,,,,,,,,,,,
1577742170.963497,63.000000,0.000000,4245.128418,4385.641113,4190.256348,4121.025879,4245.128418,0.000000,4.000000,,,,0.000000,4.000000,4.000000,4.000000,4.000000,4.000000,,,,,,,,,,,,,,,,,,,,,,,,,,,,,,,,,,,,,
1577742170.971194,64.000000,0.000000,4245.128418,4363.077148,4196.922852,4121.538574,4247.692383,450.000000,4.000000,,,,0.000000,4.000000,4.000000,4.000000,4.000000,4.000000,32.000000,0.000000,0.368097,0.210938,0.851074,0.309326,0.571786,-0.608896,0.571786,14.410208,-50.895638,56.670307,,,,,,,,,,,,,,,,,,,,,,,,,
1577742170.978990,65.000000,0.000000,4221.538574,4346.153809,4177.436035,4091.794922,4233.846191,450.000000,4.000000,,,,0.000000,4.000000,4.000000,4.000000,4.000000,4.000000,,,,,,,,,,,,,,,,,,,,,,,,,,,,,,,,,,,,,
1577742170.986687,66.000000,0.000000,4195.897461,4354.358887,4151.794922,4057.948730,4204.615234,16210.000000,4.000000,,,,0.000000,4.000000,4.000000,4.000000,4.000000,4.000000,33.000000,0.000000,0.368237,0.210693,0.851074,0.309326,0.567880,-0.595224,0.549813,16.617924,-50.830566,56.865181,,,,,,,,,,,,,,,,,,,,,,,,,
1577742170.994483,67.000000,0.000000,4206.153809,4350.769043,4160.512695,4074.358887,4203.077148,450.000000,4.000000,,,,0.000000,4.000000,4.000000,4.000000,4.000000,4.000000,,,,,,,,,,,,,,,,,,,,,,,,,,,,,,,,,,,,,
1577742171.002180,68.000000,0.000000,4238.461426,4341.538574,4188.205078,4121.538574,4237.948730,16242.000000,4.000000,,,,0.000000,4.000000,4.000000,4.000000,4.000000,4.000000,34.000000,0.000000,0.368237,0.210693,0.851074,0.309326,0.569833,-0.594247,0.568368,18.485239,-50.891628,57.040569,,,,,,,,,,,,,,,,,,,,,,,,,
1577742171.009976,69.000000,0.000000,4217.948730,4340.512695,4171.794922,4100.512695,4227.179688,450.000000,4.000000,,,,0.000000,4.000000,4.000000,4.000000,4.000000,4.000000,,,,,,,,,,,,,,,,,,,,,,,,,,,,,,,,,,,,,
1577742171.017673,70.000000,0.000000,4171.282227,4334.358887,4130.256348,4040.512939,4173.846191,16142.000000,4.000000,,,,0.000000,4.000000,4.000000,4.000000,4.000000,4.000000,35.000000,0.000000,0.368237,0.210693,0.851074,0.309326,0.561532,-0.603037,0.560067,17.354500,-51.126034,57.078789,,,,,,,,,,,,,,,,,,,,,,,,,
1577742171.025470,71.000000,0.000000,4181.025879,4334.358887,4134.871582,4051.281982,4170.769043,450.000000,4.000000,,,,0.000000,4.000000,4.000000,4.000000,4.000000,4.000000,,,,,,,,,,,,,,,,,,,,,,,,,,,,,,,,,,,,,
1577742171.033166,72.000000,0.000000,4227.179688,4349.230957,4173.333496,4110.769043,4218.974121,450.000000,4.000000,,,,0.000000,4.000000,4.000000,4.000000,4.000000,4.000000,36.000000,0.000000,0.368237,0.210693,0.851074,0.309326,0.570809,-0.605478,0.564462,19.088341,-51.277184,57.173000,,,,,,,,,,,,,,,,,,,,,,,,,
1577742171.040963,73.000000,0.000000,4258.461426,4358.974121,4193.333496,4140.512695,4252.307617,16201.000000,4.000000,,,,0.000000,4.000000,4.000000,4.000000,4.000000,4.000000,,,,,,,,,,,,,,,,,,,,,,,,,,,,,,,,,,,,,
1577742171.048659,74.000000,0.000000,4263.077148,4361.538574,4185.128418,4131.282227,4250.769043,450.000000,4.000000,,,,0.000000,4.000000,4.000000,4.000000,4.000000,4.000000,37.000000,0.000000,0.368237,0.210693,0.851074,0.309326,0.558602,-0.587900,0.570809,17.777660,-51.233772,57.497051,,,,,,,,,,,,,,,,,,,,,,,,,
1577742171.056456,75.000000,0.000000,4232.307617,4361.538574,4155.384766,4093.846191,4221.025879,16208.000000,4.000000,,,,0.000000,4.000000,4.000000,4.000000,4.000000,4.000000,,,,,,,,,,,,,3.226729,4.897004,3.787801,3.118268,1.952731,0.362211,1.593198,2.251734,1.814611,1.844161,1.214354,3.198052,1.838746,2.405593,1.584280,1.819553,6.170790,5.150325,4.528002,2.214525,4.228073,5.985941,3.799279,3.448229,2.005576
1577742171.064153,76.000000,0.000000,4212.820313,4352.820313,4141.538574,4081.025635,4208.205078,450.000000,4.000000,,,,0.000000,4.000000,4.000000,4.000000,4.000000,4.000000,38.000000,0.000000,0.368237,0.210693,0.851074,0.309326,0.558114,-0.602548,0.566415,15.700817,-51.075069,57.788700,,,,,,,,,,,,,,,,,,,,,,,,,
1577742171.071949,77.000000,0.000000,4234.358887,4338.461426,4159.487305,4111.794922,4230.769043,450.000000,4.000000,,,,0.000000,4.000000,4.000000,4.000000,4.000000,4.000000,,,,,,,,,,,,,,,,,,,,,,,,,,,,,,,,,,,,,
1577742171.079646,78.000000,0.000000,4242.563965,4344.615234,4169.743652,4117.436035,4238.461426,450.000000,4.000000,,,,0.000000,4.000000,4.000000,4.000000,4.000000,4.000000,39.000000,0.000000,0.367812,0.210449,0.851318,0.309326,0.550301,-0.592782,0.565438,14.908335,-51.051868,57.871735,,,,,,,,,,,,,,,,,,,,,,,,,
1577742171.087442,79.000000,0.000000,4226.153809,4354.871582,4157.948730,4093.333252,4221.025879,16208.000000,4.000000,,,,0.000000,4.000000,4.000000,4.000000,4.000000,4.000000,,,,,,,,,,,,,,,,,,,,,,,,,,,,,,,,,,,,,
1577742171.095139,80.000000,0.000000,4209.230957,4337.436035,4139.487305,4081.538574,4204.102539,450.000000,4.000000,,,,0.000000,4.000000,4.000000,4.000000,4.000000,4.000000,40.000000,0.000000,0.367812,0.210449,0.851318,0.309326,0.564462,-0.589853,0.569345,13.238055,-50.791725,58.066097,,,,,,,,,,,,,,,,,,,,,,,,,
1577742171.102835,81.000000,0.000000,4207.692383,4323.077148,4136.922852,4087.179443,4202.563965,450.000000,4.000000,,,,0.000000,4.000000,4.000000,4.000000,4.000000,4.000000,,,,,,,,,,,,,,,,,,,,,,,,,,,,,,,,,,,,,
1577742171.110632,82.000000,0.000000,4235.897461,4357.948730,4158.461426,4111.282227,4223.589844,450.000000,4.000000,,,,0.000000,4.000000,4.000000,4.000000,4.000000,4.000000,41.000000,0.000000,0.367812,0.210449,0.851318,0.309326,0.559579,-0.603525,0.568856,12.632034,-50.737045,58.181210,,,,,,,,,,,,,,,,,,,,,,,,,
1577742171.118329,83.000000,0.000000,4255.384766,4380.512695,4168.205078,4130.769043,4239.487305,16208.000000,4.000000,,,,0.000000,4.000000,4.000000,4.000000,4.000000,4.000000,,,,,,,,,,,,,,,,,,,,,,,,,,,,,,,,,,,,,
1577742171.126125,84.000000,0.000000,4235.897461,4346.666504,4148.205078,4115.897461,4222.051270,450.000000,4.000000,,,,0.000000,4.000000,4.000000,4.000000,4.000000,4.000000,42.000000,0.000000,0.367812,0.210449,0.851318,0.309326,0.573739,-0.596201,0.559579,11.966985,-50.807461,58.224995,,,,,,,,,,,,,,,,,,,,,,,,,
1577742171.133822,85.000000,0.000000,4212.307617,4326.153809,4137.436035,4097.436035,4198.461426,450.000000,4.000000,,,,0.000000,4.000000,4.000000,4.000000,4.000000,4.000000,,,,,,,,,,,,,,,,,,,,,,,,,,,,,,,,,,,,,
1577742171.141618,86.000000,0.000000,4212.307617,4349.230957,4155.384766,4105.641113,4202.051270,450.000000,4.000000,,,,0.000000,4.000000,4.000000,4.000000,4.000000,4.000000,43.000000,0.000000,0.367812,0.210449,0.851318,0.309326,0.569345,-0.603037,0.561044,7.659887,-50.751205,56.290493,,,,,,,,,,,,,,,,,,,,,,,,,
1577742171.149415,87.000000,0.000000,4225.641113,4363.589844,4173.333496,4114.871582,4221.538574,16208.000000,4.000000,,,,0.000000,4.000000,4.000000,4.000000,4.000000,4.000000,,,,,,,,,,,,,,,,,,,,,,,,,,,,,,,,,,,,,
1577742171.157111,88.000000,0.000000,4244.615234,4354.871582,4179.487305,4122.051270,4239.487305,450.000000,4.000000,,,,0.000000,4.000000,4.000000,4.000000,4.000000,4.000000,44.000000,0.000000,0.367812,0.210449,0.851318,0.309326,0.560067,-0.602548,0.566415,10.423005,-50.700577,56.642982,,,,,,,,,,,,,,,,,,,,,,,,,
1577742171.164908,89.000000,0.000000,4245.641113,4343.077148,4171.794922,4131.794922,4242.051270,450.000000,4.000000,,,,0.000000,4.000000,4.000000,4.000000,4.000000,4.000000,,,,,,,,,,,,,,,,,,,,,,,,,,,,,,,,,,,,,
1577742171.172604,90.000000,0.000000,4206.666504,4331.282227,4136.922852,4105.641113,4209.743652,450.000000,4.000000,,,,0.000000,4.000000,4.000000,4.000000,4.000000,4.000000,45.000000,0.000000,0.367812,0.210449,0.851318,0.309326,0.557626,-0.601572,0.575204,9.978858,-50.834454,56.900402,,,,,,,,,,,,,,,,,,,,,,,,,
1577742171.180400,91.000000,0.000000,4176.922852,4326.153809,4111.794922,4075.384521,4175.384766,16208.000000,4.000000,,,,0.000000,4.000000,4.000000,4.000000,4.000000,4.000000,,,,,,,,,,,,,3.729500,5.815416,4.547626,3.071645,1.984698,0.362600,1.658644,2.209518,1.576136,1.767790,1.430616,4.180649,2.326185,2.462687,1.496451,1.687658,7.302526,6.368028,4.577582,2.222588,3.959897,6.936316,4.567481,3.355896,1.968763
1577742171.188097,92.000000,0.000000,4198.461426,4346.666504,4140.000000,4100.000000,4194.358887,450.000000,4.000000,,,,0.000000,4.000000,4.000000,4.000000,4.000000,4.000000,46.000000,0.000000,0.367812,0.210449,0.851318,0.309326,0.566903,-0.600107,0.565927,12.510078,-50.835316,56.952637,,,,,,,,,,,,,,,,,,,,,,,,,
1577742171.195793,93.000000,0.000000,4228.717773,4360.000000,4177.436035,4135.384766,4231.794922,450.000000,4.000000,,,,0.000000,4.000000,4.000000,4.000000,4.000000,4.000000,,,,,,,,,,,,,,,,,,,,,,,,,,,,,,,,,,,,,
1577742171.203590,94.000000,0.000000,4212.820313,4350.256348,4162.563965,4115.384766,4215.897461,450.000000,4.000000,,,,0.000000,4.000000,4.000000,4.000000,4.000000,4.000000,47.000000,0.000000,0.367812,0.210449,0.851318,0.309326,0.567880,-0.589364,0.559579,11.797409,-50.716461,57.238911,,,,,,,,,,,,,,,,,,,,,,,,,
1577742171.211286,95.000000,0.000000,4207.692383,4361.025879,4148.205078,4101.025879,4200.000000,16208.000000,4.000000,,,,0.000000,4.000000,4.000000,4.000000,4.000000,4.000000,,,,,,,,,,,,,,,,,,,,,,,,,,,,,,,,,,,,,
1577742171.219083,96.000000,0.000000,4244.102539,4368.717773,4170.769043,4128.717773,4234.358887,450.000000,4.000000,,,,0.000000,4.000000,4.000000,4.000000,4.000000,4.000000,48.000000,0.000000,0.367812,0.210449,0.851318,0.309326,0.581552,-0.590829,0.556649,14.206591,-50.788937,57.436741,,,,,,,,,,,,,,,,,,,,,,,,,
1577742171.226780,97.000000,0.000000,4244.615234,4341.538574,4174.871582,4132.307617,4246.153809,450.000000,4.000000,,,,0.000000,4.000000,4.000000,4.000000,4.000000,4.000000,,,,,,,,,,,,,,,,,,,,,,,,,,,,,,,,,,,,,
1577742171.234476,98.000000,0.000000,4238.974121,4348.717773,4171.282227,4132.307617,4244.615234,450.000000,4.000000,,,,0.000000,4.000000,4.000000,4.000000,4.000000,4.000000,49.000000,0.000000,0.367812,0.210449,0.851318,0.309326,0.566415,-0.617685,0.567391,16.434669,-50.794346,57.375526,,,,,,,,,,,,,,,,,,,,,,,,,
1577742171.242273,99.000000,0.000000,4255.384766,4376.410156,4170.769043,4138.974121,4250.769043,16208.000000,4.000000,,,,0.000000,4.000000,4.000000,4.000000,4.000000,4.000000,,,,,,,,,,,,,,,,,,,,,,,,,,,,,,,,,,,,,
1577742171.250069,100.000000,0.000000,4237.436035,4343.589844,4146.666504,4108.205078,4228.205078,450.000000,4.000000,,,,0.000000,4.000000,4.000000,4.000000,4.000000,4.000000,50.000000,0.000000,0.367246,0.210449,0.851563,0.309326,0.575204,-0.597665,0.559091,15.389356,-50.859035,57.440063,,,,,,,,,,,,,,,,,,,,,,,,,
1577742171.257766,101.000000,0.000000,4218.974121,4312.307617,4138.461426,4092.820557,4219.487305,450.000000,4.000000,,,,0.000000,4.000000,4.000000,4.000000,4.000000,4.000000,,,,,,,,,,,,,,,,,,,,,,,,,,,,,,,,,,,,,
1577742171.265562,102.000000,0.000000,4253.333496,4354.358887,4173.846191,4127.692383,4256.410156,450.000000,4.000000,,,,0.000000,4.000000,4.000000,4.000000,4.000000,4.000000,51.000000,0.000000,0.367812,0.210449,0.851318,0.309326,0.551766,-0.603037,0.562020,14.568204,-50.737804,55.584057,,,,,,,,,,,,,,,,,,,,,,,,,
1577742171.273259,103.000000,0.000000,4272.307617,4376.410156,4187.692383,4131.282227,4266.666504,16208.000000,4.000000,,,,0.000000,4.000000,4.000000,4.000000,4.000000,4.000000,,,,,,,,,,,,,,,,,,,,,,,,,,,,,,,,,,,,,
1577742171.281055,104.000000,0.000000,4222.563965,4342.051270,4145.641113,4083.076904,4217.436035,450.000000,4.000000,,,,0.000000,4.000000,4.000000,4.000000,4.000000,4.000000,52.000000,0.000000,0.367246,0.210449,0.851563,0.309326,0.578134,-0.594247,0.556161,10.060801,-50.748333,55.767925,,,,,,,,,,,,,,,,,,,,,,,,,
1577742171.288752,105.000000,0.000000,4183.589844,4331.794922,4117.436035,4063.589844,4189.230957,450.000000,4.000000,,,,0.000000,4.000000,4.000000,4.000000,4.000000,4.000000,,,,,,,,,,,,,,,,,,,,,,,,,,,,,,,,,,,,,
1577742171.296549,106.000000,0.000000,4218.974121,4361.025879,4144.615234,4101.025879,4225.641113,450.000000,4.000000,,,,0.000000,4.000000,4.000000,4.000000,4.000000,4.000000,53.000000,0.000000,0.367246,0.210449,0.851563,0.309326,0.566415,-0.591318,0.566903,12.583827,-50.817619,55.993225,,,,,,,,,,,,,,,,,,,,,,,,,
1577742171.304245,107.000000,0.000000,4275.384766,4373.333496,4179.487305,4141.538574,4270.769043,16208.000000,4.000000,,,,0.000000,4.000000,4.000000,4.000000,4.000000,4.000000,,,,,,,,,,,,,4.523138,6.336208,5.460301,3.098263,2.097557,0.377863,1.582176,2.046695,1.364315,1.756612,1.747095,4.835069,2.864110,2.509093,1.446734,1.587029,7.996004,7.844666,4.542341,2.330061,3.717130,7.308585,5.550473,3.363115,2.013066
1577742171.312041,108.000000,0.000000,4274.871582,4349.230957,4173.846191,4140.000000,4265.641113,450.000000,4.000000,,,,0.000000,4.000000,4.000000,4.000000,4.000000,4.000000,54.000000,0.000000,0.367246,0.210449,0.851563,0.309326,0.553719,-0.596689,0.566415,8.215045,-50.760349,56.315624,,,,,,,,,,,,,,,,,,,,,,,,,
1577742171.319738,109.000000,0.000000,4243.077148,4327.179688,4145.128418,4109.230957,4234.358887,450.000000,4.000000,,,,0.000000,4.000000,4.000000,4.000000,4.000000,4.000000,,,,,,,,,,,,,,,,,,,,,,,,,,,,,,,,,,,,,
1577742171.327534,110.000000,0.000000,4264.615234,4351.794922,4153.846191,4108.717773,4243.077148,450.000000,4.000000,,,,0.000000,4.000000,4.000000,4.000000,4.000000,4.000000,55.000000,0.000000,0.367040,0.210449,0.851563,0.309570,0.554696,-0.593759,0.561532,10.922647,-50.768620,56.605782,,,,,,,,,,,,,,,,,,,,,,,,,
1577742171.335230,111.000000,0.000000,4295.384766,4389.743652,4173.333496,4128.205078,4264.615234,16208.000000,4.000000,,,,0.000000,4.000000,4.000000,4.000000,4.000000,4.000000,,,,,,,,,,,,,,,,,,,,,,,,,,,,,,,,,,,,,
1577742171.343027,112.000000,0.000000,4271.794922,4369.230957,4157.948730,4118.974121,4249.230957,450.000000,4.000000,,,,0.000000,4.000000,4.000000,4.000000,4.000000,4.000000,56.000000,0.000000,0.367040,0.210449,0.851563,0.309570,0.555184,-0.597177,0.567880,10.488352,-50.835880,56.747295,,,,,,,,,,,,,,,,,,,,,,,,,
1577742171.350723,113.000000,0.000000,4265.128418,4333.333496,4155.384766,4121.025879,4245.641113,450.000000,4.000000,,,,0.000000,4.000000,4.000000,4.000000,4.000000,4.000000,,,,,,,,,,,,,,,,,,,,,,,,,,,,,,,,,,,,,
1577742171.358420,114.000000,0.000000,4287.692383,4344.615234,4171.794922,4136.922852,4257.436035,450.000000,4.000000,,,,0.000000,4.000000,4.000000,4.000000,4.000000,4.000000,57.000000,0.000000,0.367040,0.210449,0.851563,0.309570,0.571786,-0.601083,0.572274,6.388933,-51.016045,56.994286,,,,,,,,,,,,,,,,,,,,,,,,,
1577742171.366216,115.000000,0.000000,4262.051270,4347.179688,4147.692383,4108.717773,4226.153809,16208.000000,4.000000,,,,0.000000,4.000000,4.000000,4.000000,4.000000,4.000000,,,,,,,,,,,,,,,,,,,,,,,,,,,,,,,,,,,,,
1577742171.373913,116.000000,0.000000,4244.102539,4338.461426,4134.358887,4098.461426,4211.282227,450.000000,4.000000,,,,0.000000,4.000000,4.000000,4.000000,4.000000,4.000000,58.000000,0.000000,0.367040,0.210449,0.851563,0.309570,0.554696,-0.593759,0.561532,9.279146,-50.998745,57.216579,,,,,,,,,,,,,,,,,,,,,,,,,
1577742171.381709,117.000000,0.000000,4296.922852,4357.948730,4181.025879,4147.179688,4267.692383,450.000000,4.000000,,,,0.000000,4.000000,4.000000,4.000000,4.000000,4.000000,,,,,,,,,,,,,,,,,,,,,,,,,,,,,,,,,,,,,
1577742171.389406,118.000000,0.000000,4308.717773,4360.000000,4190.769043,4152.820313,4283.589844,450.000000,4.000000,,,,0.000000,4.000000,4.000000,4.000000,4.000000,4.000000,59.000000,0.000000,0.367040,0.210449,0.851563,0.309570,0.571786,-0.601083,0.572274,5.300648,-51.162624,57.416641,,,,,,,,,,,,,,,,,,,,,,,,,
1577742171.397203,119.000000,0.000000,4245.641113,4329.743652,4147.179688,4101.538574,4220.000000,16208.000000,4.000000,,,,0.000000,4.000000,4.000000,4.000000,4.000000,4.000000,,,,,,,,,,,,,,,,,,,,,,,,,,,,,,,,,,,,,
1577742171.404899,120.000000,0.000000,4237.948730,4330.769043,4148.205078,4103.077148,4206.153809,450.000000,4.000000,,,,0.000000,4.000000,4.000000,4.000000,4.000000,4.000000,60.000000,0.000000,0.367606,0.210449,0.851318,0.309570,0.570321,-0.607919,0.561532,1.540553,-51.250298,55.682606,,,,,,,,,,,,,,,,,,,,,,,,,
1577742171.412696,121.000000,0.000000,4277.948730,4353.333496,4174.358887,4134.358887,4248.205078,450.000000,4.000000,,,,0.000000,4.000000,4.000000,4.000000,4.000000,4.000000,,,,,,,,,,,,,,,,,,,,,,,,,,,,,,,,,,,,,
1577742171.420392,122.000000,0.000000,4276.410156,4347.692383,4168.717773,4131.282227,4255.384766,450.000000,4.000000,,,,0.000000,4.000000,4.000000,4.000000,4.000000,4.000000,61.000000,0.000000,0.366974,0.210205,0.851563,0.309814,0.569833,-0.609384,0.571786,1.924836,-51.329205,56.036068,,,,,,,,,,,,,,,,,,,,,,,,,
1577742171.428189,123.000000,0.000000,4263.077148,4341.538574,4159.487305,4129.230957,4244.102539,16208.000000,4.000000,,,,0.000000,4.000000,4.000000,4.000000,4.000000,4.000000,,,,,,,,,,,,,5.558742,6.297930,6.362288,3.155228,2.307687,0.392733,1.374501,1.865159,1.180895,1.844562,2.095762,4.968565,3.359055,2.518741,1.493812,1.679484,8.002037,9.241611,4.398347,2.599619,3.652253,6.953963,6.555620,3.418734,2.171261
1577742171.435885,124.000000,0.000000,4260.000000,4352.820313,4153.333496,4118.461426,4235.384766,450.000000,4.000000,,,,0.000000,4.000000,4.000000,4.000000,4.000000,4.000000,62.000000,0.000000,0.366834,0.210449,0.851563,0.309814,0.567391,-0.609873,0.560555,5.201644,-51.340405,56.174736,,,,,,,,,,,,,,,,,,,,,,,,,
1577742171.443682,125.000000,0.000000,4255.384766,4367.179688,4144.615234,4102.051270,4226.153809,450.000000,4.000000,,,,0.000000,4.000000,4.000000,4.000000,4.000000,4.000000,,,,,,,,,,,,,,,,,,,,,,,,,,,,,,,,,,,,,
1577742171.451379,126.000000,0.000000,4264.102539,4365.128418,4150.769043,4112.820313,4234.358887,450.000000,4.000000,,,,0.000000,4.000000,4.000000,4.000000,4.000000,4.000000,63.000000,0.000000,0.367180,0.210205,0.851563,0.309570,0.567391,-0.602548,0.572274,5.279633,-51.230854,56.658428,,,,,,,,,,,,,,,,,,,,,,,,,
1577742171.459175,127.000000,0.000000,4261.538574,4343.077148,4151.794922,4115.384766,4231.282227,236.000000,4.000000,,,,0.000000,4.000000,4.000000,4.000000,4.000000,4.000000,,,,,,,,,,,,,,,,,,,,,,,,,,,,,,,,,,,,,
1577742171.466872,0.000000,0.000000,4250.256348,4343.589844,4147.179688,4107.692383,4211.794922,450.000000,4.000000,,,,0.000000,4.000000,4.000000,4.000000,4.000000,4.000000,0.000000,0.000000,0.367180,0.210205,0.851563,0.309570,0.557626,-0.600595,0.568368,1.581455,-51.132259,56.974125,,,,,,,,,,,,,,,,,,,,,,,,,
1577742171.474568,1.000000,0.000000,4272.820313,4367.692383,4167.692383,4132.820313,4228.717773,450.000000,4.000000,,,,0.000000,4.000000,4.000000,4.000000,4.000000,4.000000,,,,,,,,,,,,,,,,,,,,,,,,,,,,,,,,,,,,,
1577742171.482365,2.000000,0.000000,4294.871582,4370.769043,4181.538574,4151.794922,4256.922852,16203.000000,4.000000,,,,0.000000,4.000000,4.000000,4.000000,4.000000,4.000000,1.000000,0.000000,0.367386,0.210205,0.851563,0.309326,0.562997,-0.597177,0.559579,1.004602,-51.163155,57.138618,,,,,,,,,,,,,,,,,,,,,,,,,
1577742171.490062,3.000000,0.000000,4268.205078,4348.205078,4162.051270,4124.102539,4238.461426,450.000000,4.000000,,,,0.000000,4.000000,4.000000,4.000000,4.000000,4.000000,,,,,,,,,,,,,,,,,,,,,,,,,,,,,,,,,,,,,
1577742171.497858,4.000000,0.000000,4248.717773,4346.153809,4153.846191,4110.769043,4220.000000,16240.000000,4.000000,,,,0.000000,4.000000,4.000000,4.000000,4.000000,4.000000,2.000000,0.000000,0.367526,0.209961,0.851563,0.309326,0.556649,-0.594247,0.572274,-2.266072,-51.131145,57.286659,,,,,,,,,,,,,,,,,,,,,,,,,
1577742171.505555,5.000000,0.000000,4261.025879,4354.871582,4167.692383,4127.692383,4232.820313,450.000000,4.000000,,,,0.000000,4.000000,4.000000,4.000000,4.000000,4.000000,,,,,,,,,,,,,,,,,,,,,,,,,,,,,,,,,,,,,
1577742171.513351,6.000000,0.000000,4266.153809,4347.692383,4167.692383,4129.230957,4241.025879,16151.000000,4.000000,,,,0.000000,4.000000,4.000000,4.000000,4.000000,4.000000,3.000000,0.000000,0.367526,0.209961,0.851563,0.309326,0.549325,-0.590341,0.560555,1.370011,-51.042522,55.445995,,,,,,,,,,,,,,,,,,,,,,,,,
1577742171.521048,7.000000,0.000000,4263.589844,4349.230957,4161.025879,4119.487305,4239.487305,450.000000,4.000000,,,,0.000000,4.000000,4.000000,4.000000,4.000000,4.000000,,,,,,,,,,,,,,,,,,,,,,,,,,,,,,,,,,,,,
1577742171.528844,8.000000,0.000000,4246.153809,4357.948730,4150.769043,4107.179688,4221.025879,450.000000,4.000000,,,,0.000000,4.000000,4.000000,4.000000,4.000000,4.000000,4.000000,0.000000,0.367526,0.209961,0.851563,0.309326,0.563485,-0.596689,0.571298,1.890979,-51.022575,55.823116,,,,,,,,,,,,,,,,,,,,,,,,,
1577742171.536541,9.000000,0.000000,4235.897461,4359.487305,4150.769043,4114.358887,4214.358887,16198.000000,4.000000,,,,0.000000,4.000000,4.000000,4.000000,4.000000,4.000000,,,,,,,,,,,,,,,,,,,,,,,,,,,,,,,,,,,,,
1577742171.544338,10.000000,0.000000,4239.487305,4346.666504,4159.487305,4126.153809,4225.641113,450.000000,4.000000,,,,0.000000,4.000000,4.000000,4.000000,4.000000,4.000000,5.000000,0.000000,0.367320,0.209961,0.851563,0.309570,0.563973,-0.602548,0.566415,2.240219,-51.004623,54.248432,,,,,,,,,,,,,,,,,,,,,,,,,
1577742171.552034,11.000000,0.000000,4229.743652,4340.512695,4155.897461,4112.820313,4217.436035,16212.000000,4.000000,,,,0.000000,4.000000,4.000000,4.000000,4.000000,4.000000,,,,,,,,,,,,,6.626248,5.788933,7.042119,3.207840,2.620445,0.394557,1.118329,1.774801,1.036281,2.034083,2.354921,4.596114,3.721808,2.502543,1.681274,2.030283,7.331924,10.133064,4.154270,3.055769,3.776032,6.028792,7.333611,3.461164,2.465522
1577742171.559831,12.000000,0.000000,4235.897461,4356.410156,4160.000000,4116.922852,4214.358887,450.000000,4.000000,,,,0.000000,4.000000,4.000000,4.000000,4.000000,4.000000,6.000000,0.000000,0.367320,0.209961,0.851563,0.309570,0.564950,-0.587411,0.560067,5.425673,-50.928654,52.711590,,,,,,,,,,,,,,,,,,,,,,,,,
1577742171.567527,13.000000,0.000000,4261.025879,4352.307617,4172.307617,4144.102539,4234.358887,450.000000,4.000000,,,,0.000000,4.000000,4.000000,4.000000,4.000000,4.000000,,,,,,,,,,,,,,,,,,,,,,,,,,,,,,,,,,,,,
1577742171.575324,14.000000,0.000000,4247.179688,4331.794922,4162.051270,4127.179688,4227.179688,450.000000,4.000000,,,,0.000000,4.000000,4.000000,4.000000,4.000000,4.000000,7.000000,0.000000,0.367320,0.209961,0.851563,0.309570,0.565438,-0.600107,0.566415,5.660706,-50.920094,53.362152,,,,,,,,,,,,,,,,,,,,,,,,,
1577742171.583020,15.000000,0.000000,4214.871582,4344.615234,4146.666504,4084.102539,4202.051270,16212.000000,4.000000,,,,0.000000,4.000000,4.000000,4.000000,4.000000,4.000000,,,,,,,,,,,,,,,,,,,,,,,,,,,,,,,,,,,,,
1577742171.590817,16.000000,0.000000,4248.717773,4368.205078,4168.717773,4106.153809,4228.717773,0.000000,4.000000,,,,0.000000,4.000000,4.000000,4.000000,4.000000,4.000000,8.000000,0.000000,0.367320,0.209961,0.851563,0.309570,0.558602,-0.598642,0.563485,5.812419,-50.912392,51.973751,,,,,,,,,,,,,,,,,,,,,,,,,
1577742171.598614,17.000000,0.000000,4282.051270,4352.820313,4181.025879,4144.615234,4253.846191,0.000000,4.000000,,,,0.000000,4.000000,4.000000,4.000000,4.000000,4.000000,,,,,,,,,,,,,,,,,,,,,,,,,,,,,,,,,,,,,
1577742171.606310,18.000000,0.000000,4252.820313,4341.025879,4157.436035,4127.692383,4228.717773,0.000000,4.000000,,,,0.000000,4.000000,4.000000,4.000000,4.000000,4.000000,9.000000,0.000000,0.367320,0.209961,0.851563,0.309570,0.558602,-0.597177,0.562997,2.001148,-50.785828,52.638283,,,,,,,,,,,,,,,,,,,,,,,,,
1577742171.614007,19.000000,0.000000,4240.000000,4360.512695,4152.820313,4117.948730,4224.615234,0.000000,4.000000,,,,0.000000,4.000000,4.000000,4.000000,4.000000,4.000000,,,,,,,,,,,,,,,,,,,,,,,,,,,,,,,,,,,,,
1577742171.621803,20.000000,0.000000,4253.846191,4365.641113,4156.410156,4130.769043,4241.538574,0.000000,4.000000,,,,0.000000,4.000000,4.000000,4.000000,4.000000,4.000000,10.000000,0.000000,0.367386,0.210205,0.851563,0.309326,0.552743,-0.591806,0.568856,-1.249551,-50.851364,53.296173,,,,,,,,,,,,,,,,,,,,,,,,,
1577742171.629500,21.000000,0.000000,4248.717773,4346.153809,4149.743652,4134.871582,4230.256348,0.000000,4.000000,,,,0.000000,4.000000,4.000000,4.000000,4.000000,4.000000,,,,,,,,,,,,,,,,,,,,,,,,,,,,,,,,,,,,,
1577742171.637296,22.000000,0.000000,4219.487305,4328.205078,4142.563965,4112.307617,4196.922852,0.000000,4.000000,,,,0.000000,4.000000,4.000000,4.000000,4.000000,4.000000,11.000000,0.000000,0.367386,0.210205,0.851563,0.309326,0.549325,-0.588876,0.562020,2.464326,-50.910351,53.768646,,,,,,,,,,,,,,,,,,,,,,,,,
1577742171.644993,23.000000,0.000000,4219.487305,4348.205078,4144.615234,4101.025879,4203.589844,0.000000,4.000000,,,,0.000000,4.000000,4.000000,4.000000,4.000000,4.000000,,,,,,,,,,,,,,,,,,,,,,,,,,,,,,,,,,,,,
1577742171.652789,24.000000,0.000000,4265.128418,4373.333496,4147.179688,4126.153809,4242.051270,0.000000,4.000000,,,,0.000000,4.000000,4.000000,4.000000,4.000000,4.000000,12.000000,0.000000,0.367386,0.210205,0.851563,0.309326,0.568856,-0.604501,0.559579,5.866631,-50.843807,54.193874,,,,,,,,,,,,,,,,,,,,,,,,,
1577742171.660486,25.000000,0.000000,4283.589844,4356.410156,4139.487305,4133.846191,4245.641113,0.000000,4.000000,,,,0.000000,4.000000,4.000000,4.000000,4.000000,4.000000,,,,,,,,,,,,,,,,,,,,,,,,,,,,,,,,,,,,,
1577742171.668183,26.000000,0.000000,4273.333496,4351.794922,4139.487305,4115.897461,4232.820313,0.000000,4.000000,,,,0.000000,4.000000,4.000000,4.000000,4.000000,4.000000,13.000000,0.000000,0.367526,0.209961,0.851563,0.309326,0.568368,-0.587411,0.565927,5.997752,-50.903545,54.516762,,,,,,,,,,,,,,,,,,,,,,,,,
1577742171.675979,27.000000,0.000000,4287.179688,4364.615234,4154.358887,4117.948730,4249.230957,0.000000,4.000000,,,,0.000000,4.000000,4.000000,4.000000,4.000000,4.000000,,,,,,,,,,,,,7.394674,5.089987,7.265196,3.232716,3.032443,0.386976,0.920558,1.812179,0.938171,2.290315,2.428566,3.915049,3.871829,2.479761,2.013407,2.569389,6.251048,10.163474,3.844956,3.654339,4.011466,4.902298,7.626308,3.442225,2.899995
1577742171.683676,28.000000,0.000000,4307.179688,4353.333496,4158.974121,4127.692383,4261.025879,0.000000,4.000000,,,,0.000000,4.000000,4.000000,4.000000,4.000000,4.000000,14.000000,0.000000,0.367665,0.209717,0.851563,0.309326,0.563485,-0.599130,0.562997,2.287578,-51.017128,53.192345,,,,,,,,,,,,,,,,,,,,,,,,,
1577742171.691472,29.000000,0.000000,4292.307617,4342.051270,4144.615234,4113.333496,4241.025879,0.000000,4.000000,,,,0.000000,4.000000,4.000000,4.000000,4.000000,4.000000,,,,,,,,,,,,,,,,,,,,,,,,,,,,,,,,,,,,,
1577742171.699169,30.000000,0.000000,4264.102539,4346.153809,4130.256348,4089.743652,4218.461426,0.000000,4.000000,,,,0.000000,4.000000,4.000000,4.000000,4.000000,4.000000,15.000000,0.000000,0.367459,0.209717,0.851563,0.309570,0.557626,-0.604013,0.549813,2.776605,-50.999722,51.940556,,,,,,,,,,,,,,,,,,,,,,,,,
1577742171.706965,31.000000,0.000000,4252.307617,4338.974121,4122.563965,4075.384521,4207.179688,0.000000,4.000000,,,,0.000000,4.000000,4.000000,4.000000,4.000000,4.000000,,,,,,,,,,,,,,,,,,,,,,,,,,,,,,,,,,,,,
1577742171.714762,32.000000,0.000000,4247.179688,4328.205078,4117.436035,4076.923096,4200.000000,0.000000,4.000000,,,,0.000000,4.000000,4.000000,4.000000,4.000000,4.000000,16.000000,0.000000,0.367459,0.209717,0.851563,0.309570,0.569345,-0.604501,0.562509,-0.731086,-50.804611,52.668221,,,,,,,,,,,,,,,,,,,,,,,,,
1577742171.722458,33.000000,0.000000,4222.051270,4323.077148,4103.077148,4072.820557,4178.974121,0.000000,4.000000,,,,0.000000,4.000000,4.000000,4.000000,4.000000,4.000000,,,,,,,,,,,,,,,,,,,,,,,,,,,,,,,,,,,,,
1577742171.730155,34.000000,0.000000,4205.128418,4327.179688,4097.948730,4067.692383,4169.230957,0.000000,4.000000,,,,0.000000,4.000000,4.000000,4.000000,4.000000,4.000000,17.000000,0.000000,0.367459,0.209717,0.851563,0.309570,0.562997,-0.603037,0.559091,2.751499,-50.928085,53.323120,,,,,,,,,,,,,,,,,,,,,,,,,
1577742171.737952,35.000000,0.000000,4247.692383,4354.871582,4131.282227,4109.230957,4213.846191,0.000000,4.000000,,,,0.000000,4.000000,4.000000,4.000000,4.000000,4.000000,,,,,,,,,,,,,,,,,,,,,,,,,,,,,,,,,,,,,
1577742171.745648,36.000000,0.000000,4295.897461,4368.717773,4167.692383,4155.384766,4263.077148,0.000000,4.000000,,,,0.000000,4.000000,4.000000,4.000000,4.000000,4.000000,18.000000,0.000000,0.367459,0.209717,0.851563,0.309570,0.565927,-0.585458,0.566903,3.074502,-50.979401,53.852715,,,,,,,,,,,,,,,,,,,,,,,,,
1577742171.753445,37.000000,0.000000,4282.563965,4344.615234,4167.179688,4153.846191,4253.846191,0.000000,4.000000,,,,0.000000,4.000000,4.000000,4.000000,4.000000,4.000000,,,,,,,,,,,,,,,,,,,,,,,,,,,,,,,,,,,,,
1577742171.761141,38.000000,0.000000,4260.512695,4330.769043,4146.666504,4132.307617,4228.205078,0.000000,4.000000,,,,0.000000,4.000000,4.000000,4.000000,4.000000,4.000000,19.000000,0.000000,0.367254,0.209717,0.851563,0.309814,0.569345,-0.598642,0.567391,6.296159,-51.025581,54.209717,,,,,,,,,,,,,,,,,,,,,,,,,
1577742171.768938,39.000000,0.000000,4260.512695,4331.794922,4140.512695,4118.974121,4220.512695,0.000000,4.000000,,,,0.000000,4.000000,4.000000,4.000000,4.000000,4.000000,,,,,,,,,,,,,,,,,,,,,,,,,,,,,,,,,,,,,
1577742171.776734,40.000000,0.000000,4238.461426,4320.000000,4140.512695,4113.333496,4202.051270,0.000000,4.000000,,,,0.000000,4.000000,4.000000,4.000000,4.000000,4.000000,20.000000,0.000000,0.367254,0.209717,0.851563,0.309814,0.555673,-0.597177,0.570321,6.324512,-50.768066,54.830097,,,,,,,,,,,,,,,,,,,,,,,,,
1577742171.784431,41.000000,0.000000,4218.461426,4328.205078,4126.153809,4112.307617,4188.205078,0.000000,4.000000,,,,0.000000,4.000000,4.000000,4.000000,4.000000,4.000000,,,,,,,,,,,,,,,,,,,,,,,,,,,,,,,,,,,,,
1577742171.792127,42.000000,0.000000,4252.820313,4366.666504,4121.025879,4114.871582,4208.205078,0.000000,4.000000,,,,0.000000,4.000000,4.000000,4.000000,4.000000,4.000000,21.000000,0.000000,0.367254,0.209717,0.851563,0.309814,0.562020,-0.593271,0.565927,9.280983,-50.775566,55.089363,,,,,,,,,,,,,,,,,,,,,,,,,
1577742171.799924,43.000000,0.000000,4281.538574,4353.333496,4120.512695,4106.153809,4221.025879,0.000000,4.000000,,,,0.000000,4.000000,4.000000,4.000000,4.000000,4.000000,,,,,,,,,,,,,7.565205,4.539905,6.883722,3.211564,3.509590,0.389146,0.849317,1.922132,0.887584,2.557388,2.224044,3.198517,3.751571,2.452329,2.433877,3.094580,5.122919,9.223579,3.503404,4.273348,4.059561,3.951730,7.261106,3.337583,3.431463
1577742171.807621,44.000000,0.000000,4222.563965,4287.692383,4071.794922,4041.538574,4166.153809,0.000000,4.000000,,,,0.000000,4.000000,4.000000,4.000000,4.000000,4.000000,22.000000,0.000000,0.367254,0.209717,0.851563,0.309814,0.569345,-0.598642,0.567391,11.881991,-50.842133,55.322701,,,,,,,,,,,,,,,,,,,,,,,,,
1577742171.815417,45.000000,0.000000,4208.205078,4307.179688,4063.589844,4012.820557,4151.794922,0.000000,4.000000,,,,0.000000,4.000000,4.000000,4.000000,4.000000,4.000000,,,,,,,,,,,,,,,,,,,,,,,,,,,,,,,,,,,,,
1577742171.823114,46.000000,0.000000,4342.051270,4393.846191,4171.282227,4128.717773,4271.282227,0.000000,4.000000,,,,0.000000,4.000000,4.000000,4.000000,4.000000,4.000000,23.000000,0.000000,0.367254,0.209717,0.851563,0.309814,0.562020,-0.593271,0.565927,14.282714,-50.842224,55.532707,,,,,,,,,,,,,,,,,,,,,,,,,
1577742171.830910,47.000000,0.000000,4430.769043,4397.436035,4232.307617,4218.461426,4357.436035,0.000000,4.000000,,,,0.000000,4.000000,4.000000,4.000000,4.000000,4.000000,,,,,,,,,,,,,,,,,,,,,,,,,,,,,,,,,,,,,
1577742171.838607,48.000000,0.000000,4392.307617,4344.615234,4184.102539,4165.128418,4321.538574,0.000000,4.000000,,,,0.000000,4.000000,4.000000,4.000000,4.000000,4.000000,24.000000,0.000000,0.367254,0.209717,0.851563,0.309814,0.557137,-0.593759,0.581064,9.803859,-50.842308,55.841343,,,,,,,,,,,,,,,,,,,,,,,,,
1577742171.846403,49.000000,0.000000,4371.794922,4338.461426,4160.512695,4130.256348,4293.333496,0.000000,4.000000,,,,0.000000,4.000000,4.000000,4.000000,4.000000,4.000000,,,,,,,,,,,,,,,,,,,,,,,,,,,,,,,,,,,,,
1577742171.854100,50.000000,0.000000,4376.922852,4352.307617,4173.333496,4151.794922,4296.410156,0.000000,4.000000,,,,0.000000,4.000000,4.000000,4.000000,4.000000,4.000000,25.000000,0.000000,0.367254,0.209717,0.851563,0.309814,0.562020,-0.601083,0.566903,8.524396,-51.021828,56.119114,,,,,,,,,,,,,,,,,,,,,,,,,
1577742171.861897,51.000000,0.000000,4345.128418,4345.128418,4164.615234,4138.974121,4269.743652,0.000000,4.000000,,,,0.000000,4.000000,4.000000,4.000000,4.000000,4.000000,,,,,,,,,,,,,,,,,,,,,,,,,,,,,,,,,,,,,
1577742171.869593,52.000000,0.000000,4316.922852,4335.897461,4155.384766,4117.948730,4246.666504,0.000000,4.000000,,,,0.000000,4.000000,4.000000,4.000000,4.000000,4.000000,26.000000,0.000000,0.367254,0.209717,0.851563,0.309814,0.554208,-0.593759,0.569345,8.150479,-50.944138,56.548553,,,,,,,,,,,,,,,,,,,,,,,,,
1577742171.877390,53.000000,0.000000,4280.000000,4332.820313,4136.922852,4094.871826,4221.538574,0.000000,4.000000,,,,0.000000,4.000000,4.000000,4.000000,4.000000,4.000000,,,,,,,,,,,,,,,,,,,,,,,,,,,,,,,,,,,,,
1577742171.885086,54.000000,0.000000,4240.000000,4340.512695,4121.538574,4072.820557,4188.205078,0.000000,4.000000,,,,0.000000,4.000000,4.000000,4.000000,4.000000,4.000000,27.000000,0.000000,0.367254,0.209717,0.851563,0.309814,0.560555,-0.591806,0.575204,7.873770,-50.874214,56.755604,,,,,,,,,,,,,,,,,,,,,,,,,
1577742171.892883,55.000000,0.000000,4250.256348,4345.641113,4142.051270,4092.307617,4195.897461,0.000000,4.000000,,,,0.000000,4.000000,4.000000,4.000000,4.000000,4.000000,,,,,,,,,,,,,,,,,,,,,,,,,,,,,,,,,,,,,
1577742171.900579,56.000000,0.000000,4265.128418,4338.461426,4160.512695,4112.820313,4212.820313,0.000000,4.000000,,,,0.000000,4.000000,4.000000,4.000000,4.000000,4.000000,28.000000,0.000000,0.367254,0.209717,0.851563,0.309814,0.549325,-0.596689,0.577646,10.555684,-51.050545,57.061581,,,,,,,,,,,,,,,,,,,,,,,,,
1577742171.908376,57.000000,0.000000,4266.153809,4348.205078,4165.641113,4116.410156,4220.000000,0.000000,4.000000,,,,0.000000,4.000000,4.000000,4.000000,4.000000,4.000000,,,,,,,,,,,,,,,,,,,,,,,,,,,,,,,,,,,,,
1577742171.916072,58.000000,0.000000,4282.051270,4367.179688,4176.922852,4135.897461,4239.487305,0.000000,4.000000,,,,0.000000,4.000000,4.000000,4.000000,4.000000,4.000000,29.000000,0.000000,0.367254,0.209717,0.851563,0.309814,0.552743,-0.603525,0.565438,10.098269,-51.149426,57.157513,,,,,,,,,,,,,,,,,,,,,,,,,
1577742171.923868,59.000000,0.000000,4286.666504,4359.487305,4184.615234,4144.615234,4249.743652,0.000000,4.000000,,,,0.000000,4.000000,4.000000,4.000000,4.000000,4.000000,,,,,,,,,,,,,7.067527,4.426036,5.948855,3.145473,3.987789,0.422086,0.888364,1.988085,0.883573,2.776816,1.807153,2.689809,3.355179,2.413611,2.839854,3.418903,4.306372,7.575559,3.176759,4.760975,3.807420,3.471635,6.294046,3.167721,3.968563
1577742171.931565,60.000000,0.000000,4265.641113,4331.282227,4176.410156,4122.051270,4228.717773,0.000000,4.000000,,,,0.000000,4.000000,4.000000,4.000000,4.000000,4.000000,30.000000,0.000000,0.367254,0.209717,0.851563,0.309814,0.563485,-0.602060,0.567391,9.746411,-51.118790,57.363483,,,,,,,,,,,,,,,,,,,,,,,,,
1577742171.939261,61.000000,0.000000,4248.717773,4324.615234,4161.538574,4107.179688,4208.205078,0.000000,4.000000,,,,0.000000,4.000000,4.000000,4.000000,4.000000,4.000000,,,,,,,,,,,,,,,,,,,,,,,,,,,,,,,,,,,,,
1577742171.946958,62.000000,0.000000,4244.615234,4348.717773,4151.282227,4107.179688,4208.717773,0.000000,4.000000,,,,0.000000,4.000000,4.000000,4.000000,4.000000,4.000000,31.000000,0.000000,0.367254,0.209717,0.851563,0.309814,0.569345,-0.605478,0.565438,8.472693,-51.210850,57.429226,,,,,,,,,,,,,,,,,,,,,,,,,
1577742171.954754,63.000000,0.000000,4227.179688,4358.461426,4139.487305,4089.230713,4192.820313,0.000000,4.000000,,,,0.000000,4.000000,4.000000,4.000000,4.000000,4.000000,,,,,,,,,,,,,,,,,,,,,,,,,,,,,,,,,,,,,
1577742171.962551,64.000000,0.000000,4216.922852,4334.871582,4138.974121,4081.025635,4174.358887,450.000000,4.000000,,,,0.000000,4.000000,4.000000,4.000000,4.000000,4.000000,32.000000,0.000000,0.367254,0.209717,0.851563,0.309814,0.565927,-0.606455,0.555673,11.154531,-51.413330,57.608025,,,,,,,,,,,,,,,,,,,,,,,,,
1577742171.970248,65.000000,0.000000,4253.846191,4335.384766,4173.846191,4124.615234,4208.717773,450.000000,4.000000,,,,0.000000,4.000000,4.000000,4.000000,4.000000,4.000000,,,,,,,,,,,,,,,,,,,,,,,,,,,,,,,,,,,,,
1577742171.978044,66.000000,0.000000,4282.051270,4361.538574,4196.922852,4150.769043,4236.922852,16205.000000,4.000000,,,,0.000000,4.000000,4.000000,4.000000,4.000000,4.000000,33.000000,0.000000,0.367254,0.209717,0.851563,0.309814,0.556649,-0.598154,0.556161,6.928679,-51.416119,57.768944,,,,,,,,,,,,,,,,,,,,,,,,,
1577742171.985741,67.000000,0.000000,4258.974121,4364.102539,4176.410156,4123.589844,4209.743652,450.000000,4.000000,,,,0.000000,4.000000,4.000000,4.000000,4.000000,4.000000,,,,,,,,,,,,,,,,,,,,,,,,,,,,,,,,,,,,,
1577742171.993537,68.000000,0.000000,4246.153809,4346.666504,4163.589844,4108.717773,4194.871582,16236.000000,4.000000,,,,0.000000,4.000000,4.000000,4.000000,4.000000,4.000000,34.000000,0.000000,0.367047,0.209717,0.851563,0.310059,0.571298,-0.604013,0.557137,6.953595,-51.538261,55.880047,,,,,,,,,,,,,,,,,,,,,,,,,
1577742172.001234,69.000000,0.000000,4249.743652,4333.333496,4161.025879,4106.666504,4197.948730,450.000000,4.000000,,,,0.000000,4.000000,4.000000,4.000000,4.000000,4.000000,,,,,,,,,,,,,,,,,,,,,,,,,,,,,,,,,,,,,
1577742172.009030,70.000000,0.000000,4229.743652,4340.000000,4157.436035,4096.410156,4178.974121,16139.000000,4.000000,,,,0.000000,4.000000,4.000000,4.000000,4.000000,4.000000,35.000000,0.000000,0.367047,0.209717,0.851563,0.310059,0.551766,-0.598154,0.556649,3.028206,-51.408924,54.239857,,,,,,,,,,,,,,,,,,,,,,,,,
1577742172.016827,71.000000,0.000000,4232.307617,4346.153809,4175.384766,4118.461426,4185.128418,450.000000,4.000000,,,,0.000000,4.000000,4.000000,4.000000,4.000000,4.000000,,,,,,,,,,,,,,,,,,,,,,,,,,,,,,,,,,,,,
1577742172.024523,72.000000,0.000000,4257.436035,4332.307617,4179.487305,4137.436035,4210.769043,450.000000,4.000000,,,,0.000000,4.000000,4.000000,4.000000,4.000000,4.000000,36.000000,0.000000,0.367047,0.209717,0.851563,0.310059,0.558114,-0.602060,0.576669,-0.504645,-51.412155,54.558147,,,,,,,,,,,,,,,,,,,,,,,,,
1577742172.032220,73.000000,0.000000,4221.025879,4324.615234,4130.769043,4083.589844,4171.282227,16194.000000,4.000000,,,,0.000000,4.000000,4.000000,4.000000,4.000000,4.000000,,,,,,,,,,,,,,,,,,,,,,,,,,,,,,,,,,,,,
1577742172.040016,74.000000,0.000000,4189.743652,4348.717773,4115.897461,4052.820557,4139.487305,450.000000,4.000000,,,,0.000000,4.000000,4.000000,4.000000,4.000000,4.000000,37.000000,0.000000,0.367187,0.209473,0.851563,0.310059,0.562020,-0.606455,0.562509,-0.753257,-51.355244,54.904423,,,,,,,,,,,,,,,,,,,,,,,,,
1577742172.047713,75.000000,0.000000,4247.692383,4362.051270,4166.153809,4115.384766,4193.333496,16206.000000,4.000000,,,,0.000000,4.000000,4.000000,4.000000,4.000000,4.000000,,,,,,,,,,,,,6.374345,5.014482,4.924738,3.079893,4.408071,0.501529,0.967688,1.934482,0.940104,2.908821,1.293727,2.588037,2.849373,2.376120,3.136121,3.467079,4.100726,5.751227,2.956673,5.012782,3.309007,3.714928,5.174936,3.016365,4.411718
1577742172.055410,76.000000,0.000000,4282.051270,4340.000000,4177.436035,4152.820313,4225.128418,450.000000,4.000000,,,,0.000000,4.000000,4.000000,4.000000,4.000000,4.000000,38.000000,0.000000,0.367187,0.209473,0.851563,0.310059,0.564950,-0.597177,0.569345,2.851175,-51.363842,55.395515,,,,,,,,,,,,,,,,,,,,,,,,,
1577742172.063206,77.000000,0.000000,4241.538574,4347.692383,4149.743652,4123.077148,4192.307617,450.000000,4.000000,,,,0.000000,4.000000,4.000000,4.000000,4.000000,4.000000,,,,,,,,,,,,,,,,,,,,,,,,,,,,,,,,,,,,,
1577742172.070903,78.000000,0.000000,4221.025879,4373.846191,4147.692383,4105.641113,4175.384766,450.000000,4.000000,,,,0.000000,4.000000,4.000000,4.000000,4.000000,4.000000,39.000000,0.000000,0.367187,0.209473,0.851563,0.310059,0.551766,-0.597665,0.550301,3.164212,-51.371578,55.777687,,,,,,,,,,,,,,,,,,,,,,,,,
1577742172.078699,79.000000,0.000000,4209.743652,4336.922852,4135.384766,4092.307617,4158.461426,16206.000000,4.000000,,,,0.000000,4.000000,4.000000,4.000000,4.000000,4.000000,,,,,,,,,,,,,,,,,,,,,,,,,,,,,,,,,,,,,
1577742172.086396,80.000000,0.000000,4183.077148,4305.641113,4116.922852,4082.564209,4130.256348,450.000000,4.000000,,,,0.000000,4.000000,4.000000,4.000000,4.000000,4.000000,40.000000,0.000000,0.367187,0.209473,0.851563,0.310059,0.560555,-0.596201,0.563973,6.376897,-51.378544,54.207546,,,,,,,,,,,,,,,,,,,,,,,,,
1577742172.094193,81.000000,0.000000,4201.025879,4353.846191,4147.179688,4121.538574,4155.897461,450.000000,4.000000,,,,0.000000,4.000000,4.000000,4.000000,4.000000,4.000000,,,,,,,,,,,,,,,,,,,,,,,,,,,,,,,,,,,,,
1577742172.101889,82.000000,0.000000,4229.743652,4381.025879,4172.307617,4145.641113,4192.307617,450.000000,4.000000,,,,0.000000,4.000000,4.000000,4.000000,4.000000,4.000000,41.000000,0.000000,0.367187,0.209473,0.851563,0.310059,0.568856,-0.598642,0.572763,2.628808,-51.265179,54.529068,,,,,,,,,,,,,,,,,,,,,,,,,
1577742172.109686,83.000000,0.000000,4220.000000,4348.717773,4156.922852,4124.102539,4185.128418,16206.000000,4.000000,,,,0.000000,4.000000,4.000000,4.000000,4.000000,4.000000,,,,,,,,,,,,,,,,,,,,,,,,,,,,,,,,,,,,,
1577742172.117382,84.000000,0.000000,4208.717773,4326.666504,4153.846191,4117.436035,4174.358887,450.000000,4.000000,,,,0.000000,4.000000,4.000000,4.000000,4.000000,4.000000,42.000000,0.000000,0.367120,0.209229,0.851563,0.310303,0.560555,-0.603037,0.563485,3.143527,-51.462227,54.878250,,,,,,,,,,,,,,,,,,,,,,,,,
1577742172.125179,85.000000,0.000000,4200.512695,4328.717773,4153.846191,4110.256348,4162.563965,450.000000,4.000000,,,,0.000000,4.000000,4.000000,4.000000,4.000000,4.000000,,,,,,,,,,,,,,,,,,,,,,,,,,,,,,,,,,,,,
1577742172.132975,86.000000,0.000000,4188.717773,4340.000000,4142.563965,4086.153809,4148.717773,450.000000,4.000000,,,,0.000000,4.000000,4.000000,4.000000,4.000000,4.000000,43.000000,0.000000,0.367120,0.209229,0.851563,0.310303,0.560067,-0.595224,0.577157,3.546959,-51.519943,55.312149,,,,,,,,,,,,,,,,,,,,,,,,,
1577742172.140672,87.000000,0.000000,4202.051270,4357.436035,4146.666504,4098.461426,4160.512695,16206.000000,4.000000,,,,0.000000,4.000000,4.000000,4.000000,4.000000,4.000000,,,,,,,,,,,,,,,,,,,,,,,,,,,,,,,,,,,,,
1577742172.148368,88.000000,0.000000,4225.128418,4361.538574,4158.461426,4136.410156,4183.077148,450.000000,4.000000,,,,0.000000,4.000000,4.000000,4.000000,4.000000,4.000000,44.000000,0.000000,0.367120,0.209229,0.851563,0.310303,0.566903,-0.606455,0.565438,3.790417,-51.332623,55.642838,,,,,,,,,,,,,,,,,,,,,,,,,
1577742172.156165,89.000000,0.000000,4199.487305,4338.461426,4132.307617,4114.358887,4163.077148,450.000000,4.000000,,,,0.000000,4.000000,4.000000,4.000000,4.000000,4.000000,,,,,,,,,,,,,,,,,,,,,,,,,,,,,,,,,,,,,
1577742172.163862,90.000000,0.000000,4150.256348,4329.743652,4108.205078,4053.846191,4114.871582,450.000000,4.000000,,,,0.000000,4.000000,4.000000,4.000000,4.000000,4.000000,45.000000,0.000000,0.367120,0.209229,0.851563,0.310303,0.563485,-0.594247,0.563973,7.119927,-51.343483,55.820831,,,,,,,,,,,,,,,,,,,,,,,,,
1577742172.171658,91.000000,0.000000,4166.666504,4351.794922,4146.153809,4067.692383,4125.128418,16206.000000,4.000000,,,,0.000000,4.000000,4.000000,4.000000,4.000000,4.000000,,,,,,,,,,,,,6.808147,6.663784,4.685114,3.078545,4.742656,0.628316,1.019807,1.803360,1.092106,2.955705,0.880544,3.040467,2.676859,2.359993,3.281633,3.307905,4.724227,4.536218,2.946628,5.028845,3.094603,4.974871,4.742679,2.992821,4.695310
1577742172.179355,92.000000,0.000000,4212.820313,4348.205078,4175.384766,4121.025879,4176.410156,450.000000,4.000000,,,,0.000000,4.000000,4.000000,4.000000,4.000000,4.000000,46.000000,0.000000,0.367259,0.208984,0.851563,0.310303,0.555673,-0.599130,0.564462,7.125719,-51.293442,56.280098,,,,,,,,,,,,,,,,,,,,,,,,,
1577742172.187151,93.000000,0.000000,4202.563965,4320.512695,4144.102539,4111.794922,4175.897461,450.000000,4.000000,,,,0.000000,4.000000,4.000000,4.000000,4.000000,4.000000,,,,,,,,,,,,,,,,,,,,,,,,,,,,,,,,,,,,,
1577742172.194848,94.000000,0.000000,4164.615234,4330.256348,4112.307617,4077.435791,4136.410156,450.000000,4.000000,,,,0.000000,4.000000,4.000000,4.000000,4.000000,4.000000,47.000000,0.000000,0.367465,0.208984,0.851563,0.310059,0.563973,-0.597665,0.557626,3.302748,-51.128773,56.633625,,,,,,,,,,,,,,,,,,,,,,,,,
1577742172.202644,95.000000,0.000000,4158.461426,4355.897461,4123.077148,4086.153809,4131.282227,16206.000000,4.000000,,,,0.000000,4.000000,4.000000,4.000000,4.000000,4.000000,,,,,,,,,,,,,,,,,,,,,,,,,,,,,,,,,,,,,
1577742172.210441,96.000000,0.000000,4183.077148,4344.102539,4146.153809,4121.538574,4167.692383,450.000000,4.000000,,,,0.000000,4.000000,4.000000,4.000000,4.000000,4.000000,48.000000,0.000000,0.367259,0.208984,0.851563,0.310303,0.560555,-0.597177,0.556161,3.570627,-51.100201,54.918076,,,,,,,,,,,,,,,,,,,,,,,,,
1577742172.218137,97.000000,0.000000,4188.717773,4330.256348,4148.717773,4140.000000,4180.512695,450.000000,4.000000,,,,0.000000,4.000000,4.000000,4.000000,4.000000,4.000000,,,,,,,,,,,,,,,,,,,,,,,,,,,,,,,,,,,,,
1577742172.225834,98.000000,0.000000,4169.230957,4345.641113,4135.897461,4129.230957,4152.307617,450.000000,4.000000,,,,0.000000,4.000000,4.000000,4.000000,4.000000,4.000000,49.000000,0.000000,0.367259,0.208984,0.851563,0.310303,0.571298,-0.595712,0.557137,3.811718,-51.194118,55.347992,,,,,,,,,,,,,,,,,,,,,,,,,
1577742172.233531,99.000000,0.000000,4169.743652,4352.307617,4140.512695,4123.077148,4144.615234,16206.000000,4.000000,,,,0.000000,4.000000,4.000000,4.000000,4.000000,4.000000,,,,,,,,,,,,,,,,,,,,,,,,,,,,,,,,,,,,,
1577742172.241327,100.000000,0.000000,4188.205078,4342.563965,4157.436035,4133.846191,4167.179688,450.000000,4.000000,,,,0.000000,4.000000,4.000000,4.000000,4.000000,4.000000,50.000000,0.000000,0.367259,0.208984,0.851563,0.310303,0.559091,-0.611826,0.573739,0.379963,-51.159012,53.880638,,,,,,,,,,,,,,,,,,,,,,,,,
1577742172.249124,101.000000,0.000000,4178.461426,4326.153809,4143.589844,4121.025879,4155.384766,450.000000,4.000000,,,,0.000000,4.000000,4.000000,4.000000,4.000000,4.000000,,,,,,,,,,,,,,,,,,,,,,,,,,,,,,,,,,,,,
1577742172.256820,102.000000,0.000000,4162.563965,4327.692383,4127.692383,4100.512695,4131.282227,450.000000,4.000000,,,,0.000000,4.000000,4.000000,4.000000,4.000000,4.000000,51.000000,0.000000,0.367259,0.208984,0.851563,0.310303,0.560555,-0.597177,0.556161,0.940120,-51.127419,52.440388,,,,,,,,,,,,,,,,,,,,,,,,,
1577742172.264617,103.000000,0.000000,4162.563965,4345.641113,4129.743652,4101.538574,4136.410156,16206.000000,4.000000,,,,0.000000,4.000000,4.000000,4.000000,4.000000,4.000000,,,,,,,,,,,,,,,,,,,,,,,,,,,,,,,,,,,,,
1577742172.272313,104.000000,0.000000,4153.333496,4345.128418,4120.512695,4091.281982,4130.769043,450.000000,4.000000,,,,0.000000,4.000000,4.000000,4.000000,4.000000,4.000000,52.000000,0.000000,0.367259,0.208984,0.851563,0.310303,0.559091,-0.611826,0.573739,-2.204476,-51.098980,51.263794,,,,,,,,,,,,,,,,,,,,,,,,,
1577742172.280109,105.000000,0.000000,4165.128418,4332.820313,4127.692383,4098.461426,4139.487305,450.000000,4.000000,,,,0.000000,4.000000,4.000000,4.000000,4.000000,4.000000,,,,,,,,,,,,,,,,,,,,,,,,,,,,,,,,,,,,,
1577742172.287806,106.000000,0.000000,4190.769043,4344.615234,4147.692383,4129.743652,4173.333496,450.000000,4.000000,,,,0.000000,4.000000,4.000000,4.000000,4.000000,4.000000,53.000000,0.000000,0.367259,0.208984,0.851563,0.310303,0.567391,-0.594247,0.559579,-1.266244,-51.193020,51.999321,,,,,,,,,,,,,,,,,,,,,,,,,
1577742172.295602,107.000000,0.000000,4181.025879,4360.000000,4138.974121,4121.025879,4161.025879,16206.000000,4.000000,,,,0.000000,4.000000,4.000000,4.000000,4.000000,4.000000,,,,,,,,,,,,,9.588982,9.543580,6.078883,3.199179,4.998940,0.781318,1.020289,1.717090,1.366072,2.957555,0.697328,4.080909,3.310244,2.395575,3.304432,3.042628,6.223355,4.667225,3.233540,4.922717,3.731891,7.434992,5.787403,3.187732,4.817233
1577742172.303299,108.000000,0.000000,4171.282227,4346.666504,4131.794922,4110.256348,4142.051270,450.000000,4.000000,,,,0.000000,4.000000,4.000000,4.000000,4.000000,4.000000,54.000000,0.000000,0.367259,0.208984,0.851563,0.310303,0.553231,-0.595712,0.564462,-4.250018,-51.098209,52.721107,,,,,,,,,,,,,,,,,,,,,,,,,
1577742172.311095,109.000000,0.000000,4202.563965,4344.615234,4163.589844,4153.846191,4183.077148,450.000000,4.000000,,,,0.000000,4.000000,4.000000,4.000000,4.000000,4.000000,,,,,,,,,,,,,,,,,,,,,,,,,,,,,,,,,,,,,
1577742172.318791,110.000000,0.000000,4224.615234,4368.205078,4186.153809,4181.538574,4212.307617,450.000000,4.000000,,,,0.000000,4.000000,4.000000,4.000000,4.000000,4.000000,55.000000,0.000000,0.367259,0.208984,0.851563,0.310303,0.572763,-0.602060,0.563973,-0.415541,-51.012878,53.370720,,,,,,,,,,,,,,,,,,,,,,,,,
1577742172.326587,111.000000,0.000000,4196.922852,4361.538574,4166.666504,4150.256348,4181.538574,16206.000000,4.000000,,,,0.000000,4.000000,4.000000,4.000000,4.000000,4.000000,,,,,,,,,,,,,,,,,,,,,,,,,,,,,,,,,,,,,
1577742172.334284,112.000000,0.000000,4155.384766,4325.641113,4136.922852,4113.846191,4144.102539,450.000000,4.000000,,,,0.000000,4.000000,4.000000,4.000000,4.000000,4.000000,56.000000,0.000000,0.367398,0.208740,0.851563,0.310303,0.561532,-0.596689,0.582528,3.095305,-50.876266,53.895554,,,,,,,,,,,,,,,,,,,,,,,,,
1577742172.341981,113.000000,0.000000,4147.692383,4324.102539,4125.128418,4103.589844,4137.948730,450.000000,4.000000,,,,0.000000,4.000000,4.000000,4.000000,4.000000,4.000000,,,,,,,,,,,,,,,,,,,,,,,,,,,,,,,,,,,,,
1577742172.349777,114.000000,0.000000,4170.256348,4348.205078,4134.871582,4109.230957,4153.333496,450.000000,4.000000,,,,0.000000,4.000000,4.000000,4.000000,4.000000,4.000000,57.000000,0.000000,0.367398,0.208740,0.851563,0.310303,0.554208,-0.595224,0.570809,-0.444256,-50.813129,54.427719,,,,,,,,,,,,,,,,,,,,,,,,,
1577742172.357574,115.000000,0.000000,4175.384766,4349.743652,4135.897461,4114.358887,4156.410156,16206.000000,4.000000,,,,0.000000,4.000000,4.000000,4.000000,4.000000,4.000000,,,,,,,,,,,,,,,,,,,,,,,,,,,,,,,,,,,,,
1577742172.365270,116.000000,0.000000,4160.512695,4332.820313,4128.717773,4110.256348,4138.974121,450.000000,4.000000,,,,0.000000,4.000000,4.000000,4.000000,4.000000,4.000000,58.000000,0.000000,0.367604,0.208740,0.851563,0.310059,0.556161,-0.603037,0.571298,0.317954,-50.935753,54.787037,,,,,,,,,,,,,,,,,,,,,,,,,
1577742172.372967,117.000000,0.000000,4171.282227,4334.871582,4146.666504,4118.461426,4148.717773,450.000000,4.000000,,,,0.000000,4.000000,4.000000,4.000000,4.000000,4.000000,,,,,,,,,,,,,,,,,,,,,,,,,,,,,,,,,,,,,
1577742172.380763,118.000000,0.000000,4206.153809,4357.948730,4169.743652,4148.205078,4190.256348,450.000000,4.000000,,,,0.000000,4.000000,4.000000,4.000000,4.000000,4.000000,59.000000,0.000000,0.367604,0.208740,0.851563,0.310059,0.550790,-0.595224,0.556649,3.755450,-50.866669,53.315964,,,,,,,,,,,,,,,,,,,,,,,,,
