title:002, start timestamp:2019-12-31T00:43:09.026368+03:00, stop timestamp:2019-12-31T00:43:20.414303+03:00, headset type:INSIGHT, headset serial:A2D200FB, headset firmware:930, subject name:Qasim, channels:56, sampling rate:eeg_128;mot_64;pow_8, samples:1462      , version:2.0
Timestamp,EEG.Counter,EEG.Interpolated,EEG.AF3,EEG.T7,EEG.Pz,EEG.T8,EEG.AF4,EEG.RawCq,EEG.Battery,MarkerIndex,MarkerType,MarkerValueInt,EEG.MarkerHardware,CQ.AF3,CQ.T7,CQ.Pz,CQ.T8,CQ.AF4,MOT.CounterMems,MOT.InterpolatedMems,MOT.Q0,MOT.Q1,MOT.Q2,MOT.Q3,MOT.AccX,MOT.AccY,MOT.AccZ,MOT.MagX,MOT.MagY,MOT.MagZ,POW.AF3.Theta,POW.AF3.Alpha,POW.AF3.BetaL,POW.AF3.BetaH,POW.AF3.Gamma,POW.T7.Theta,POW.T7.Alpha,POW.T7.BetaL,POW.T7.BetaH,POW.T7.Gamma,POW.Pz.Theta,POW.Pz.Alpha,POW.Pz.BetaL,POW.Pz.BetaH,POW.Pz.Gamma,POW.T8.Theta,POW.T8.Alpha,POW.T8.BetaL,POW.T8.BetaH,POW.T8.Gamma,POW.AF4.Theta,POW.AF4.Alpha,POW.AF4.BetaL,POW.AF4.BetaH,POW.AF4.Gamma
1577742189.026368,75.000000,0.000000,4183.589844,4347.179688,4134.358887,4122.563965,4147.179688,16210.000000,4.000000,,,,0.000000,4.000000,4.000000,4.000000,4.000000,4.000000,,,,,,,,,,,,,27.461941,7.133205,6.485777,3.667245,4.663393,0.674547,0.907899,1.993081,1.146397,3.696716,2.413438,3.825897,5.219823,1.866523,3.674370,2.478155,5.459420,8.799801,3.278452,5.373296,9.032619,7.625423,8.804821,3.152315,4.598291
1577742189.034065,76.000000,0.000000,4191.794922,4355.384766,4143.077148,4128.717773,4159.487305,450.000000,4.000000,,,,0.000000,4.000000,4.000000,4.000000,4.000000,4.000000,38.000000,0.000000,0.357946,0.211182,0.858887,0.299316,0.549325,-0.568368,0.592294,5.817001,-49.436741,55.763824,,,,,,,,,,,,,,,,,,,,,,,,,
1577742189.041862,77.000000,0.000000,4178.974121,4342.051270,4134.358887,4112.820313,4143.077148,450.000000,4.000000,,,,0.000000,4.000000,4.000000,4.000000,4.000000,4.000000,,,,,,,,,,,,,,,,,,,,,,,,,,,,,,,,,,,,,
1577742189.049559,78.000000,0.000000,4168.717773,4345.128418,4115.384766,4102.051270,4129.743652,450.000000,4.000000,,,,0.000000,4.000000,4.000000,4.000000,4.000000,4.000000,39.000000,0.000000,0.358328,0.211182,0.858643,0.299561,0.544442,-0.579599,0.594247,6.012901,-49.338112,56.348427,,,,,,,,,,,,,,,,,,,,,,,,,
1577742189.057355,79.000000,0.000000,4158.461426,4363.077148,4101.025879,4100.000000,4130.769043,16210.000000,4.000000,,,,0.000000,4.000000,4.000000,4.000000,4.000000,4.000000,,,,,,,,,,,,,,,,,,,,,,,,,,,,,,,,,,,,,
1577742189.065052,80.000000,0.000000,4181.538574,4364.615234,4125.128418,4132.307617,4168.717773,450.000000,4.000000,,,,0.000000,4.000000,4.000000,4.000000,4.000000,4.000000,40.000000,0.000000,0.358123,0.211182,0.858643,0.299805,0.567391,-0.582528,0.592294,6.189210,-49.249344,56.994194,,,,,,,,,,,,,,,,,,,,,,,,,
1577742189.072949,81.000000,0.000000,4219.487305,4365.641113,4158.461426,4177.436035,4214.871582,450.000000,4.000000,,,,0.000000,4.000000,4.000000,4.000000,4.000000,4.000000,,,,,,,,,,,,,,,,,,,,,,,,,,,,,,,,,,,,,
1577742189.080746,82.000000,0.000000,4206.666504,4357.436035,4143.589844,4163.077148,4200.512695,450.000000,4.000000,,,,0.000000,4.000000,4.000000,4.000000,4.000000,4.000000,41.000000,0.000000,0.357919,0.211182,0.858643,0.300049,0.556161,-0.596689,0.585946,6.347889,-49.289085,55.422035,,,,,,,,,,,,,,,,,,,,,,,,,
1577742189.088643,83.000000,0.000000,4171.794922,4343.077148,4114.871582,4123.077148,4151.794922,16210.000000,4.000000,,,,0.000000,4.000000,4.000000,4.000000,4.000000,4.000000,,,,,,,,,,,,,,,,,,,,,,,,,,,,,,,,,,,,,
1577742189.096440,84.000000,0.000000,4166.153809,4351.282227,4116.410156,4120.000000,4133.333496,450.000000,4.000000,,,,0.000000,4.000000,4.000000,4.000000,4.000000,4.000000,42.000000,0.000000,0.358328,0.211182,0.858643,0.299561,0.544442,-0.579599,0.594247,9.421653,-49.384666,54.066910,,,,,,,,,,,,,,,,,,,,,,,,,
1577742189.104337,85.000000,0.000000,4195.384766,4374.358887,4140.000000,4144.102539,4166.666504,450.000000,4.000000,,,,0.000000,4.000000,4.000000,4.000000,4.000000,4.000000,,,,,,,,,,,,,,,,,,,,,,,,,,,,,,,,,,,,,
1577742189.112134,86.000000,0.000000,4207.179688,4355.897461,4138.461426,4147.179688,4183.077148,450.000000,4.000000,,,,0.000000,4.000000,4.000000,4.000000,4.000000,4.000000,43.000000,0.000000,0.357919,0.211182,0.858643,0.300049,0.556161,-0.596689,0.585946,9.257088,-49.410877,52.787479,,,,,,,,,,,,,,,,,,,,,,,,,
1577742189.120031,87.000000,0.000000,4148.205078,4319.487305,4089.230713,4089.743652,4118.974121,16210.000000,4.000000,,,,0.000000,4.000000,4.000000,4.000000,4.000000,4.000000,,,,,,,,,,,,,,,,,,,,,,,,,,,,,,,,,,,,,
1577742189.127827,88.000000,0.000000,4118.974121,4348.205078,4085.128174,4064.102539,4090.256348,450.000000,4.000000,,,,0.000000,4.000000,4.000000,4.000000,4.000000,4.000000,44.000000,0.000000,0.357570,0.211426,0.858643,0.300293,0.556161,-0.600595,0.599130,11.980116,-49.374649,53.490265,,,,,,,,,,,,,,,,,,,,,,,,,
1577742189.135724,89.000000,0.000000,4157.436035,4383.589844,4136.922852,4109.743652,4137.948730,450.000000,4.000000,,,,0.000000,4.000000,4.000000,4.000000,4.000000,4.000000,,,,,,,,,,,,,,,,,,,,,,,,,,,,,,,,,,,,,
1577742189.143521,90.000000,0.000000,4172.307617,4367.692383,4160.512695,4137.436035,4158.974121,450.000000,4.000000,,,,0.000000,4.000000,4.000000,4.000000,4.000000,4.000000,45.000000,0.000000,0.357570,0.211426,0.858643,0.300293,0.553231,-0.590829,0.593759,14.430841,-49.401859,52.268501,,,,,,,,,,,,,,,,,,,,,,,,,
1577742189.151218,91.000000,0.000000,4177.948730,4360.512695,4168.717773,4150.256348,4160.512695,16210.000000,4.000000,,,,0.000000,4.000000,4.000000,4.000000,4.000000,4.000000,,,,,,,,,,,,,23.803310,6.435529,6.543708,3.831062,4.606403,0.554145,0.701265,1.584236,1.237051,3.513855,2.211316,4.127602,4.826005,1.966599,3.564291,2.021515,5.814022,8.930345,3.473273,5.377474,6.581398,7.621733,8.858667,3.261374,4.610313
1577742189.159015,92.000000,0.000000,4185.641113,4355.384766,4166.666504,4153.846191,4165.128418,450.000000,4.000000,,,,0.000000,4.000000,4.000000,4.000000,4.000000,4.000000,46.000000,0.000000,0.357714,0.211182,0.858643,0.300293,0.546883,-0.582040,0.595224,13.765357,-49.366535,53.142818,,,,,,,,,,,,,,,,,,,,,,,,,
1577742189.166711,93.000000,0.000000,4156.922852,4335.897461,4137.948730,4121.538574,4142.051270,450.000000,4.000000,,,,0.000000,4.000000,4.000000,4.000000,4.000000,4.000000,,,,,,,,,,,,,,,,,,,,,,,,,,,,,,,,,,,,,
1577742189.174508,94.000000,0.000000,4151.282227,4337.948730,4137.436035,4118.974121,4135.384766,450.000000,4.000000,,,,0.000000,4.000000,4.000000,4.000000,4.000000,4.000000,47.000000,0.000000,0.357509,0.211182,0.858643,0.300537,0.547860,-0.589364,0.581552,16.037560,-49.334740,53.810074,,,,,,,,,,,,,,,,,,,,,,,,,
1577742189.182205,95.000000,0.000000,4178.974121,4352.820313,4166.666504,4144.102539,4161.025879,16210.000000,4.000000,,,,0.000000,4.000000,4.000000,4.000000,4.000000,4.000000,,,,,,,,,,,,,,,,,,,,,,,,,,,,,,,,,,,,,
1577742189.190002,96.000000,0.000000,4182.563965,4362.563965,4171.282227,4141.538574,4168.205078,450.000000,4.000000,,,,0.000000,4.000000,4.000000,4.000000,4.000000,4.000000,48.000000,0.000000,0.358034,0.210938,0.858398,0.300781,0.549813,-0.587900,0.582528,18.022724,-49.485573,52.616142,,,,,,,,,,,,,,,,,,,,,,,,,
1577742189.197699,97.000000,0.000000,4180.512695,4368.205078,4163.589844,4142.051270,4169.230957,450.000000,4.000000,,,,0.000000,4.000000,4.000000,4.000000,4.000000,4.000000,,,,,,,,,,,,,,,,,,,,,,,,,,,,,,,,,,,,,
1577742189.205495,98.000000,0.000000,4162.051270,4342.563965,4149.743652,4133.333496,4154.871582,450.000000,4.000000,,,,0.000000,4.000000,4.000000,4.000000,4.000000,4.000000,49.000000,0.000000,0.358034,0.210938,0.858398,0.300781,0.551766,-0.578622,0.580575,19.689743,-49.621323,53.336063,,,,,,,,,,,,,,,,,,,,,,,,,
1577742189.213192,99.000000,0.000000,4142.051270,4331.282227,4143.589844,4114.871582,4133.846191,16210.000000,4.000000,,,,0.000000,4.000000,4.000000,4.000000,4.000000,4.000000,,,,,,,,,,,,,,,,,,,,,,,,,,,,,,,,,,,,,
1577742189.221089,100.000000,0.000000,4168.205078,4368.717773,4161.025879,4129.230957,4152.820313,450.000000,4.000000,,,,0.000000,4.000000,4.000000,4.000000,4.000000,4.000000,50.000000,0.000000,0.357972,0.210693,0.858398,0.301025,0.542000,-0.586435,0.595712,18.378738,-49.504234,53.924179,,,,,,,,,,,,,,,,,,,,,,,,,
1577742189.228886,101.000000,0.000000,4162.051270,4364.615234,4154.871582,4122.563965,4143.589844,450.000000,4.000000,,,,0.000000,4.000000,4.000000,4.000000,4.000000,4.000000,,,,,,,,,,,,,,,,,,,,,,,,,,,,,,,,,,,,,
1577742189.236783,102.000000,0.000000,4127.692383,4322.563965,4143.077148,4095.384521,4110.769043,450.000000,4.000000,,,,0.000000,4.000000,4.000000,4.000000,4.000000,4.000000,51.000000,0.000000,0.357767,0.210693,0.858398,0.301270,0.545907,-0.585458,0.596689,16.421234,-49.518486,54.513298,,,,,,,,,,,,,,,,,,,,,,,,,
1577742189.244580,103.000000,0.000000,4144.615234,4338.461426,4169.230957,4117.436035,4134.871582,16210.000000,4.000000,,,,0.000000,4.000000,4.000000,4.000000,4.000000,4.000000,,,,,,,,,,,,,,,,,,,,,,,,,,,,,,,,,,,,,
1577742189.252477,104.000000,0.000000,4142.563965,4364.102539,4168.205078,4119.487305,4137.436035,450.000000,4.000000,,,,0.000000,4.000000,4.000000,4.000000,4.000000,4.000000,52.000000,0.000000,0.358147,0.210693,0.858154,0.301514,0.547372,-0.593271,0.592294,11.668712,-49.471497,55.103317,,,,,,,,,,,,,,,,,,,,,,,,,
1577742189.260274,105.000000,0.000000,4105.641113,4337.436035,4130.256348,4084.615479,4094.871826,450.000000,4.000000,,,,0.000000,4.000000,4.000000,4.000000,4.000000,4.000000,,,,,,,,,,,,,,,,,,,,,,,,,,,,,,,,,,,,,
1577742189.268171,106.000000,0.000000,4131.282227,4332.820313,4142.563965,4110.256348,4115.897461,450.000000,4.000000,,,,0.000000,4.000000,4.000000,4.000000,4.000000,4.000000,53.000000,0.000000,0.357797,0.210938,0.858154,0.301758,0.552254,-0.595712,0.599619,11.219625,-49.429207,55.694153,,,,,,,,,,,,,,,,,,,,,,,,,
1577742189.275968,107.000000,0.000000,4155.384766,4365.128418,4155.897461,4136.922852,4143.077148,16210.000000,4.000000,,,,0.000000,4.000000,4.000000,4.000000,4.000000,4.000000,,,,,,,,,,,,,29.964214,8.027802,6.975108,3.977452,4.549523,0.521888,0.486753,1.279606,1.347280,3.258609,2.168597,4.196338,4.465467,2.118883,3.533555,1.722938,5.904344,9.240764,3.780918,5.383864,10.095095,8.643041,9.460027,3.452760,4.644077
1577742189.283865,108.000000,0.000000,4134.871582,4371.794922,4128.717773,4114.358887,4121.538574,450.000000,4.000000,,,,0.000000,4.000000,4.000000,4.000000,4.000000,4.000000,54.000000,0.000000,0.358033,0.211182,0.857910,0.302002,0.552743,-0.604013,0.590341,6.987263,-49.510777,55.986645,,,,,,,,,,,,,,,,,,,,,,,,,
1577742189.291662,109.000000,0.000000,4150.256348,4358.461426,4139.487305,4122.051270,4133.846191,450.000000,4.000000,,,,0.000000,4.000000,4.000000,4.000000,4.000000,4.000000,,,,,,,,,,,,,,,,,,,,,,,,,,,,,,,,,,,,,
1577742189.299459,110.000000,0.000000,4173.333496,4352.820313,4168.717773,4139.487305,4156.410156,450.000000,4.000000,,,,0.000000,4.000000,4.000000,4.000000,4.000000,4.000000,55.000000,0.000000,0.357888,0.211426,0.857910,0.302002,0.535164,-0.589364,0.604501,7.066136,-49.464561,56.429333,,,,,,,,,,,,,,,,,,,,,,,,,
1577742189.307156,111.000000,0.000000,4160.000000,4354.871582,4158.461426,4124.615234,4141.025879,16210.000000,4.000000,,,,0.000000,4.000000,4.000000,4.000000,4.000000,4.000000,,,,,,,,,,,,,,,,,,,,,,,,,,,,,,,,,,,,,
1577742189.315052,112.000000,0.000000,4136.922852,4358.461426,4138.461426,4111.794922,4120.000000,450.000000,4.000000,,,,0.000000,4.000000,4.000000,4.000000,4.000000,4.000000,56.000000,0.000000,0.358473,0.211426,0.857666,0.302002,0.545907,-0.583993,0.593759,7.196938,-49.303333,56.947380,,,,,,,,,,,,,,,,,,,,,,,,,
1577742189.322849,113.000000,0.000000,4126.153809,4351.794922,4136.922852,4107.179688,4118.974121,450.000000,4.000000,,,,0.000000,4.000000,4.000000,4.000000,4.000000,4.000000,,,,,,,,,,,,,,,,,,,,,,,,,,,,,,,,,,,,,
1577742189.330746,114.000000,0.000000,4149.230957,4340.512695,4152.820313,4116.410156,4142.051270,450.000000,4.000000,,,,0.000000,4.000000,4.000000,4.000000,4.000000,4.000000,57.000000,0.000000,0.358123,0.211670,0.857666,0.302246,0.572763,-0.585946,0.591318,3.307030,-49.277859,57.234180,,,,,,,,,,,,,,,,,,,,,,,,,
1577742189.338543,115.000000,0.000000,4186.666504,4363.589844,4178.974121,4146.666504,4168.205078,16210.000000,4.000000,,,,0.000000,4.000000,4.000000,4.000000,4.000000,4.000000,,,,,,,,,,,,,,,,,,,,,,,,,,,,,,,,,,,,,
1577742189.346239,116.000000,0.000000,4184.102539,4384.615234,4181.538574,4149.230957,4166.666504,450.000000,4.000000,,,,0.000000,4.000000,4.000000,4.000000,4.000000,4.000000,58.000000,0.000000,0.358061,0.211426,0.857666,0.302490,0.564950,-0.587900,0.583017,-0.134072,-49.254932,57.492298,,,,,,,,,,,,,,,,,,,,,,,,,
1577742189.354036,117.000000,0.000000,4148.717773,4344.102539,4150.769043,4111.794922,4141.538574,450.000000,4.000000,,,,0.000000,4.000000,4.000000,4.000000,4.000000,4.000000,,,,,,,,,,,,,,,,,,,,,,,,,,,,,,,,,,,,,
1577742189.361733,118.000000,0.000000,4144.102539,4314.358887,4139.487305,4097.436035,4136.410156,450.000000,4.000000,,,,0.000000,4.000000,4.000000,4.000000,4.000000,4.000000,59.000000,0.000000,0.358501,0.211670,0.857422,0.302490,0.554696,-0.580087,0.581064,0.537304,-49.294117,57.784420,,,,,,,,,,,,,,,,,,,,,,,,,
1577742189.369530,119.000000,0.000000,4167.179688,4358.461426,4148.717773,4112.820313,4149.743652,16210.000000,4.000000,,,,0.000000,4.000000,4.000000,4.000000,4.000000,4.000000,,,,,,,,,,,,,,,,,,,,,,,,,,,,,,,,,,,,,
1577742189.377227,120.000000,0.000000,4182.051270,4394.871582,4157.948730,4126.666504,4165.641113,450.000000,4.000000,,,,0.000000,4.000000,4.000000,4.000000,4.000000,4.000000,60.000000,0.000000,0.358295,0.211670,0.857422,0.302734,0.559091,-0.586923,0.588876,1.261173,-49.090118,57.927700,,,,,,,,,,,,,,,,,,,,,,,,,
1577742189.385124,121.000000,0.000000,4169.230957,4362.051270,4161.538574,4119.487305,4164.102539,450.000000,4.000000,,,,0.000000,4.000000,4.000000,4.000000,4.000000,4.000000,,,,,,,,,,,,,,,,,,,,,,,,,,,,,,,,,,,,,
1577742189.392921,122.000000,0.000000,4137.948730,4337.948730,4146.666504,4093.846191,4132.307617,450.000000,4.000000,,,,0.000000,4.000000,4.000000,4.000000,4.000000,4.000000,61.000000,0.000000,0.358735,0.211914,0.857178,0.302734,0.559091,-0.576669,0.583017,1.912656,-49.026150,58.415543,,,,,,,,,,,,,,,,,,,,,,,,,
1577742189.400718,123.000000,0.000000,4154.358887,4371.794922,4152.820313,4112.820313,4137.948730,16210.000000,4.000000,,,,0.000000,4.000000,4.000000,4.000000,4.000000,4.000000,,,,,,,,,,,,,41.126930,10.564905,7.604288,4.083467,4.545515,0.541040,0.316315,1.115005,1.466888,2.949537,2.373490,4.034306,4.085403,2.303200,3.604243,1.614096,5.753777,9.409682,4.146063,5.433275,17.529230,10.013973,10.048829,3.709982,4.751608
1577742189.408414,124.000000,0.000000,4209.230957,4385.128418,4194.871582,4174.358887,4191.282227,450.000000,4.000000,,,,0.000000,4.000000,4.000000,4.000000,4.000000,4.000000,62.000000,0.000000,0.358529,0.211914,0.857178,0.302979,0.562509,-0.584482,0.576181,5.250497,-49.088211,58.615341,,,,,,,,,,,,,,,,,,,,,,,,,
1577742189.416211,125.000000,0.000000,4201.025879,4340.512695,4188.205078,4173.333496,4188.205078,450.000000,4.000000,,,,0.000000,4.000000,4.000000,4.000000,4.000000,4.000000,,,,,,,,,,,,,,,,,,,,,,,,,,,,,,,,,,,,,
1577742189.423908,126.000000,0.000000,4132.820313,4317.948730,4127.179688,4107.179688,4120.512695,450.000000,4.000000,,,,0.000000,4.000000,4.000000,4.000000,4.000000,4.000000,63.000000,0.000000,0.359050,0.211670,0.856934,0.303223,0.581552,-0.576181,0.570321,8.374185,-49.144066,58.795158,,,,,,,,,,,,,,,,,,,,,,,,,
1577742189.431705,127.000000,0.000000,4108.205078,4355.897461,4119.487305,4082.051270,4097.436035,236.000000,4.000000,,,,0.000000,4.000000,4.000000,4.000000,4.000000,4.000000,,,,,,,,,,,,,,,,,,,,,,,,,,,,,,,,,,,,,
1577742189.439402,0.000000,0.000000,4139.487305,4371.794922,4168.205078,4114.358887,4134.871582,450.000000,4.000000,,,,0.000000,4.000000,4.000000,4.000000,4.000000,4.000000,0.000000,0.000000,0.358781,0.211426,0.856934,0.303711,0.564950,-0.571786,0.573251,11.185503,-49.254150,59.076626,,,,,,,,,,,,,,,,,,,,,,,,,
1577742189.447198,1.000000,0.000000,4170.769043,4343.589844,4183.077148,4138.461426,4163.589844,450.000000,4.000000,,,,0.000000,4.000000,4.000000,4.000000,4.000000,4.000000,,,,,,,,,,,,,,,,,,,,,,,,,,,,,,,,,,,,,
1577742189.454895,2.000000,0.000000,4149.230957,4334.358887,4140.512695,4111.794922,4134.871582,16209.000000,4.000000,,,,0.000000,4.000000,4.000000,4.000000,4.000000,4.000000,1.000000,0.000000,0.358654,0.210938,0.856934,0.304199,0.556649,-0.568856,0.584482,10.844553,-49.233593,59.270130,,,,,,,,,,,,,,,,,,,,,,,,,
1577742189.462692,3.000000,0.000000,4093.846191,4353.333496,4114.358887,4068.718018,4090.769287,450.000000,4.000000,,,,0.000000,4.000000,4.000000,4.000000,4.000000,4.000000,,,,,,,,,,,,,,,,,,,,,,,,,,,,,,,,,,,,,
1577742189.470389,4.000000,0.000000,4125.641113,4376.410156,4166.666504,4107.179688,4125.128418,16235.000000,4.000000,,,,0.000000,4.000000,4.000000,4.000000,4.000000,4.000000,2.000000,0.000000,0.358591,0.210693,0.856934,0.304443,0.556649,-0.588388,0.596689,13.468650,-49.334724,57.470379,,,,,,,,,,,,,,,,,,,,,,,,,
1577742189.478186,5.000000,0.000000,4200.000000,4382.051270,4211.282227,4174.871582,4183.077148,450.000000,4.000000,,,,0.000000,4.000000,4.000000,4.000000,4.000000,4.000000,,,,,,,,,,,,,,,,,,,,,,,,,,,,,,,,,,,,,
1577742189.485883,6.000000,0.000000,4174.871582,4355.384766,4176.922852,4146.666504,4162.051270,16143.000000,4.000000,,,,0.000000,4.000000,4.000000,4.000000,4.000000,4.000000,3.000000,0.000000,0.358591,0.210693,0.856934,0.304443,0.562997,-0.614267,0.593759,15.650891,-49.365929,55.790783,,,,,,,,,,,,,,,,,,,,,,,,,
1577742189.493779,7.000000,0.000000,4115.897461,4330.769043,4141.025879,4088.718018,4117.436035,450.000000,4.000000,,,,0.000000,4.000000,4.000000,4.000000,4.000000,4.000000,,,,,,,,,,,,,,,,,,,,,,,,,,,,,,,,,,,,,
1577742189.501576,8.000000,0.000000,4143.077148,4355.384766,4168.717773,4118.461426,4139.487305,450.000000,4.000000,,,,0.000000,4.000000,4.000000,4.000000,4.000000,4.000000,4.000000,0.000000,0.358240,0.210938,0.856934,0.304688,0.551278,-0.610849,0.593271,17.614908,-49.214565,54.458599,,,,,,,,,,,,,,,,,,,,,,,,,
1577742189.509473,9.000000,0.000000,4183.077148,4372.307617,4195.384766,4166.153809,4170.256348,16196.000000,4.000000,,,,0.000000,4.000000,4.000000,4.000000,4.000000,4.000000,,,,,,,,,,,,,,,,,,,,,,,,,,,,,,,,,,,,,
1577742189.517270,10.000000,0.000000,4146.153809,4327.179688,4160.512695,4126.153809,4135.897461,450.000000,4.000000,,,,0.000000,4.000000,4.000000,4.000000,4.000000,4.000000,5.000000,0.000000,0.358096,0.211182,0.856934,0.304688,0.553231,-0.616709,0.589364,16.690834,-49.138153,55.054089,,,,,,,,,,,,,,,,,,,,,,,,,
1577742189.525167,11.000000,0.000000,4103.077148,4318.974121,4118.974121,4067.179443,4093.333252,16204.000000,4.000000,,,,0.000000,4.000000,4.000000,4.000000,4.000000,4.000000,,,,,,,,,,,,,51.691246,12.760672,8.218236,4.134187,4.584459,0.564424,0.217889,1.097447,1.583374,2.626021,2.808970,3.728091,3.751692,2.500656,3.718693,1.650646,5.525197,9.289258,4.476806,5.493112,25.644257,11.180700,10.212066,3.994293,4.919795
1577742189.532963,12.000000,0.000000,4104.615234,4357.436035,4126.153809,4074.358887,4094.871826,450.000000,4.000000,,,,0.000000,4.000000,4.000000,4.000000,4.000000,4.000000,6.000000,0.000000,0.358015,0.211670,0.856934,0.304443,0.546395,-0.602060,0.593271,15.918981,-49.248829,53.735756,,,,,,,,,,,,,,,,,,,,,,,,,
1577742189.540760,13.000000,0.000000,4124.102539,4355.897461,4156.922852,4112.820313,4121.025879,450.000000,4.000000,,,,0.000000,4.000000,4.000000,4.000000,4.000000,4.000000,,,,,,,,,,,,,,,,,,,,,,,,,,,,,,,,,,,,,
1577742189.548557,14.000000,0.000000,4152.820313,4353.846191,4181.538574,4137.948730,4152.820313,450.000000,4.000000,,,,0.000000,4.000000,4.000000,4.000000,4.000000,4.000000,7.000000,0.000000,0.358240,0.210938,0.856934,0.304688,0.551278,-0.610849,0.593271,17.856190,-49.109177,52.609070,,,,,,,,,,,,,,,,,,,,,,,,,
1577742189.556254,15.000000,0.000000,4165.128418,4370.256348,4190.256348,4139.487305,4165.128418,16204.000000,4.000000,,,,0.000000,4.000000,4.000000,4.000000,4.000000,4.000000,,,,,,,,,,,,,,,,,,,,,,,,,,,,,,,,,,,,,
1577742189.564050,16.000000,0.000000,4149.230957,4361.025879,4182.563965,4127.692383,4157.436035,0.000000,4.000000,,,,0.000000,4.000000,4.000000,4.000000,4.000000,4.000000,8.000000,0.000000,0.358015,0.211670,0.856934,0.304443,0.546395,-0.602060,0.593271,16.967800,-49.222748,51.535240,,,,,,,,,,,,,,,,,,,,,,,,,
1577742189.571747,17.000000,0.000000,4144.615234,4348.717773,4182.051270,4130.256348,4160.000000,0.000000,4.000000,,,,0.000000,4.000000,4.000000,4.000000,4.000000,4.000000,,,,,,,,,,,,,,,,,,,,,,,,,,,,,,,,,,,,,
1577742189.579544,18.000000,0.000000,4156.922852,4348.717773,4186.153809,4132.820313,4162.051270,0.000000,4.000000,,,,0.000000,4.000000,4.000000,4.000000,4.000000,4.000000,9.000000,0.000000,0.357556,0.212158,0.857178,0.303955,0.551278,-0.587900,0.592782,16.048620,-49.324963,50.508976,,,,,,,,,,,,,,,,,,,,,,,,,
1577742189.587241,19.000000,0.000000,4152.307617,4343.589844,4180.512695,4123.077148,4147.692383,0.000000,4.000000,,,,0.000000,4.000000,4.000000,4.000000,4.000000,4.000000,,,,,,,,,,,,,,,,,,,,,,,,,,,,,,,,,,,,,
1577742189.595038,20.000000,0.000000,4138.461426,4351.282227,4174.871582,4117.948730,4140.000000,0.000000,4.000000,,,,0.000000,4.000000,4.000000,4.000000,4.000000,4.000000,10.000000,0.000000,0.357411,0.212402,0.857178,0.303955,0.536141,-0.590829,0.584482,15.041912,-49.177696,51.559246,,,,,,,,,,,,,,,,,,,,,,,,,
1577742189.602735,21.000000,0.000000,4147.179688,4368.205078,4183.589844,4124.102539,4152.307617,0.000000,4.000000,,,,0.000000,4.000000,4.000000,4.000000,4.000000,4.000000,,,,,,,,,,,,,,,,,,,,,,,,,,,,,,,,,,,,,
1577742189.610531,22.000000,0.000000,4186.153809,4377.948730,4212.307617,4157.948730,4188.205078,0.000000,4.000000,,,,0.000000,4.000000,4.000000,4.000000,4.000000,4.000000,11.000000,0.000000,0.358059,0.212646,0.856934,0.303711,0.542977,-0.584970,0.574716,14.434951,-49.164787,50.470768,,,,,,,,,,,,,,,,,,,,,,,,,
1577742189.618228,23.000000,0.000000,4202.051270,4371.794922,4214.871582,4173.333496,4204.102539,0.000000,4.000000,,,,0.000000,4.000000,4.000000,4.000000,4.000000,4.000000,,,,,,,,,,,,,,,,,,,,,,,,,,,,,,,,,,,,,
1577742189.626025,24.000000,0.000000,4162.563965,4337.436035,4174.358887,4127.692383,4167.179688,0.000000,4.000000,,,,0.000000,4.000000,4.000000,4.000000,4.000000,4.000000,12.000000,0.000000,0.358203,0.212402,0.856934,0.303711,0.558114,-0.587411,0.570809,12.812010,-49.212982,51.465042,,,,,,,,,,,,,,,,,,,,,,,,,
1577742189.633722,25.000000,0.000000,4140.512695,4316.922852,4153.333496,4103.077148,4141.538574,0.000000,4.000000,,,,0.000000,4.000000,4.000000,4.000000,4.000000,4.000000,,,,,,,,,,,,,,,,,,,,,,,,,,,,,,,,,,,,,
1577742189.641619,26.000000,0.000000,4174.871582,4348.717773,4175.384766,4140.000000,4166.666504,0.000000,4.000000,,,,0.000000,4.000000,4.000000,4.000000,4.000000,4.000000,13.000000,0.000000,0.357996,0.212402,0.856934,0.303955,0.553231,-0.583505,0.579110,12.308409,-49.136730,52.240257,,,,,,,,,,,,,,,,,,,,,,,,,
1577742189.649416,27.000000,0.000000,4185.641113,4378.461426,4189.230957,4150.769043,4181.025879,0.000000,4.000000,,,,0.000000,4.000000,4.000000,4.000000,4.000000,4.000000,,,,,,,,,,,,,58.671818,13.977289,8.637961,4.096773,4.634410,0.564888,0.197675,1.209062,1.682685,2.357771,3.327844,3.380799,3.554230,2.683931,3.797663,1.782198,5.397558,8.910427,4.654274,5.501180,32.385040,11.842910,9.882119,4.221079,5.092762
1577742189.657313,28.000000,0.000000,4158.974121,4356.410156,4176.410156,4122.563965,4163.589844,0.000000,4.000000,,,,0.000000,4.000000,4.000000,4.000000,4.000000,4.000000,14.000000,0.000000,0.358078,0.211914,0.856934,0.304199,0.544442,-0.582528,0.569833,14.786120,-49.008286,51.143494,,,,,,,,,,,,,,,,,,,,,,,,,
1577742189.665110,29.000000,0.000000,4159.487305,4327.179688,4166.153809,4121.538574,4160.512695,0.000000,4.000000,,,,0.000000,4.000000,4.000000,4.000000,4.000000,4.000000,,,,,,,,,,,,,,,,,,,,,,,,,,,,,,,,,,,,,
1577742189.673007,30.000000,0.000000,4148.205078,4317.948730,4150.769043,4113.846191,4144.102539,0.000000,4.000000,,,,0.000000,4.000000,4.000000,4.000000,4.000000,4.000000,15.000000,0.000000,0.358015,0.211670,0.856934,0.304443,0.542977,-0.582040,0.576669,14.085108,-49.012318,52.010681,,,,,,,,,,,,,,,,,,,,,,,,,
1577742189.680804,31.000000,0.000000,4130.769043,4342.051270,4151.794922,4107.692383,4133.333496,0.000000,4.000000,,,,0.000000,4.000000,4.000000,4.000000,4.000000,4.000000,,,,,,,,,,,,,,,,,,,,,,,,,,,,,,,,,,,,,
1577742189.688700,32.000000,0.000000,4160.512695,4383.589844,4181.025879,4138.461426,4161.025879,0.000000,4.000000,,,,0.000000,4.000000,4.000000,4.000000,4.000000,4.000000,16.000000,0.000000,0.357888,0.211182,0.856934,0.304932,0.553231,-0.593759,0.579110,13.394382,-49.075760,52.910778,,,,,,,,,,,,,,,,,,,,,,,,,
1577742189.696497,33.000000,0.000000,4151.794922,4365.128418,4171.794922,4125.641113,4142.563965,0.000000,4.000000,,,,0.000000,4.000000,4.000000,4.000000,4.000000,4.000000,,,,,,,,,,,,,,,,,,,,,,,,,,,,,,,,,,,,,
1577742189.704394,34.000000,0.000000,4128.717773,4329.743652,4159.487305,4107.179688,4124.102539,0.000000,4.000000,,,,0.000000,4.000000,4.000000,4.000000,4.000000,4.000000,17.000000,0.000000,0.357824,0.210938,0.856934,0.305176,0.547860,-0.589853,0.592782,12.832543,-49.073044,53.601238,,,,,,,,,,,,,,,,,,,,,,,,,
1577742189.712191,35.000000,0.000000,4175.897461,4356.922852,4194.871582,4158.461426,4179.487305,0.000000,4.000000,,,,0.000000,4.000000,4.000000,4.000000,4.000000,4.000000,,,,,,,,,,,,,,,,,,,,,,,,,,,,,,,,,,,,,
1577742189.720088,36.000000,0.000000,4174.358887,4368.205078,4187.692383,4163.077148,4178.461426,0.000000,4.000000,,,,0.000000,4.000000,4.000000,4.000000,4.000000,4.000000,18.000000,0.000000,0.357759,0.210693,0.856934,0.305420,0.552743,-0.596689,0.582528,8.498706,-49.190231,54.342281,,,,,,,,,,,,,,,,,,,,,,,,,
1577742189.727884,37.000000,0.000000,4115.897461,4331.282227,4149.230957,4105.128418,4125.128418,0.000000,4.000000,,,,0.000000,4.000000,4.000000,4.000000,4.000000,4.000000,,,,,,,,,,,,,,,,,,,,,,,,,,,,,,,,,,,,,
1577742189.735681,38.000000,0.000000,4123.077148,4332.307617,4163.589844,4109.743652,4142.563965,0.000000,4.000000,,,,0.000000,4.000000,4.000000,4.000000,4.000000,4.000000,19.000000,0.000000,0.358279,0.210449,0.856689,0.305664,0.543954,-0.596201,0.592294,11.177941,-49.176067,55.009220,,,,,,,,,,,,,,,,,,,,,,,,,
1577742189.743378,39.000000,0.000000,4133.846191,4360.512695,4172.307617,4126.153809,4154.871582,0.000000,4.000000,,,,0.000000,4.000000,4.000000,4.000000,4.000000,4.000000,,,,,,,,,,,,,,,,,,,,,,,,,,,,,,,,,,,,,
1577742189.751175,40.000000,0.000000,4095.897461,4356.922852,4148.205078,4094.358887,4111.794922,0.000000,4.000000,,,,0.000000,4.000000,4.000000,4.000000,4.000000,4.000000,20.000000,0.000000,0.358070,0.210449,0.856689,0.305908,0.539559,-0.590341,0.602060,10.837747,-49.282951,55.430019,,,,,,,,,,,,,,,,,,,,,,,,,
1577742189.758972,41.000000,0.000000,4094.871826,4349.743652,4154.871582,4092.307617,4108.205078,0.000000,4.000000,,,,0.000000,4.000000,4.000000,4.000000,4.000000,4.000000,,,,,,,,,,,,,,,,,,,,,,,,,,,,,,,,,,,,,
1577742189.766768,42.000000,0.000000,4140.000000,4360.512695,4186.153809,4136.922852,4153.846191,0.000000,4.000000,,,,0.000000,4.000000,4.000000,4.000000,4.000000,4.000000,21.000000,0.000000,0.358070,0.210449,0.856689,0.305908,0.554208,-0.603525,0.593271,10.471757,-49.259518,55.988186,,,,,,,,,,,,,,,,,,,,,,,,,
1577742189.774465,43.000000,0.000000,4170.769043,4371.794922,4214.871582,4169.743652,4178.974121,0.000000,4.000000,,,,0.000000,4.000000,4.000000,4.000000,4.000000,4.000000,,,,,,,,,,,,,59.184586,13.793183,8.653000,3.927864,4.714182,0.537902,0.257728,1.406972,1.739136,2.232669,3.739444,3.038811,3.505042,2.813727,3.819871,1.964564,5.430604,8.387910,4.587424,5.451262,35.400280,11.758464,9.105972,4.284124,5.236960
1577742189.782162,44.000000,0.000000,4160.512695,4368.205078,4223.589844,4154.358887,4166.153809,0.000000,4.000000,,,,0.000000,4.000000,4.000000,4.000000,4.000000,4.000000,22.000000,0.000000,0.358070,0.210449,0.856689,0.305908,0.546883,-0.589853,0.585946,10.142365,-49.238426,56.370903,,,,,,,,,,,,,,,,,,,,,,,,,
1577742189.789959,45.000000,0.000000,4131.794922,4345.128418,4200.512695,4119.487305,4144.102539,0.000000,4.000000,,,,0.000000,4.000000,4.000000,4.000000,4.000000,4.000000,,,,,,,,,,,,,,,,,,,,,,,,,,,,,,,,,,,,,
1577742189.797656,46.000000,0.000000,4130.769043,4326.666504,4185.128418,4118.974121,4148.717773,0.000000,4.000000,,,,0.000000,4.000000,4.000000,4.000000,4.000000,4.000000,23.000000,0.000000,0.357862,0.210449,0.856689,0.306152,0.551766,-0.598154,0.587411,9.726282,-49.279259,56.834980,,,,,,,,,,,,,,,,,,,,,,,,,
1577742189.805452,47.000000,0.000000,4158.974121,4349.230957,4200.512695,4148.717773,4178.974121,0.000000,4.000000,,,,0.000000,4.000000,4.000000,4.000000,4.000000,4.000000,,,,,,,,,,,,,,,,,,,,,,,,,,,,,,,,,,,,,
1577742189.813149,48.000000,0.000000,4156.410156,4365.641113,4194.871582,4143.589844,4172.820313,0.000000,4.000000,,,,0.000000,4.000000,4.000000,4.000000,4.000000,4.000000,24.000000,0.000000,0.358070,0.210449,0.856689,0.305908,0.540047,-0.595712,0.578622,5.703071,-49.196377,55.218925,,,,,,,,,,,,,,,,,,,,,,,,,
1577742189.821046,49.000000,0.000000,4129.230957,4350.256348,4174.358887,4113.846191,4149.230957,0.000000,4.000000,,,,0.000000,4.000000,4.000000,4.000000,4.000000,4.000000,,,,,,,,,,,,,,,,,,,,,,,,,,,,,,,,,,,,,
1577742189.828843,50.000000,0.000000,4132.307617,4354.871582,4181.538574,4117.948730,4156.410156,0.000000,4.000000,,,,0.000000,4.000000,4.000000,4.000000,4.000000,4.000000,25.000000,0.000000,0.357927,0.210693,0.856689,0.305908,0.545419,-0.596201,0.570809,5.730917,-49.181599,55.618755,,,,,,,,,,,,,,,,,,,,,,,,,
1577742189.836740,51.000000,0.000000,4145.128418,4366.153809,4188.205078,4128.717773,4155.897461,0.000000,4.000000,,,,0.000000,4.000000,4.000000,4.000000,4.000000,4.000000,,,,,,,,,,,,,,,,,,,,,,,,,,,,,,,,,,,,,
1577742189.844537,52.000000,0.000000,4133.333496,4346.153809,4174.358887,4115.897461,4133.333496,0.000000,4.000000,,,,0.000000,4.000000,4.000000,4.000000,4.000000,4.000000,26.000000,0.000000,0.358070,0.210449,0.856689,0.305908,0.553719,-0.595224,0.578622,5.875610,-49.228115,56.038418,,,,,,,,,,,,,,,,,,,,,,,,,
1577742189.852434,53.000000,0.000000,4129.743652,4335.384766,4172.307617,4114.358887,4139.487305,0.000000,4.000000,,,,0.000000,4.000000,4.000000,4.000000,4.000000,4.000000,,,,,,,,,,,,,,,,,,,,,,,,,,,,,,,,,,,,,
1577742189.860231,54.000000,0.000000,4152.820313,4342.563965,4188.205078,4141.025879,4169.230957,0.000000,4.000000,,,,0.000000,4.000000,4.000000,4.000000,4.000000,4.000000,27.000000,0.000000,0.357277,0.210449,0.856934,0.306152,0.560067,-0.578134,0.584970,6.005833,-49.269978,54.442204,,,,,,,,,,,,,,,,,,,,,,,,,
1577742189.868028,55.000000,0.000000,4152.820313,4342.051270,4188.717773,4149.230957,4165.128418,0.000000,4.000000,,,,0.000000,4.000000,4.000000,4.000000,4.000000,4.000000,,,,,,,,,,,,,,,,,,,,,,,,,,,,,,,,,,,,,
1577742189.875725,56.000000,0.000000,4128.717773,4357.948730,4177.436035,4129.743652,4142.051270,0.000000,4.000000,,,,0.000000,4.000000,4.000000,4.000000,4.000000,4.000000,28.000000,0.000000,0.358005,0.210205,0.856689,0.306152,0.561532,-0.576181,0.583993,5.106173,-49.487103,55.039337,,,,,,,,,,,,,,,,,,,,,,,,,
1577742189.883522,57.000000,0.000000,4135.384766,4372.820313,4176.922852,4127.179688,4150.769043,0.000000,4.000000,,,,0.000000,4.000000,4.000000,4.000000,4.000000,4.000000,,,,,,,,,,,,,,,,,,,,,,,,,,,,,,,,,,,,,
1577742189.891218,58.000000,0.000000,4127.179688,4333.333496,4161.025879,4119.487305,4142.563965,0.000000,4.000000,,,,0.000000,4.000000,4.000000,4.000000,4.000000,4.000000,29.000000,0.000000,0.357498,0.209717,0.856934,0.306396,0.564950,-0.583017,0.580087,5.373156,-49.503067,55.696384,,,,,,,,,,,,,,,,,,,,,,,,,
1577742189.899015,59.000000,0.000000,4088.205078,4312.307617,4137.948730,4090.769287,4099.487305,0.000000,4.000000,,,,0.000000,4.000000,4.000000,4.000000,4.000000,4.000000,,,,,,,,,,,,,52.641727,12.205619,8.169225,3.615448,4.880512,0.502232,0.388267,1.638112,1.741220,2.314750,3.945739,2.719930,3.575681,2.857350,3.831583,2.168348,5.523754,7.894924,4.262222,5.408555,33.781601,10.896608,8.111329,4.129320,5.351293
1577742189.906712,60.000000,0.000000,4108.717773,4374.871582,4166.153809,4109.743652,4118.974121,0.000000,4.000000,,,,0.000000,4.000000,4.000000,4.000000,4.000000,4.000000,30.000000,0.000000,0.357432,0.209473,0.856934,0.306641,0.557626,-0.582040,0.584970,1.785256,-49.457619,56.227913,,,,,,,,,,,,,,,,,,,,,,,,,
1577742189.914509,61.000000,0.000000,4157.948730,4405.641113,4202.563965,4153.333496,4173.333496,0.000000,4.000000,,,,0.000000,4.000000,4.000000,4.000000,4.000000,4.000000,,,,,,,,,,,,,,,,,,,,,,,,,,,,,,,,,,,,,
1577742189.922206,62.000000,0.000000,4132.307617,4348.205078,4179.487305,4134.358887,4158.974121,0.000000,4.000000,,,,0.000000,4.000000,4.000000,4.000000,4.000000,4.000000,31.000000,0.000000,0.357365,0.209229,0.856934,0.306885,0.559091,-0.581552,0.577157,-1.443853,-49.416718,56.646473,,,,,,,,,,,,,,,,,,,,,,,,,
1577742189.930102,63.000000,0.000000,4103.077148,4326.666504,4160.000000,4107.179688,4126.666504,0.000000,4.000000,,,,0.000000,4.000000,4.000000,4.000000,4.000000,4.000000,,,,,,,,,,,,,,,,,,,,,,,,,,,,,,,,,,,,,
1577742189.937899,64.000000,0.000000,4132.820313,4363.589844,4181.025879,4124.615234,4142.051270,450.000000,4.000000,,,,0.000000,4.000000,4.000000,4.000000,4.000000,4.000000,32.000000,0.000000,0.357883,0.208984,0.856689,0.307129,0.549325,-0.600595,0.584482,-4.409867,-49.439720,55.168903,,,,,,,,,,,,,,,,,,,,,,,,,
1577742189.945796,65.000000,0.000000,4164.615234,4380.512695,4193.846191,4147.692383,4173.333496,450.000000,4.000000,,,,0.000000,4.000000,4.000000,4.000000,4.000000,4.000000,,,,,,,,,,,,,,,,,,,,,,,,,,,,,,,,,,,,,
1577742189.953593,66.000000,0.000000,4160.512695,4368.205078,4175.897461,4148.205078,4173.846191,16213.000000,4.000000,,,,0.000000,4.000000,4.000000,4.000000,4.000000,4.000000,33.000000,0.000000,0.357883,0.208984,0.856689,0.307129,0.540047,-0.589853,0.590829,-4.208141,-49.580055,55.812996,,,,,,,,,,,,,,,,,,,,,,,,,
1577742189.961289,67.000000,0.000000,4120.512695,4355.897461,4140.512695,4107.179688,4133.333496,450.000000,4.000000,,,,0.000000,4.000000,4.000000,4.000000,4.000000,4.000000,,,,,,,,,,,,,,,,,,,,,,,,,,,,,,,,,,,,,
1577742189.969086,68.000000,0.000000,4113.846191,4371.282227,4143.077148,4092.820557,4128.205078,16245.000000,4.000000,,,,0.000000,4.000000,4.000000,4.000000,4.000000,4.000000,34.000000,0.000000,0.357674,0.208984,0.856689,0.307373,0.546883,-0.594736,0.585458,-3.129358,-49.467094,56.273048,,,,,,,,,,,,,,,,,,,,,,,,,
1577742189.976783,69.000000,0.000000,4137.436035,4375.384766,4161.538574,4117.436035,4152.307617,450.000000,4.000000,,,,0.000000,4.000000,4.000000,4.000000,4.000000,4.000000,,,,,,,,,,,,,,,,,,,,,,,,,,,,,,,,,,,,,
1577742189.984580,70.000000,0.000000,4127.692383,4348.205078,4153.846191,4115.384766,4140.000000,16143.000000,4.000000,,,,0.000000,4.000000,4.000000,4.000000,4.000000,4.000000,35.000000,0.000000,0.357883,0.208984,0.856689,0.307129,0.549325,-0.600595,0.584482,0.712684,-49.604691,56.627281,,,,,,,,,,,,,,,,,,,,,,,,,
1577742189.992277,71.000000,0.000000,4127.692383,4353.846191,4167.692383,4120.512695,4143.077148,450.000000,4.000000,,,,0.000000,4.000000,4.000000,4.000000,4.000000,4.000000,,,,,,,,,,,,,,,,,,,,,,,,,,,,,,,,,,,,,
1577742190.000073,72.000000,0.000000,4138.974121,4368.717773,4184.102539,4137.948730,4161.538574,450.000000,4.000000,,,,0.000000,4.000000,4.000000,4.000000,4.000000,4.000000,36.000000,0.000000,0.357674,0.208984,0.856689,0.307373,0.546883,-0.594736,0.585458,1.299385,-49.489265,57.005905,,,,,,,,,,,,,,,,,,,,,,,,,
1577742190.007770,73.000000,0.000000,4121.538574,4337.948730,4166.153809,4110.256348,4138.974121,16194.000000,4.000000,,,,0.000000,4.000000,4.000000,4.000000,4.000000,4.000000,,,,,,,,,,,,,,,,,,,,,,,,,,,,,,,,,,,,,
1577742190.015567,74.000000,0.000000,4101.025879,4320.000000,4155.897461,4084.102539,4108.205078,450.000000,4.000000,,,,0.000000,4.000000,4.000000,4.000000,4.000000,4.000000,37.000000,0.000000,0.357674,0.208984,0.856689,0.307373,0.557626,-0.592294,0.589853,1.827415,-49.505016,57.406479,,,,,,,,,,,,,,,,,,,,,,,,,
1577742190.023264,75.000000,0.000000,4115.897461,4357.948730,4176.410156,4116.410156,4124.615234,16209.000000,4.000000,,,,0.000000,4.000000,4.000000,4.000000,4.000000,4.000000,,,,,,,,,,,,,40.621445,9.663524,7.295555,3.218431,5.177904,0.478638,0.561634,1.850666,1.725300,2.599538,3.985608,2.414558,3.704717,2.820426,3.897904,2.340997,5.459380,7.518377,3.766798,5.465434,28.231480,9.368584,7.128604,3.805678,5.455876
1577742190.031061,76.000000,0.000000,4144.615234,4380.000000,4192.820313,4153.846191,4157.948730,450.000000,4.000000,,,,0.000000,4.000000,4.000000,4.000000,4.000000,4.000000,38.000000,0.000000,0.357464,0.208984,0.856689,0.307617,0.558114,-0.589364,0.582040,1.405412,-49.638821,57.826817,,,,,,,,,,,,,,,,,,,,,,,,,
1577742190.038758,77.000000,0.000000,4127.692383,4349.743652,4166.153809,4128.717773,4144.615234,450.000000,4.000000,,,,0.000000,4.000000,4.000000,4.000000,4.000000,4.000000,,,,,,,,,,,,,,,,,,,,,,,,,,,,,,,,,,,,,
1577742190.046554,78.000000,0.000000,4101.538574,4329.743652,4136.410156,4094.871826,4117.436035,450.000000,4.000000,,,,0.000000,4.000000,4.000000,4.000000,4.000000,4.000000,39.000000,0.000000,0.357464,0.208984,0.856689,0.307617,0.549813,-0.588876,0.575204,-1.845528,-49.759243,58.085484,,,,,,,,,,,,,,,,,,,,,,,,,
1577742190.054251,79.000000,0.000000,4103.077148,4341.538574,4134.358887,4096.922852,4114.871582,16209.000000,4.000000,,,,0.000000,4.000000,4.000000,4.000000,4.000000,4.000000,,,,,,,,,,,,,,,,,,,,,,,,,,,,,,,,,,,,,
1577742190.062148,80.000000,0.000000,4100.512695,4361.538574,4136.410156,4101.025879,4115.897461,450.000000,4.000000,,,,0.000000,4.000000,4.000000,4.000000,4.000000,4.000000,40.000000,0.000000,0.357464,0.208984,0.856689,0.307617,0.552743,-0.595712,0.591806,1.927947,-49.807812,58.258472,,,,,,,,,,,,,,,,,,,,,,,,,
1577742190.069945,81.000000,0.000000,4106.153809,4363.589844,4144.102539,4104.615234,4119.487305,450.000000,4.000000,,,,0.000000,4.000000,4.000000,4.000000,4.000000,4.000000,,,,,,,,,,,,,,,,,,,,,,,,,,,,,,,,,,,,,
1577742190.077842,82.000000,0.000000,4151.282227,4360.512695,4178.461426,4140.512695,4157.948730,450.000000,4.000000,,,,0.000000,4.000000,4.000000,4.000000,4.000000,4.000000,41.000000,0.000000,0.357254,0.208984,0.856689,0.307861,0.551278,-0.604501,0.580575,2.512752,-49.731888,58.533794,,,,,,,,,,,,,,,,,,,,,,,,,
1577742190.085639,83.000000,0.000000,4183.077148,4375.384766,4197.948730,4170.256348,4196.410156,16209.000000,4.000000,,,,0.000000,4.000000,4.000000,4.000000,4.000000,4.000000,,,,,,,,,,,,,,,,,,,,,,,,,,,,,,,,,,,,,
1577742190.093536,84.000000,0.000000,4149.230957,4382.051270,4167.692383,4137.948730,4168.205078,450.000000,4.000000,,,,0.000000,4.000000,4.000000,4.000000,4.000000,4.000000,42.000000,0.000000,0.357838,0.208984,0.856445,0.307861,0.553719,-0.590341,0.572274,2.979261,-49.723377,58.661949,,,,,,,,,,,,,,,,,,,,,,,,,
1577742190.101332,85.000000,0.000000,4121.538574,4352.307617,4146.153809,4101.025879,4129.230957,450.000000,4.000000,,,,0.000000,4.000000,4.000000,4.000000,4.000000,4.000000,,,,,,,,,,,,,,,,,,,,,,,,,,,,,,,,,,,,,
1577742190.109229,86.000000,0.000000,4138.974121,4321.025879,4162.051270,4116.410156,4143.589844,450.000000,4.000000,,,,0.000000,4.000000,4.000000,4.000000,4.000000,4.000000,43.000000,0.000000,0.357696,0.209229,0.856445,0.307861,0.534188,-0.578134,0.588876,3.399119,-49.715714,56.923016,,,,,,,,,,,,,,,,,,,,,,,,,
1577742190.117026,87.000000,0.000000,4157.948730,4331.794922,4177.436035,4143.589844,4167.179688,16209.000000,4.000000,,,,0.000000,4.000000,4.000000,4.000000,4.000000,4.000000,,,,,,,,,,,,,,,,,,,,,,,,,,,,,,,,,,,,,
1577742190.124923,88.000000,0.000000,4170.769043,4356.922852,4189.230957,4154.358887,4177.948730,450.000000,4.000000,,,,0.000000,4.000000,4.000000,4.000000,4.000000,4.000000,44.000000,0.000000,0.357486,0.209229,0.856445,0.308105,0.541512,-0.593759,0.576181,0.008624,-49.888264,57.272068,,,,,,,,,,,,,,,,,,,,,,,,,
1577742190.132719,89.000000,0.000000,4170.256348,4358.974121,4186.153809,4148.717773,4177.948730,450.000000,4.000000,,,,0.000000,4.000000,4.000000,4.000000,4.000000,4.000000,,,,,,,,,,,,,,,,,,,,,,,,,,,,,,,,,,,,,
1577742190.140616,90.000000,0.000000,4155.384766,4354.358887,4164.615234,4130.256348,4163.589844,450.000000,4.000000,,,,0.000000,4.000000,4.000000,4.000000,4.000000,4.000000,45.000000,0.000000,0.357486,0.209229,0.856445,0.308105,0.548837,-0.592782,0.580087,0.785361,-49.983742,57.646027,,,,,,,,,,,,,,,,,,,,,,,,,
1577742190.148413,91.000000,0.000000,4151.794922,4371.282227,4163.077148,4123.589844,4160.512695,16209.000000,4.000000,,,,0.000000,4.000000,4.000000,4.000000,4.000000,4.000000,,,,,,,,,,,,,27.377436,6.902352,6.341426,2.839152,5.582146,0.484156,0.743336,2.008662,1.747840,3.015197,3.979131,2.171994,3.898214,2.738265,4.035216,2.444961,5.099044,7.309185,3.263197,5.663138,21.065695,7.468747,6.355514,3.430329,5.560454
1577742190.156110,92.000000,0.000000,4160.512695,4380.512695,4171.794922,4136.922852,4170.769043,450.000000,4.000000,,,,0.000000,4.000000,4.000000,4.000000,4.000000,4.000000,46.000000,0.000000,0.357506,0.209473,0.856201,0.308594,0.542977,-0.591806,0.572763,4.295747,-49.950043,57.862961,,,,,,,,,,,,,,,,,,,,,,,,,
1577742190.163906,93.000000,0.000000,4159.487305,4353.333496,4153.846191,4130.256348,4169.743652,450.000000,4.000000,,,,0.000000,4.000000,4.000000,4.000000,4.000000,4.000000,,,,,,,,,,,,,,,,,,,,,,,,,,,,,,,,,,,,,
1577742190.171603,94.000000,0.000000,4148.205078,4337.948730,4131.282227,4109.230957,4155.897461,450.000000,4.000000,,,,0.000000,4.000000,4.000000,4.000000,4.000000,4.000000,47.000000,0.000000,0.357295,0.209473,0.856201,0.308838,0.548348,-0.591806,0.579599,4.583957,-49.919716,58.177834,,,,,,,,,,,,,,,,,,,,,,,,,
1577742190.179400,95.000000,0.000000,4124.102539,4354.358887,4115.384766,4092.820557,4131.282227,16209.000000,4.000000,,,,0.000000,4.000000,4.000000,4.000000,4.000000,4.000000,,,,,,,,,,,,,,,,,,,,,,,,,,,,,,,,,,,,,
1577742190.187097,96.000000,0.000000,4128.205078,4370.769043,4120.512695,4107.179688,4134.871582,450.000000,4.000000,,,,0.000000,4.000000,4.000000,4.000000,4.000000,4.000000,48.000000,0.000000,0.357737,0.209717,0.855957,0.308838,0.554696,-0.601083,0.583017,0.955347,-49.832603,56.427494,,,,,,,,,,,,,,,,,,,,,,,,,
1577742190.194894,97.000000,0.000000,4165.128418,4346.666504,4141.538574,4138.974121,4167.179688,450.000000,4.000000,,,,0.000000,4.000000,4.000000,4.000000,4.000000,4.000000,,,,,,,,,,,,,,,,,,,,,,,,,,,,,,,,,,,,,
1577742190.202591,98.000000,0.000000,4157.948730,4310.769043,4124.102539,4116.410156,4157.436035,450.000000,4.000000,,,,0.000000,4.000000,4.000000,4.000000,4.000000,4.000000,49.000000,0.000000,0.357669,0.209473,0.855957,0.309082,0.550790,-0.604013,0.583017,1.637412,-49.694389,56.706467,,,,,,,,,,,,,,,,,,,,,,,,,
1577742190.210487,99.000000,0.000000,4149.230957,4342.563965,4118.974121,4103.077148,4155.384766,16209.000000,4.000000,,,,0.000000,4.000000,4.000000,4.000000,4.000000,4.000000,,,,,,,,,,,,,,,,,,,,,,,,,,,,,,,,,,,,,
1577742190.218284,100.000000,0.000000,4189.230957,4385.128418,4165.641113,4151.282227,4206.666504,450.000000,4.000000,,,,0.000000,4.000000,4.000000,4.000000,4.000000,4.000000,50.000000,0.000000,0.358110,0.209717,0.855713,0.309082,0.556649,-0.604990,0.574228,2.131639,-49.629810,57.017357,,,,,,,,,,,,,,,,,,,,,,,,,
1577742190.226081,101.000000,0.000000,4216.922852,4371.282227,4194.358887,4173.846191,4232.820313,450.000000,4.000000,,,,0.000000,4.000000,4.000000,4.000000,4.000000,4.000000,,,,,,,,,,,,,,,,,,,,,,,,,,,,,,,,,,,,,
1577742190.233778,102.000000,0.000000,4211.282227,4352.307617,4189.230957,4152.307617,4215.897461,450.000000,4.000000,,,,0.000000,4.000000,4.000000,4.000000,4.000000,4.000000,51.000000,0.000000,0.357899,0.209717,0.855713,0.309326,0.555673,-0.592294,0.579110,-0.952662,-49.691319,57.356972,,,,,,,,,,,,,,,,,,,,,,,,,
1577742190.241675,103.000000,0.000000,4187.179688,4350.256348,4167.692383,4129.230957,4187.692383,16209.000000,4.000000,,,,0.000000,4.000000,4.000000,4.000000,4.000000,4.000000,,,,,,,,,,,,,,,,,,,,,,,,,,,,,,,,,,,,,
1577742190.249472,104.000000,0.000000,4157.948730,4341.025879,4143.077148,4104.102539,4154.871582,450.000000,4.000000,,,,0.000000,4.000000,4.000000,4.000000,4.000000,4.000000,52.000000,0.000000,0.357688,0.209717,0.855713,0.309570,0.542977,-0.607919,0.594247,-3.907979,-49.746677,57.662628,,,,,,,,,,,,,,,,,,,,,,,,,
1577742190.257369,105.000000,0.000000,4171.794922,4338.974121,4160.512695,4108.205078,4163.077148,450.000000,4.000000,,,,0.000000,4.000000,4.000000,4.000000,4.000000,4.000000,,,,,,,,,,,,,,,,,,,,,,,,,,,,,,,,,,,,,
1577742190.265166,106.000000,0.000000,4194.358887,4348.205078,4176.922852,4132.307617,4185.641113,450.000000,4.000000,,,,0.000000,4.000000,4.000000,4.000000,4.000000,4.000000,53.000000,0.000000,0.357476,0.209717,0.855713,0.309814,0.547860,-0.595224,0.577646,-3.696628,-49.796501,57.937717,,,,,,,,,,,,,,,,,,,,,,,,,
1577742190.273063,107.000000,0.000000,4149.743652,4339.487305,4127.692383,4096.410156,4140.512695,16209.000000,4.000000,,,,0.000000,4.000000,4.000000,4.000000,4.000000,4.000000,,,,,,,,,,,,,16.146442,4.602477,5.613655,2.582421,5.982939,0.537607,0.895944,2.100967,1.851266,3.456473,4.048892,2.044784,4.160697,2.658863,4.184789,2.448369,4.443510,7.223655,2.921531,5.939440,14.413077,5.547734,5.849429,3.135489,5.640014
1577742190.280860,108.000000,0.000000,4136.922852,4347.692383,4113.846191,4079.487061,4130.769043,450.000000,4.000000,,,,0.000000,4.000000,4.000000,4.000000,4.000000,4.000000,54.000000,0.000000,0.357849,0.209717,0.855469,0.310059,0.556161,-0.594736,0.585458,-6.437364,-49.781525,58.185295,,,,,,,,,,,,,,,,,,,,,,,,,
1577742190.288657,109.000000,0.000000,4200.000000,4365.641113,4160.000000,4140.000000,4198.974121,450.000000,4.000000,,,,0.000000,4.000000,4.000000,4.000000,4.000000,4.000000,,,,,,,,,,,,,,,,,,,,,,,,,,,,,,,,,,,,,
1577742190.296354,110.000000,0.000000,4202.563965,4349.230957,4142.563965,4142.051270,4196.410156,450.000000,4.000000,,,,0.000000,4.000000,4.000000,4.000000,4.000000,4.000000,55.000000,0.000000,0.357849,0.209717,0.855469,0.310059,0.542000,-0.607919,0.589364,-4.896397,-49.768047,58.288486,,,,,,,,,,,,,,,,,,,,,,,,,
1577742190.304251,111.000000,0.000000,4160.000000,4332.820313,4098.974121,4096.410156,4156.410156,16209.000000,4.000000,,,,0.000000,4.000000,4.000000,4.000000,4.000000,4.000000,,,,,,,,,,,,,,,,,,,,,,,,,,,,,,,,,,,,,
1577742190.312047,112.000000,0.000000,4161.025879,4328.717773,4108.205078,4101.538574,4167.692383,450.000000,4.000000,,,,0.000000,4.000000,4.000000,4.000000,4.000000,4.000000,56.000000,0.000000,0.357637,0.209717,0.855469,0.310303,0.543465,-0.602060,0.578134,-3.688973,-49.815735,58.381359,,,,,,,,,,,,,,,,,,,,,,,,,
1577742190.319844,113.000000,0.000000,4172.820313,4333.846191,4124.615234,4115.897461,4177.436035,450.000000,4.000000,,,,0.000000,4.000000,4.000000,4.000000,4.000000,4.000000,,,,,,,,,,,,,,,,,,,,,,,,,,,,,,,,,,,,,
1577742190.327541,114.000000,0.000000,4175.897461,4348.205078,4134.358887,4112.307617,4174.871582,450.000000,4.000000,,,,0.000000,4.000000,4.000000,4.000000,4.000000,4.000000,57.000000,0.000000,0.357780,0.209473,0.855469,0.310303,0.556161,-0.611337,0.576181,-6.370659,-49.798836,56.670486,,,,,,,,,,,,,,,,,,,,,,,,,
1577742190.335438,115.000000,0.000000,4181.025879,4351.282227,4151.282227,4115.384766,4183.589844,16209.000000,4.000000,,,,0.000000,4.000000,4.000000,4.000000,4.000000,4.000000,,,,,,,,,,,,,,,,,,,,,,,,,,,,,,,,,,,,,
1577742190.343234,116.000000,0.000000,4186.666504,4350.769043,4163.077148,4121.538574,4188.717773,450.000000,4.000000,,,,0.000000,4.000000,4.000000,4.000000,4.000000,4.000000,58.000000,0.000000,0.357780,0.209473,0.855469,0.310303,0.562509,-0.613779,0.577646,-5.075624,-49.843445,56.925156,,,,,,,,,,,,,,,,,,,,,,,,,
1577742190.351031,117.000000,0.000000,4203.589844,4368.205078,4173.846191,4131.282227,4200.000000,450.000000,4.000000,,,,0.000000,4.000000,4.000000,4.000000,4.000000,4.000000,,,,,,,,,,,,,,,,,,,,,,,,,,,,,,,,,,,,,
1577742190.358728,118.000000,0.000000,4217.948730,4355.384766,4178.461426,4131.282227,4211.794922,450.000000,4.000000,,,,0.000000,4.000000,4.000000,4.000000,4.000000,4.000000,59.000000,0.000000,0.357780,0.209473,0.855469,0.310303,0.553719,-0.608896,0.583505,-7.618646,-49.823776,57.333809,,,,,,,,,,,,,,,,,,,,,,,,,
1577742190.366525,119.000000,0.000000,4229.230957,4328.717773,4180.512695,4135.897461,4221.538574,16209.000000,4.000000,,,,0.000000,4.000000,4.000000,4.000000,4.000000,4.000000,,,,,,,,,,,,,,,,,,,,,,,,,,,,,,,,,,,,,
1577742190.374422,120.000000,0.000000,4234.871582,4343.589844,4171.282227,4151.794922,4225.641113,450.000000,4.000000,,,,0.000000,4.000000,4.000000,4.000000,4.000000,4.000000,60.000000,0.000000,0.357780,0.209473,0.855469,0.310303,0.555184,-0.611826,0.579110,-6.138997,-49.865887,57.522148,,,,,,,,,,,,,,,,,,,,,,,,,
1577742190.382219,121.000000,0.000000,4216.922852,4357.436035,4136.922852,4133.846191,4207.692383,450.000000,4.000000,,,,0.000000,4.000000,4.000000,4.000000,4.000000,4.000000,,,,,,,,,,,,,,,,,,,,,,,,,,,,,,,,,,,,,
1577742190.390116,122.000000,0.000000,4234.871582,4361.538574,4137.948730,4125.128418,4222.563965,450.000000,4.000000,,,,0.000000,4.000000,4.000000,4.000000,4.000000,4.000000,61.000000,0.000000,0.357780,0.209473,0.855469,0.310303,0.551278,-0.599619,0.582040,-4.926943,-49.903790,57.751472,,,,,,,,,,,,,,,,,,,,,,,,,
1577742190.397913,123.000000,0.000000,4275.384766,4363.077148,4162.563965,4151.794922,4258.461426,16209.000000,4.000000,,,,0.000000,4.000000,4.000000,4.000000,4.000000,4.000000,,,,,,,,,,,,,9.297009,3.108079,5.229283,2.514759,6.206641,0.645642,0.999420,2.148982,2.037719,3.818579,4.186924,2.100839,4.473341,2.625642,4.231118,2.351675,3.636314,7.089312,2.850108,6.132034,9.856307,3.965942,5.534725,3.028336,5.623808
1577742190.405710,124.000000,0.000000,4246.666504,4343.077148,4127.692383,4132.307617,4228.717773,450.000000,4.000000,,,,0.000000,4.000000,4.000000,4.000000,4.000000,4.000000,62.000000,0.000000,0.357780,0.209473,0.855469,0.310303,0.555184,-0.604501,0.568856,-7.544648,-49.818272,56.163399,,,,,,,,,,,,,,,,,,,,,,,,,
1577742190.413406,125.000000,0.000000,4192.820313,4330.256348,4078.974365,4079.487061,4172.820313,450.000000,4.000000,,,,0.000000,4.000000,4.000000,4.000000,4.000000,4.000000,,,,,,,,,,,,,,,,,,,,,,,,,,,,,,,,,,,,,
1577742190.421203,126.000000,0.000000,4187.179688,4333.846191,4084.102539,4075.384521,4176.922852,450.000000,4.000000,,,,0.000000,4.000000,4.000000,4.000000,4.000000,4.000000,63.000000,0.000000,0.357780,0.209473,0.855469,0.310303,0.549813,-0.600595,0.588388,-6.072399,-49.801121,56.528595,,,,,,,,,,,,,,,,,,,,,,,,,
1577742190.428900,127.000000,0.000000,4232.820313,4340.000000,4132.307617,4132.820313,4229.230957,236.000000,4.000000,,,,0.000000,4.000000,4.000000,4.000000,4.000000,4.000000,,,,,,,,,,,,,,,,,,,,,,,,,,,,,,,,,,,,,
1577742190.436697,0.000000,0.000000,4278.461426,4360.000000,4169.743652,4180.512695,4262.563965,450.000000,4.000000,,,,0.000000,4.000000,4.000000,4.000000,4.000000,4.000000,0.000000,0.000000,0.357780,0.209473,0.855469,0.310303,0.551278,-0.599619,0.582040,-8.515742,-49.905312,56.917088,,,,,,,,,,,,,,,,,,,,,,,,,
1577742190.444394,1.000000,0.000000,4262.563965,4357.436035,4151.794922,4155.384766,4238.974121,450.000000,4.000000,,,,0.000000,4.000000,4.000000,4.000000,4.000000,4.000000,,,,,,,,,,,,,,,,,,,,,,,,,,,,,,,,,,,,,
1577742190.452190,2.000000,0.000000,4214.871582,4317.948730,4119.487305,4110.769043,4197.948730,16205.000000,4.000000,,,,0.000000,4.000000,4.000000,4.000000,4.000000,4.000000,1.000000,0.000000,0.357780,0.209473,0.855469,0.310303,0.549813,-0.600595,0.588388,-6.946384,-49.879456,57.206917,,,,,,,,,,,,,,,,,,,,,,,,,
1577742190.459887,3.000000,0.000000,4234.358887,4331.282227,4139.487305,4125.128418,4217.948730,450.000000,4.000000,,,,0.000000,4.000000,4.000000,4.000000,4.000000,4.000000,,,,,,,,,,,,,,,,,,,,,,,,,,,,,,,,,,,,,
1577742190.467684,4.000000,0.000000,4280.000000,4370.256348,4160.512695,4147.179688,4252.820313,16243.000000,4.000000,,,,0.000000,4.000000,4.000000,4.000000,4.000000,4.000000,2.000000,0.000000,0.357923,0.209229,0.855469,0.310303,0.557626,-0.607431,0.570809,-2.662824,-49.856186,55.553669,,,,,,,,,,,,,,,,,,,,,,,,,
1577742190.475381,5.000000,0.000000,4263.077148,4346.666504,4142.051270,4125.641113,4226.666504,450.000000,4.000000,,,,0.000000,4.000000,4.000000,4.000000,4.000000,4.000000,,,,,,,,,,,,,,,,,,,,,,,,,,,,,,,,,,,,,
1577742190.483178,6.000000,0.000000,4240.512695,4325.128418,4142.051270,4110.769043,4206.153809,16141.000000,4.000000,,,,0.000000,4.000000,4.000000,4.000000,4.000000,4.000000,3.000000,0.000000,0.357923,0.209229,0.855469,0.310303,0.550301,-0.607431,0.575204,1.252196,-49.835243,55.920025,,,,,,,,,,,,,,,,,,,,,,,,,
1577742190.490875,7.000000,0.000000,4251.794922,4347.179688,4151.282227,4112.307617,4224.102539,450.000000,4.000000,,,,0.000000,4.000000,4.000000,4.000000,4.000000,4.000000,,,,,,,,,,,,,,,,,,,,,,,,,,,,,,,,,,,,,
1577742190.498771,8.000000,0.000000,4259.487305,4360.000000,4145.128418,4111.794922,4230.769043,450.000000,4.000000,,,,0.000000,4.000000,4.000000,4.000000,4.000000,4.000000,4.000000,0.000000,0.357923,0.209229,0.855469,0.310303,0.533211,-0.592294,0.575204,4.775714,-49.936024,54.455280,,,,,,,,,,,,,,,,,,,,,,,,,
1577742190.506568,9.000000,0.000000,4263.589844,4353.333496,4147.692383,4123.589844,4228.205078,16189.000000,4.000000,,,,0.000000,4.000000,4.000000,4.000000,4.000000,4.000000,,,,,,,,,,,,,,,,,,,,,,,,,,,,,,,,,,,,,
1577742190.514465,10.000000,0.000000,4273.846191,4336.922852,4151.282227,4140.000000,4230.256348,450.000000,4.000000,,,,0.000000,4.000000,4.000000,4.000000,4.000000,4.000000,5.000000,0.000000,0.357711,0.209229,0.855469,0.310547,0.552743,-0.608408,0.571786,5.015927,-49.907097,54.871658,,,,,,,,,,,,,,,,,,,,,,,,,
1577742190.522262,11.000000,0.000000,4273.846191,4331.794922,4140.512695,4136.922852,4227.692383,16205.000000,4.000000,,,,0.000000,4.000000,4.000000,4.000000,4.000000,4.000000,,,,,,,,,,,,,6.733849,2.397659,5.182047,2.624596,6.116551,0.802292,1.043815,2.211910,2.258044,4.038114,4.400968,2.449907,4.797469,2.646801,4.083663,2.209323,2.882302,6.798540,3.041980,6.081173,7.709321,2.937697,5.365593,3.127877,5.449588
1577742190.530159,12.000000,0.000000,4256.922852,4352.307617,4126.666504,4118.974121,4219.487305,450.000000,4.000000,,,,0.000000,4.000000,4.000000,4.000000,4.000000,4.000000,6.000000,0.000000,0.357711,0.209229,0.855469,0.310547,0.545907,-0.598642,0.573251,8.163072,-49.881065,55.246399,,,,,,,,,,,,,,,,,,,,,,,,,
1577742190.537955,13.000000,0.000000,4235.384766,4342.563965,4113.846191,4104.615234,4201.538574,450.000000,4.000000,,,,0.000000,4.000000,4.000000,4.000000,4.000000,4.000000,,,,,,,,,,,,,,,,,,,,,,,,,,,,,,,,,,,,,
1577742190.545852,14.000000,0.000000,4251.794922,4316.410156,4126.666504,4125.128418,4212.307617,450.000000,4.000000,,,,0.000000,4.000000,4.000000,4.000000,4.000000,4.000000,7.000000,0.000000,0.357923,0.209229,0.855469,0.310303,0.556649,-0.604990,0.590341,10.935686,-49.857632,55.703297,,,,,,,,,,,,,,,,,,,,,,,,,
1577742190.553649,15.000000,0.000000,4288.717773,4341.538574,4154.358887,4156.410156,4251.794922,16205.000000,4.000000,,,,0.000000,4.000000,4.000000,4.000000,4.000000,4.000000,,,,,,,,,,,,,,,,,,,,,,,,,,,,,,,,,,,,,
1577742190.561346,16.000000,0.000000,4277.436035,4364.615234,4145.128418,4140.512695,4242.563965,0.000000,4.000000,,,,0.000000,4.000000,4.000000,4.000000,4.000000,4.000000,8.000000,0.000000,0.358066,0.208984,0.855469,0.310303,0.546883,-0.601572,0.575692,10.559902,-49.896358,54.140594,,,,,,,,,,,,,,,,,,,,,,,,,
1577742190.569142,17.000000,0.000000,4241.538574,4334.358887,4117.436035,4109.743652,4198.974121,0.000000,4.000000,,,,0.000000,4.000000,4.000000,4.000000,4.000000,4.000000,,,,,,,,,,,,,,,,,,,,,,,,,,,,,,,,,,,,,
1577742190.576839,18.000000,0.000000,4202.563965,4296.410156,4089.743652,4079.487061,4156.410156,0.000000,4.000000,,,,0.000000,4.000000,4.000000,4.000000,4.000000,4.000000,9.000000,0.000000,0.357854,0.208984,0.855469,0.310547,0.548837,-0.591318,0.590341,13.033018,-49.871399,54.708073,,,,,,,,,,,,,,,,,,,,,,,,,
1577742190.584636,19.000000,0.000000,4201.025879,4324.615234,4097.436035,4081.025635,4161.025879,0.000000,4.000000,,,,0.000000,4.000000,4.000000,4.000000,4.000000,4.000000,,,,,,,,,,,,,,,,,,,,,,,,,,,,,,,,,,,,,
1577742190.592533,20.000000,0.000000,4258.461426,4380.000000,4148.205078,4136.922852,4225.641113,0.000000,4.000000,,,,0.000000,4.000000,4.000000,4.000000,4.000000,4.000000,10.000000,0.000000,0.357854,0.208984,0.855469,0.310547,0.549325,-0.606455,0.579599,15.438270,-49.848934,53.424339,,,,,,,,,,,,,,,,,,,,,,,,,
1577742190.600330,21.000000,0.000000,4273.846191,4372.307617,4155.384766,4150.769043,4245.128418,0.000000,4.000000,,,,0.000000,4.000000,4.000000,4.000000,4.000000,4.000000,,,,,,,,,,,,,,,,,,,,,,,,,,,,,,,,,,,,,
1577742190.608027,22.000000,0.000000,4231.282227,4332.307617,4125.128418,4119.487305,4206.666504,0.000000,4.000000,,,,0.000000,4.000000,4.000000,4.000000,4.000000,4.000000,11.000000,0.000000,0.357854,0.208984,0.855469,0.310547,0.548348,-0.600595,0.578134,14.612226,-49.948349,54.063442,,,,,,,,,,,,,,,,,,,,,,,,,
1577742190.615824,23.000000,0.000000,4228.205078,4334.871582,4128.205078,4129.230957,4200.512695,0.000000,4.000000,,,,0.000000,4.000000,4.000000,4.000000,4.000000,4.000000,,,,,,,,,,,,,,,,,,,,,,,,,,,,,,,,,,,,,
1577742190.623520,24.000000,0.000000,4252.820313,4362.563965,4145.128418,4157.436035,4223.077148,0.000000,4.000000,,,,0.000000,4.000000,4.000000,4.000000,4.000000,4.000000,12.000000,0.000000,0.357854,0.208984,0.855469,0.310547,0.548348,-0.598642,0.577157,13.868789,-49.918190,54.638638,,,,,,,,,,,,,,,,,,,,,,,,,
1577742190.631317,25.000000,0.000000,4241.025879,4357.436035,4138.974121,4145.128418,4217.948730,0.000000,4.000000,,,,0.000000,4.000000,4.000000,4.000000,4.000000,4.000000,,,,,,,,,,,,,,,,,,,,,,,,,,,,,,,,,,,,,
1577742190.639014,26.000000,0.000000,4226.666504,4337.436035,4133.333496,4123.589844,4206.666504,0.000000,4.000000,,,,0.000000,4.000000,4.000000,4.000000,4.000000,4.000000,13.000000,0.000000,0.357996,0.208740,0.855469,0.310547,0.548837,-0.614267,0.582040,13.139878,-49.891045,55.275940,,,,,,,,,,,,,,,,,,,,,,,,,
1577742190.646911,27.000000,0.000000,4245.128418,4336.410156,4142.051270,4126.666504,4220.000000,0.000000,4.000000,,,,0.000000,4.000000,4.000000,4.000000,4.000000,4.000000,,,,,,,,,,,,,6.674993,2.265405,5.330081,2.849494,5.707973,0.982409,1.032997,2.336127,2.451445,4.094495,4.703153,3.370586,5.080626,2.711219,3.752020,2.123947,2.406543,6.392867,3.411413,5.739420,7.151344,2.516267,5.366629,3.370697,5.123205
1577742190.654708,28.000000,0.000000,4249.743652,4346.153809,4137.436035,4133.333496,4217.948730,0.000000,4.000000,,,,0.000000,4.000000,4.000000,4.000000,4.000000,4.000000,14.000000,0.000000,0.357996,0.208740,0.855469,0.310547,0.539071,-0.601083,0.581552,8.715491,-49.866615,55.849514,,,,,,,,,,,,,,,,,,,,,,,,,
1577742190.662605,29.000000,0.000000,4236.410156,4346.666504,4126.153809,4124.615234,4201.538574,0.000000,4.000000,,,,0.000000,4.000000,4.000000,4.000000,4.000000,4.000000,,,,,,,,,,,,,,,,,,,,,,,,,,,,,,,,,,,,,
1577742190.670402,30.000000,0.000000,4243.589844,4351.282227,4141.538574,4129.743652,4208.205078,0.000000,4.000000,,,,0.000000,4.000000,4.000000,4.000000,4.000000,4.000000,15.000000,0.000000,0.357996,0.208740,0.855469,0.310547,0.557137,-0.602548,0.581064,11.432864,-49.844631,56.365730,,,,,,,,,,,,,,,,,,,,,,,,,
1577742190.678299,31.000000,0.000000,4260.000000,4367.179688,4167.179688,4160.512695,4231.282227,0.000000,4.000000,,,,0.000000,4.000000,4.000000,4.000000,4.000000,4.000000,,,,,,,,,,,,,,,,,,,,,,,,,,,,,,,,,,,,,
1577742190.686096,32.000000,0.000000,4254.871582,4368.717773,4165.641113,4168.717773,4233.846191,0.000000,4.000000,,,,0.000000,4.000000,4.000000,4.000000,4.000000,4.000000,16.000000,0.000000,0.357996,0.208740,0.855469,0.310547,0.549325,-0.602548,0.589364,13.699054,-49.944473,56.890141,,,,,,,,,,,,,,,,,,,,,,,,,
1577742190.693993,33.000000,0.000000,4245.128418,4361.025879,4161.538574,4154.871582,4223.589844,0.000000,4.000000,,,,0.000000,4.000000,4.000000,4.000000,4.000000,4.000000,,,,,,,,,,,,,,,,,,,,,,,,,,,,,,,,,,,,,
1577742190.701790,34.000000,0.000000,4244.615234,4342.051270,4173.333496,4155.384766,4223.077148,0.000000,4.000000,,,,0.000000,4.000000,4.000000,4.000000,4.000000,4.000000,17.000000,0.000000,0.357996,0.208740,0.855469,0.310547,0.548837,-0.601083,0.584482,15.918071,-50.034332,57.362106,,,,,,,,,,,,,,,,,,,,,,,,,
1577742190.709686,35.000000,0.000000,4227.179688,4331.794922,4163.077148,4146.666504,4205.641113,0.000000,4.000000,,,,0.000000,4.000000,4.000000,4.000000,4.000000,4.000000,,,,,,,,,,,,,,,,,,,,,,,,,,,,,,,,,,,,,
1577742190.717483,36.000000,0.000000,4196.410156,4341.025879,4132.307617,4113.846191,4175.384766,0.000000,4.000000,,,,0.000000,4.000000,4.000000,4.000000,4.000000,4.000000,18.000000,0.000000,0.357927,0.208496,0.855469,0.310791,0.559091,-0.597665,0.586435,11.215864,-49.995575,57.667248,,,,,,,,,,,,,,,,,,,,,,,,,
1577742190.725380,37.000000,0.000000,4176.922852,4330.769043,4117.948730,4089.230713,4159.487305,0.000000,4.000000,,,,0.000000,4.000000,4.000000,4.000000,4.000000,4.000000,,,,,,,,,,,,,,,,,,,,,,,,,,,,,,,,,,,,,
1577742190.733177,38.000000,0.000000,4188.205078,4317.948730,4135.897461,4108.717773,4168.717773,0.000000,4.000000,,,,0.000000,4.000000,4.000000,4.000000,4.000000,4.000000,19.000000,0.000000,0.357555,0.208496,0.855713,0.310547,0.560555,-0.597665,0.571298,10.991508,-49.900875,58.001690,,,,,,,,,,,,,,,,,,,,,,,,,
1577742190.741073,39.000000,0.000000,4226.153809,4345.641113,4167.179688,4147.692383,4202.563965,0.000000,4.000000,,,,0.000000,4.000000,4.000000,4.000000,4.000000,4.000000,,,,,,,,,,,,,,,,,,,,,,,,,,,,,,,,,,,,,
1577742190.748870,40.000000,0.000000,4255.897461,4372.307617,4186.666504,4165.641113,4235.384766,0.000000,4.000000,,,,0.000000,4.000000,4.000000,4.000000,4.000000,4.000000,20.000000,0.000000,0.357555,0.208496,0.855713,0.310547,0.553719,-0.606455,0.576181,10.669957,-49.935280,56.089520,,,,,,,,,,,,,,,,,,,,,,,,,
1577742190.756667,41.000000,0.000000,4249.743652,4349.230957,4180.512695,4162.563965,4232.820313,0.000000,4.000000,,,,0.000000,4.000000,4.000000,4.000000,4.000000,4.000000,,,,,,,,,,,,,,,,,,,,,,,,,,,,,,,,,,,,,
1577742190.764364,42.000000,0.000000,4210.769043,4324.615234,4148.205078,4134.358887,4196.922852,0.000000,4.000000,,,,0.000000,4.000000,4.000000,4.000000,4.000000,4.000000,21.000000,0.000000,0.357555,0.208496,0.855713,0.310547,0.540047,-0.597665,0.576669,6.432747,-49.906425,54.727459,,,,,,,,,,,,,,,,,,,,,,,,,
1577742190.772060,43.000000,0.000000,4198.974121,4337.436035,4137.436035,4118.974121,4185.641113,0.000000,4.000000,,,,0.000000,4.000000,4.000000,4.000000,4.000000,4.000000,,,,,,,,,,,,,7.076750,2.378991,5.458935,3.140543,5.131485,1.146946,0.988952,2.508182,2.584589,4.000701,5.190752,5.050205,5.246975,2.816208,3.355206,2.167724,2.336062,5.981585,3.859104,5.209950,7.039174,2.531718,5.545560,3.680310,4.737810
1577742190.779957,44.000000,0.000000,4227.179688,4346.153809,4155.897461,4141.025879,4208.717773,0.000000,4.000000,,,,0.000000,4.000000,4.000000,4.000000,4.000000,4.000000,22.000000,0.000000,0.357555,0.208496,0.855713,0.310547,0.542977,-0.585946,0.581064,9.318579,-49.940273,53.441788,,,,,,,,,,,,,,,,,,,,,,,,,
1577742190.787754,45.000000,0.000000,4232.820313,4334.871582,4155.384766,4147.179688,4210.769043,0.000000,4.000000,,,,0.000000,4.000000,4.000000,4.000000,4.000000,4.000000,,,,,,,,,,,,,,,,,,,,,,,,,,,,,,,,,,,,,
1577742190.795651,46.000000,0.000000,4221.538574,4329.230957,4150.256348,4135.897461,4206.666504,0.000000,4.000000,,,,0.000000,4.000000,4.000000,4.000000,4.000000,4.000000,23.000000,0.000000,0.358139,0.208496,0.855469,0.310547,0.555184,-0.586435,0.582040,11.856012,-49.851109,54.198776,,,,,,,,,,,,,,,,,,,,,,,,,
1577742190.803448,47.000000,0.000000,4230.769043,4335.897461,4158.461426,4146.666504,4218.461426,0.000000,4.000000,,,,0.000000,4.000000,4.000000,4.000000,4.000000,4.000000,,,,,,,,,,,,,,,,,,,,,,,,,,,,,,,,,,,,,
1577742190.811245,48.000000,0.000000,4229.230957,4330.769043,4153.333496,4156.410156,4211.282227,0.000000,4.000000,,,,0.000000,4.000000,4.000000,4.000000,4.000000,4.000000,24.000000,0.000000,0.358281,0.208252,0.855469,0.310547,0.561044,-0.590829,0.567880,11.507826,-49.830673,54.760437,,,,,,,,,,,,,,,,,,,,,,,,,
1577742190.818942,49.000000,0.000000,4205.641113,4327.692383,4139.487305,4131.794922,4185.641113,0.000000,4.000000,,,,0.000000,4.000000,4.000000,4.000000,4.000000,4.000000,,,,,,,,,,,,,,,,,,,,,,,,,,,,,,,,,,,,,
1577742190.826839,50.000000,0.000000,4218.974121,4350.256348,4157.948730,4130.256348,4203.589844,0.000000,4.000000,,,,0.000000,4.000000,4.000000,4.000000,4.000000,4.000000,25.000000,0.000000,0.358281,0.208252,0.855469,0.310547,0.557137,-0.595712,0.570321,14.005781,-49.931911,55.265930,,,,,,,,,,,,,,,,,,,,,,,,,
1577742190.834636,51.000000,0.000000,4245.128418,4349.743652,4173.846191,4161.025879,4232.820313,0.000000,4.000000,,,,0.000000,4.000000,4.000000,4.000000,4.000000,4.000000,,,,,,,,,,,,,,,,,,,,,,,,,,,,,,,,,,,,,
1577742190.842433,52.000000,0.000000,4221.538574,4318.974121,4146.153809,4152.820313,4210.769043,0.000000,4.000000,,,,0.000000,4.000000,4.000000,4.000000,4.000000,4.000000,26.000000,0.000000,0.358281,0.208252,0.855469,0.310547,0.542489,-0.597665,0.580575,16.253941,-49.963211,55.840504,,,,,,,,,,,,,,,,,,,,,,,,,
1577742190.850130,53.000000,0.000000,4197.948730,4317.436035,4123.077148,4121.538574,4190.256348,0.000000,4.000000,,,,0.000000,4.000000,4.000000,4.000000,4.000000,4.000000,,,,,,,,,,,,,,,,,,,,,,,,,,,,,,,,,,,,,
1577742190.858027,54.000000,0.000000,4197.436035,4337.948730,4121.025879,4111.282227,4184.102539,0.000000,4.000000,,,,0.000000,4.000000,4.000000,4.000000,4.000000,4.000000,27.000000,0.000000,0.357927,0.208496,0.855469,0.310791,0.551766,-0.600107,0.584970,15.286515,-49.931564,56.357620,,,,,,,,,,,,,,,,,,,,,,,,,
1577742190.865824,55.000000,0.000000,4196.410156,4335.384766,4126.666504,4121.025879,4177.436035,0.000000,4.000000,,,,0.000000,4.000000,4.000000,4.000000,4.000000,4.000000,,,,,,,,,,,,,,,,,,,,,,,,,,,,,,,,,,,,,
1577742190.873621,56.000000,0.000000,4214.358887,4339.487305,4151.794922,4142.051270,4201.538574,0.000000,4.000000,,,,0.000000,4.000000,4.000000,4.000000,4.000000,4.000000,28.000000,0.000000,0.358281,0.208252,0.855469,0.310547,0.557137,-0.595712,0.570321,13.578418,-49.903084,56.763210,,,,,,,,,,,,,,,,,,,,,,,,,
1577742190.881318,57.000000,0.000000,4233.333496,4360.512695,4166.153809,4154.358887,4227.179688,0.000000,4.000000,,,,0.000000,4.000000,4.000000,4.000000,4.000000,4.000000,,,,,,,,,,,,,,,,,,,,,,,,,,,,,,,,,,,,,
1577742190.889114,58.000000,0.000000,4226.153809,4354.358887,4152.820313,4152.307617,4210.256348,0.000000,4.000000,,,,0.000000,4.000000,4.000000,4.000000,4.000000,4.000000,29.000000,0.000000,0.357927,0.208496,0.855469,0.310791,0.551766,-0.600107,0.584970,12.878545,-49.877449,57.188057,,,,,,,,,,,,,,,,,,,,,,,,,
1577742190.896811,59.000000,0.000000,4216.922852,4331.794922,4148.205078,4154.871582,4192.307617,0.000000,4.000000,,,,0.000000,4.000000,4.000000,4.000000,4.000000,4.000000,,,,,,,,,,,,,7.271581,2.527137,5.461038,3.467171,4.608166,1.252205,0.941187,2.663756,2.656538,3.803716,5.843881,7.351604,5.234527,2.957147,3.047492,2.310404,2.596291,5.730155,4.279680,4.680049,6.909640,2.757041,5.870482,4.004901,4.420717
1577742190.904708,60.000000,0.000000,4226.666504,4341.025879,4160.000000,4166.153809,4209.743652,0.000000,4.000000,,,,0.000000,4.000000,4.000000,4.000000,4.000000,4.000000,30.000000,0.000000,0.358069,0.208252,0.855469,0.310791,0.550790,-0.598154,0.586435,15.179612,-49.854382,57.450787,,,,,,,,,,,,,,,,,,,,,,,,,
1577742190.912505,61.000000,0.000000,4206.666504,4339.487305,4139.487305,4147.179688,4196.410156,0.000000,4.000000,,,,0.000000,4.000000,4.000000,4.000000,4.000000,4.000000,,,,,,,,,,,,,,,,,,,,,,,,,,,,,,,,,,,,,
1577742190.920301,62.000000,0.000000,4175.897461,4310.769043,4115.897461,4118.974121,4161.538574,0.000000,4.000000,,,,0.000000,4.000000,4.000000,4.000000,4.000000,4.000000,31.000000,0.000000,0.357697,0.208252,0.855713,0.310547,0.550301,-0.597665,0.587900,17.250572,-49.833618,57.747063,,,,,,,,,,,,,,,,,,,,,,,,,
1577742190.927998,63.000000,0.000000,4208.717773,4327.179688,4145.641113,4148.205078,4191.794922,0.000000,4.000000,,,,0.000000,4.000000,4.000000,4.000000,4.000000,4.000000,,,,,,,,,,,,,,,,,,,,,,,,,,,,,,,,,,,,,
1577742190.935895,64.000000,0.000000,4215.384766,4344.615234,4144.615234,4149.743652,4200.000000,450.000000,4.000000,,,,0.000000,4.000000,4.000000,4.000000,4.000000,4.000000,32.000000,0.000000,0.357697,0.208252,0.855713,0.310547,0.557626,-0.606455,0.567880,16.243299,-49.755116,58.013706,,,,,,,,,,,,,,,,,,,,,,,,,
1577742190.943692,65.000000,0.000000,4167.692383,4329.230957,4107.692383,4092.307617,4155.897461,450.000000,4.000000,,,,0.000000,4.000000,4.000000,4.000000,4.000000,4.000000,,,,,,,,,,,,,,,,,,,,,,,,,,,,,,,,,,,,,
1577742190.951389,66.000000,0.000000,4189.230957,4329.230957,4135.384766,4110.256348,4178.461426,16210.000000,4.000000,,,,0.000000,4.000000,4.000000,4.000000,4.000000,4.000000,33.000000,0.000000,0.357697,0.208252,0.855713,0.310547,0.549325,-0.598642,0.576669,15.336755,-49.804096,58.313503,,,,,,,,,,,,,,,,,,,,,,,,,
1577742190.959185,67.000000,0.000000,4236.410156,4329.743652,4171.794922,4167.692383,4226.153809,450.000000,4.000000,,,,0.000000,4.000000,4.000000,4.000000,4.000000,4.000000,,,,,,,,,,,,,,,,,,,,,,,,,,,,,,,,,,,,,
1577742190.966882,68.000000,0.000000,4211.282227,4317.948730,4138.974121,4146.666504,4198.974121,16239.000000,4.000000,,,,0.000000,4.000000,4.000000,4.000000,4.000000,4.000000,34.000000,0.000000,0.357839,0.208008,0.855713,0.310547,0.552254,-0.600595,0.566415,14.700310,-49.907993,58.463688,,,,,,,,,,,,,,,,,,,,,,,,,
1577742190.974679,69.000000,0.000000,4178.461426,4317.948730,4116.410156,4107.179688,4160.000000,450.000000,4.000000,,,,0.000000,4.000000,4.000000,4.000000,4.000000,4.000000,,,,,,,,,,,,,,,,,,,,,,,,,,,,,,,,,,,,,
1577742190.982376,70.000000,0.000000,4192.307617,4324.615234,4145.641113,4129.230957,4177.948730,16140.000000,4.000000,,,,0.000000,4.000000,4.000000,4.000000,4.000000,4.000000,35.000000,0.000000,0.358422,0.208008,0.855469,0.310547,0.548348,-0.598154,0.575692,10.299326,-49.881866,58.718487,,,,,,,,,,,,,,,,,,,,,,,,,
1577742190.990173,71.000000,0.000000,4211.282227,4335.897461,4152.820313,4160.512695,4198.974121,450.000000,4.000000,,,,0.000000,4.000000,4.000000,4.000000,4.000000,4.000000,,,,,,,,,,,,,,,,,,,,,,,,,,,,,,,,,,,,,
1577742190.997870,72.000000,0.000000,4192.307617,4336.410156,4112.820313,4133.333496,4171.794922,450.000000,4.000000,,,,0.000000,4.000000,4.000000,4.000000,4.000000,4.000000,36.000000,0.000000,0.358069,0.208252,0.855469,0.310791,0.552743,-0.584970,0.580087,6.158994,-49.977989,56.914085,,,,,,,,,,,,,,,,,,,,,,,,,
1577742191.005666,73.000000,0.000000,4162.051270,4321.025879,4088.718018,4089.230713,4137.436035,16183.000000,4.000000,,,,0.000000,4.000000,4.000000,4.000000,4.000000,4.000000,,,,,,,,,,,,,,,,,,,,,,,,,,,,,,,,,,,,,
1577742191.013363,74.000000,0.000000,4186.666504,4330.256348,4122.051270,4117.436035,4164.102539,450.000000,4.000000,,,,0.000000,4.000000,4.000000,4.000000,4.000000,4.000000,37.000000,0.000000,0.358069,0.208252,0.855469,0.310791,0.553719,-0.600595,0.565438,9.251647,-50.004681,57.204212,,,,,,,,,,,,,,,,,,,,,,,,,
1577742191.021160,75.000000,0.000000,4204.102539,4339.487305,4133.846191,4148.717773,4188.205078,16201.000000,4.000000,,,,0.000000,4.000000,4.000000,4.000000,4.000000,4.000000,,,,,,,,,,,,,7.478015,2.640730,5.375733,3.818606,4.299715,1.286239,0.909966,2.744532,2.675608,3.564715,6.582334,9.736309,5.047051,3.133574,2.918692,2.494467,2.966989,5.783975,4.612585,4.300104,6.913650,2.989306,6.281025,4.343096,4.250191
1577742191.028857,76.000000,0.000000,4155.897461,4320.512695,4094.871826,4097.436035,4148.205078,450.000000,4.000000,,,,0.000000,4.000000,4.000000,4.000000,4.000000,4.000000,38.000000,0.000000,0.358069,0.208252,0.855469,0.310791,0.544930,-0.584482,0.576181,9.044267,-50.088516,57.525143,,,,,,,,,,,,,,,,,,,,,,,,,
1577742191.036654,77.000000,0.000000,4164.102539,4323.589844,4113.846191,4092.307617,4153.333496,450.000000,4.000000,,,,0.000000,4.000000,4.000000,4.000000,4.000000,4.000000,,,,,,,,,,,,,,,,,,,,,,,,,,,,,,,,,,,,,
1577742191.044350,78.000000,0.000000,4235.897461,4336.410156,4170.769043,4161.538574,4218.461426,450.000000,4.000000,,,,0.000000,4.000000,4.000000,4.000000,4.000000,4.000000,39.000000,0.000000,0.357857,0.208252,0.855469,0.311035,0.556649,-0.597177,0.560555,4.849995,-50.044342,57.813980,,,,,,,,,,,,,,,,,,,,,,,,,
1577742191.052147,79.000000,0.000000,4232.307617,4328.205078,4158.461426,4171.794922,4220.000000,16201.000000,4.000000,,,,0.000000,4.000000,4.000000,4.000000,4.000000,4.000000,,,,,,,,,,,,,,,,,,,,,,,,,,,,,,,,,,,,,
1577742191.059844,80.000000,0.000000,4181.538574,4328.205078,4118.461426,4124.615234,4174.871582,450.000000,4.000000,,,,0.000000,4.000000,4.000000,4.000000,4.000000,4.000000,40.000000,0.000000,0.358228,0.208252,0.855225,0.311279,0.537118,-0.583505,0.572274,8.073548,-50.064400,58.014118,,,,,,,,,,,,,,,,,,,,,,,,,
1577742191.067741,81.000000,0.000000,4178.461426,4336.922852,4121.025879,4111.282227,4174.358887,450.000000,4.000000,,,,0.000000,4.000000,4.000000,4.000000,4.000000,4.000000,,,,,,,,,,,,,,,,,,,,,,,,,,,,,,,,,,,,,
1577742191.075538,82.000000,0.000000,4182.051270,4325.641113,4125.641113,4114.871582,4179.487305,450.000000,4.000000,,,,0.000000,4.000000,4.000000,4.000000,4.000000,4.000000,41.000000,0.000000,0.358228,0.208252,0.855225,0.311279,0.547372,-0.588876,0.577157,10.795300,-49.962818,56.339966,,,,,,,,,,,,,,,,,,,,,,,,,
1577742191.083435,83.000000,0.000000,4161.538574,4319.487305,4106.153809,4093.333252,4155.897461,16201.000000,4.000000,,,,0.000000,4.000000,4.000000,4.000000,4.000000,4.000000,,,,,,,,,,,,,,,,,,,,,,,,,,,,,,,,,,,,,
1577742191.091231,84.000000,0.000000,4172.820313,4343.077148,4115.897461,4096.922852,4163.589844,450.000000,4.000000,,,,0.000000,4.000000,4.000000,4.000000,4.000000,4.000000,42.000000,0.000000,0.358016,0.208252,0.855225,0.311523,0.557137,-0.603037,0.574228,13.364508,-50.050842,54.773415,,,,,,,,,,,,,,,,,,,,,,,,,
1577742191.099128,85.000000,0.000000,4204.102539,4354.871582,4146.666504,4133.846191,4196.410156,450.000000,4.000000,,,,0.000000,4.000000,4.000000,4.000000,4.000000,4.000000,,,,,,,,,,,,,,,,,,,,,,,,,,,,,,,,,,,,,
1577742191.106925,86.000000,0.000000,4198.461426,4332.820313,4143.589844,4131.794922,4194.871582,450.000000,4.000000,,,,0.000000,4.000000,4.000000,4.000000,4.000000,4.000000,43.000000,0.000000,0.358016,0.208252,0.855225,0.311523,0.560555,-0.605478,0.582040,15.676794,-50.070248,55.337425,,,,,,,,,,,,,,,,,,,,,,,,,
1577742191.114821,87.000000,0.000000,4176.410156,4322.051270,4124.102539,4098.461426,4168.717773,16201.000000,4.000000,,,,0.000000,4.000000,4.000000,4.000000,4.000000,4.000000,,,,,,,,,,,,,,,,,,,,,,,,,,,,,,,,,,,,,
1577742191.122618,88.000000,0.000000,4187.179688,4340.512695,4136.922852,4115.384766,4173.333496,450.000000,4.000000,,,,0.000000,4.000000,4.000000,4.000000,4.000000,4.000000,44.000000,0.000000,0.358016,0.208252,0.855225,0.311523,0.550301,-0.603525,0.579110,14.707268,-50.147530,55.845036,,,,,,,,,,,,,,,,,,,,,,,,,
1577742191.130515,89.000000,0.000000,4210.256348,4337.436035,4158.461426,4156.410156,4195.897461,450.000000,4.000000,,,,0.000000,4.000000,4.000000,4.000000,4.000000,4.000000,,,,,,,,,,,,,,,,,,,,,,,,,,,,,,,,,,,,,
1577742191.138312,90.000000,0.000000,4198.974121,4306.666504,4139.487305,4141.025879,4185.128418,450.000000,4.000000,,,,0.000000,4.000000,4.000000,4.000000,4.000000,4.000000,45.000000,0.000000,0.357945,0.208008,0.855225,0.311768,0.545419,-0.603037,0.581552,14.014141,-50.097454,56.301884,,,,,,,,,,,,,,,,,,,,,,,,,
1577742191.146208,91.000000,0.000000,4196.922852,4325.128418,4132.307617,4127.179688,4181.538574,16201.000000,4.000000,,,,0.000000,4.000000,4.000000,4.000000,4.000000,4.000000,,,,,,,,,,,,,7.575587,2.626994,5.328660,4.187469,4.226746,1.254231,0.895052,2.727805,2.638910,3.330175,7.183256,11.468999,4.789257,3.332299,2.949651,2.637891,3.220904,6.211429,4.823409,4.110217,6.904373,3.048686,6.732352,4.705637,4.216829
1577742191.154005,92.000000,0.000000,4221.025879,4360.512695,4155.384766,4149.743652,4202.051270,450.000000,4.000000,,,,0.000000,4.000000,4.000000,4.000000,4.000000,4.000000,46.000000,0.000000,0.357945,0.208008,0.855225,0.311768,0.553231,-0.600107,0.562997,9.382697,-50.112198,56.593418,,,,,,,,,,,,,,,,,,,,,,,,,
1577742191.161702,93.000000,0.000000,4225.641113,4343.077148,4164.102539,4152.820313,4200.512695,450.000000,4.000000,,,,0.000000,4.000000,4.000000,4.000000,4.000000,4.000000,,,,,,,,,,,,,,,,,,,,,,,,,,,,,,,,,,,,,
1577742191.169499,94.000000,0.000000,4223.589844,4330.256348,4174.871582,4148.205078,4195.897461,450.000000,4.000000,,,,0.000000,4.000000,4.000000,4.000000,4.000000,4.000000,47.000000,0.000000,0.358315,0.208008,0.854980,0.312012,0.546883,-0.598154,0.556649,12.033350,-50.065655,57.095058,,,,,,,,,,,,,,,,,,,,,,,,,
1577742191.177196,95.000000,0.000000,4229.230957,4343.589844,4187.179688,4156.922852,4197.436035,16201.000000,4.000000,,,,0.000000,4.000000,4.000000,4.000000,4.000000,4.000000,,,,,,,,,,,,,,,,,,,,,,,,,,,,,,,,,,,,,
1577742191.185092,96.000000,0.000000,4229.743652,4352.820313,4181.025879,4160.000000,4191.794922,450.000000,4.000000,,,,0.000000,4.000000,4.000000,4.000000,4.000000,4.000000,48.000000,0.000000,0.358244,0.207764,0.854980,0.312256,0.553231,-0.588388,0.565438,11.607615,-50.023762,57.426903,,,,,,,,,,,,,,,,,,,,,,,,,
1577742191.192890,97.000000,0.000000,4205.641113,4336.922852,4152.307617,4126.666504,4165.128418,450.000000,4.000000,,,,0.000000,4.000000,4.000000,4.000000,4.000000,4.000000,,,,,,,,,,,,,,,,,,,,,,,,,,,,,,,,,,,,,
1577742191.200786,98.000000,0.000000,4162.051270,4295.897461,4105.641113,4076.410156,4118.974121,450.000000,4.000000,,,,0.000000,4.000000,4.000000,4.000000,4.000000,4.000000,49.000000,0.000000,0.358244,0.207764,0.854980,0.312256,0.546883,-0.605966,0.562997,11.224453,-49.986061,57.785381,,,,,,,,,,,,,,,,,,,,,,,,,
1577742191.208583,99.000000,0.000000,4159.487305,4305.128418,4096.410156,4090.256348,4117.948730,16201.000000,4.000000,,,,0.000000,4.000000,4.000000,4.000000,4.000000,4.000000,,,,,,,,,,,,,,,,,,,,,,,,,,,,,,,,,,,,,
1577742191.216480,100.000000,0.000000,4200.512695,4349.743652,4137.948730,4144.102539,4164.615234,450.000000,4.000000,,,,0.000000,4.000000,4.000000,4.000000,4.000000,4.000000,50.000000,0.000000,0.358031,0.207764,0.854980,0.312500,0.562997,-0.603037,0.570809,13.750745,-49.952133,57.988380,,,,,,,,,,,,,,,,,,,,,,,,,
1577742191.224277,101.000000,0.000000,4213.846191,4340.000000,4152.307617,4140.512695,4172.820313,450.000000,4.000000,,,,0.000000,4.000000,4.000000,4.000000,4.000000,4.000000,,,,,,,,,,,,,,,,,,,,,,,,,,,,,,,,,,,,,
1577742191.232174,102.000000,0.000000,4186.153809,4318.461426,4123.589844,4100.512695,4138.974121,450.000000,4.000000,,,,0.000000,4.000000,4.000000,4.000000,4.000000,4.000000,51.000000,0.000000,0.358755,0.207520,0.854736,0.312500,0.539559,-0.605966,0.573251,9.325087,-49.921593,58.290710,,,,,,,,,,,,,,,,,,,,,,,,,
1577742191.239971,103.000000,0.000000,4191.282227,4343.589844,4137.436035,4121.025879,4155.897461,16201.000000,4.000000,,,,0.000000,4.000000,4.000000,4.000000,4.000000,4.000000,,,,,,,,,,,,,,,,,,,,,,,,,,,,,,,,,,,,,
1577742191.247868,104.000000,0.000000,4227.692383,4355.897461,4183.077148,4173.846191,4205.641113,450.000000,4.000000,,,,0.000000,4.000000,4.000000,4.000000,4.000000,4.000000,52.000000,0.000000,0.358542,0.207520,0.854736,0.312744,0.553719,-0.618173,0.575692,9.110362,-49.894112,58.383358,,,,,,,,,,,,,,,,,,,,,,,,,
1577742191.255665,105.000000,0.000000,4205.128418,4335.384766,4163.077148,4151.794922,4178.974121,450.000000,4.000000,,,,0.000000,4.000000,4.000000,4.000000,4.000000,4.000000,,,,,,,,,,,,,,,,,,,,,,,,,,,,,,,,,,,,,
1577742191.263562,106.000000,0.000000,4171.794922,4327.692383,4127.179688,4109.743652,4138.461426,450.000000,4.000000,,,,0.000000,4.000000,4.000000,4.000000,4.000000,4.000000,53.000000,0.000000,0.358542,0.207520,0.854736,0.312744,0.541512,-0.604501,0.576669,8.976926,-49.989006,58.466743,,,,,,,,,,,,,,,,,,,,,,,,,
1577742191.271359,107.000000,0.000000,4193.333496,4324.615234,4147.179688,4142.563965,4165.641113,16201.000000,4.000000,,,,0.000000,4.000000,4.000000,4.000000,4.000000,4.000000,,,,,,,,,,,,,7.396191,2.458742,5.385158,4.541921,4.279035,1.202592,0.884791,2.635305,2.535410,3.116967,7.408747,11.930891,4.607963,3.524461,3.044549,2.674952,3.250144,6.919023,4.898283,4.050659,6.689389,2.869805,7.139797,5.078008,4.239281
1577742191.279256,108.000000,0.000000,4190.769043,4317.436035,4150.769043,4156.922852,4168.205078,450.000000,4.000000,,,,0.000000,4.000000,4.000000,4.000000,4.000000,4.000000,54.000000,0.000000,0.358542,0.207520,0.854736,0.312744,0.552254,-0.607919,0.588876,8.677387,-49.954781,56.747330,,,,,,,,,,,,,,,,,,,,,,,,,
1577742191.287052,109.000000,0.000000,4168.205078,4330.769043,4133.333496,4121.538574,4144.615234,450.000000,4.000000,,,,0.000000,4.000000,4.000000,4.000000,4.000000,4.000000,,,,,,,,,,,,,,,,,,,,,,,,,,,,,,,,,,,,,
1577742191.294949,110.000000,0.000000,4184.615234,4341.538574,4146.666504,4123.077148,4155.384766,450.000000,4.000000,,,,0.000000,4.000000,4.000000,4.000000,4.000000,4.000000,55.000000,0.000000,0.357960,0.207520,0.854980,0.312744,0.551766,-0.603037,0.584970,11.458385,-49.983791,57.113949,,,,,,,,,,,,,,,,,,,,,,,,,
1577742191.302746,111.000000,0.000000,4189.230957,4325.128418,4148.717773,4128.205078,4156.922852,16201.000000,4.000000,,,,0.000000,4.000000,4.000000,4.000000,4.000000,4.000000,,,,,,,,,,,,,,,,,,,,,,,,,,,,,,,,,,,,,
1577742191.310643,112.000000,0.000000,4181.538574,4331.282227,4149.743652,4125.128418,4154.358887,450.000000,4.000000,,,,0.000000,4.000000,4.000000,4.000000,4.000000,4.000000,56.000000,0.000000,0.358542,0.207520,0.854736,0.312744,0.541512,-0.604501,0.576669,14.021100,-49.950089,57.384090,,,,,,,,,,,,,,,,,,,,,,,,,
1577742191.318439,113.000000,0.000000,4207.179688,4361.538574,4184.615234,4150.256348,4188.717773,450.000000,4.000000,,,,0.000000,4.000000,4.000000,4.000000,4.000000,4.000000,,,,,,,,,,,,,,,,,,,,,,,,,,,,,,,,,,,,,
1577742191.326136,114.000000,0.000000,4216.922852,4353.846191,4192.307617,4155.384766,4198.974121,450.000000,4.000000,,,,0.000000,4.000000,4.000000,4.000000,4.000000,4.000000,57.000000,0.000000,0.357960,0.207520,0.854980,0.312744,0.551766,-0.603037,0.584970,16.267727,-49.979572,57.687035,,,,,,,,,,,,,,,,,,,,,,,,,
1577742191.333933,115.000000,0.000000,4187.179688,4313.846191,4155.384766,4122.563965,4157.948730,16201.000000,4.000000,,,,0.000000,4.000000,4.000000,4.000000,4.000000,4.000000,,,,,,,,,,,,,,,,,,,,,,,,,,,,,,,,,,,,,
1577742191.341630,116.000000,0.000000,4170.256348,4312.307617,4138.974121,4109.230957,4137.436035,450.000000,4.000000,,,,0.000000,4.000000,4.000000,4.000000,4.000000,4.000000,58.000000,0.000000,0.357960,0.207520,0.854980,0.312744,0.544442,-0.594736,0.580087,18.229876,-49.946289,56.045589,,,,,,,,,,,,,,,,,,,,,,,,,
1577742191.349427,117.000000,0.000000,4193.846191,4348.717773,4163.077148,4135.897461,4168.205078,450.000000,4.000000,,,,0.000000,4.000000,4.000000,4.000000,4.000000,4.000000,,,,,,,,,,,,,,,,,,,,,,,,,,,,,,,,,,,,,
1577742191.357223,118.000000,0.000000,4203.589844,4349.230957,4167.179688,4143.589844,4177.948730,450.000000,4.000000,,,,0.000000,4.000000,4.000000,4.000000,4.000000,4.000000,59.000000,0.000000,0.357960,0.207520,0.854980,0.312744,0.548348,-0.600107,0.573739,19.995811,-49.796703,56.482384,,,,,,,,,,,,,,,,,,,,,,,,,
1577742191.364920,119.000000,0.000000,4185.641113,4332.307617,4148.717773,4122.051270,4155.384766,16201.000000,4.000000,,,,0.000000,4.000000,4.000000,4.000000,4.000000,4.000000,,,,,,,,,,,,,,,,,,,,,,,,,,,,,,,,,,,,,
1577742191.372717,120.000000,0.000000,4195.384766,4352.820313,4161.538574,4125.641113,4162.563965,450.000000,4.000000,,,,0.000000,4.000000,4.000000,4.000000,4.000000,4.000000,60.000000,0.000000,0.358401,0.207764,0.854736,0.312744,0.541024,-0.597665,0.564950,18.773829,-49.901340,56.755867,,,,,,,,,,,,,,,,,,,,,,,,,
1577742191.380414,121.000000,0.000000,4214.871582,4356.410156,4178.461426,4144.102539,4180.512695,450.000000,4.000000,,,,0.000000,4.000000,4.000000,4.000000,4.000000,4.000000,,,,,,,,,,,,,,,,,,,,,,,,,,,,,,,,,,,,,
1577742191.388311,122.000000,0.000000,4202.051270,4325.128418,4162.051270,4132.307617,4174.358887,450.000000,4.000000,,,,0.000000,4.000000,4.000000,4.000000,4.000000,4.000000,61.000000,0.000000,0.358401,0.207764,0.854736,0.312744,0.548348,-0.593271,0.572274,17.614231,-49.875881,55.267357,,,,,,,,,,,,,,,,,,,,,,,,,
1577742191.396108,123.000000,0.000000,4187.692383,4331.282227,4147.179688,4113.846191,4168.205078,16201.000000,4.000000,,,,0.000000,4.000000,4.000000,4.000000,4.000000,4.000000,,,,,,,,,,,,,6.914081,2.219965,5.493674,4.824633,4.308010,1.160964,0.870965,2.512114,2.348503,2.921102,7.103881,10.926532,4.617650,3.666615,3.105939,2.608812,3.083412,7.625660,4.840412,4.037544,6.226339,2.538699,7.344696,5.385197,4.223996
1577742191.403905,124.000000,0.000000,4183.589844,4354.358887,4147.179688,4115.384766,4164.615234,450.000000,4.000000,,,,0.000000,4.000000,4.000000,4.000000,4.000000,4.000000,62.000000,0.000000,0.358401,0.207764,0.854736,0.312744,0.539559,-0.601572,0.583505,12.742409,-49.793152,55.781971,,,,,,,,,,,,,,,,,,,,,,,,,
1577742191.411802,125.000000,0.000000,4163.589844,4340.000000,4135.897461,4107.692383,4147.179688,450.000000,4.000000,,,,0.000000,4.000000,4.000000,4.000000,4.000000,4.000000,,,,,,,,,,,,,,,,,,,,,,,,,,,,,,,,,,,,,
1577742191.419599,126.000000,0.000000,4162.051270,4321.025879,4133.333496,4104.102539,4147.179688,450.000000,4.000000,,,,0.000000,4.000000,4.000000,4.000000,4.000000,4.000000,63.000000,0.000000,0.358188,0.207764,0.854736,0.312988,0.551766,-0.608896,0.583993,12.126137,-49.898144,56.125496,,,,,,,,,,,,,,,,,,,,,,,,,
1577742191.427396,127.000000,0.000000,4201.025879,4329.743652,4156.410156,4127.692383,4175.384766,236.000000,4.000000,,,,0.000000,4.000000,4.000000,4.000000,4.000000,4.000000,,,,,,,,,,,,,,,,,,,,,,,,,,,,,,,,,,,,,
1577742191.435093,0.000000,0.000000,4221.025879,4352.820313,4168.205078,4147.179688,4191.282227,450.000000,4.000000,,,,0.000000,4.000000,4.000000,4.000000,4.000000,4.000000,0.000000,0.000000,0.358046,0.208008,0.854736,0.312988,0.553719,-0.601572,0.582040,11.631308,-49.992638,56.494484,,,,,,,,,,,,,,,,,,,,,,,,,
1577742191.442890,1.000000,0.000000,4201.025879,4353.846191,4149.743652,4140.000000,4184.615234,450.000000,4.000000,,,,0.000000,4.000000,4.000000,4.000000,4.000000,4.000000,,,,,,,,,,,,,,,,,,,,,,,,,,,,,,,,,,,,,
1577742191.450586,2.000000,0.000000,4187.692383,4327.692383,4128.205078,4122.051270,4173.333496,16211.000000,4.000000,,,,0.000000,4.000000,4.000000,4.000000,4.000000,4.000000,1.000000,0.000000,0.358046,0.208008,0.854736,0.312988,0.552743,-0.604013,0.565438,11.245776,-50.137493,54.792850,,,,,,,,,,,,,,,,,,,,,,,,,
1577742191.458483,3.000000,0.000000,4189.743652,4313.333496,4123.589844,4105.641113,4162.563965,450.000000,4.000000,,,,0.000000,4.000000,4.000000,4.000000,4.000000,4.000000,,,,,,,,,,,,,,,,,,,,,,,,,,,,,,,,,,,,,
1577742191.466280,4.000000,0.000000,4205.641113,4346.153809,4148.205078,4119.487305,4181.025879,16245.000000,4.000000,,,,0.000000,4.000000,4.000000,4.000000,4.000000,4.000000,2.000000,0.000000,0.358046,0.208008,0.854736,0.312988,0.553719,-0.601572,0.578134,10.779168,-50.148235,55.414730,,,,,,,,,,,,,,,,,,,,,,,,,
1577742191.474177,5.000000,0.000000,4232.820313,4369.230957,4183.077148,4163.077148,4220.512695,450.000000,4.000000,,,,0.000000,4.000000,4.000000,4.000000,4.000000,4.000000,,,,,,,,,,,,,,,,,,,,,,,,,,,,,,,,,,,,,
1577742191.481974,6.000000,0.000000,4202.563965,4321.538574,4161.538574,4146.666504,4191.282227,16139.000000,4.000000,,,,0.000000,4.000000,4.000000,4.000000,4.000000,4.000000,3.000000,0.000000,0.358046,0.208008,0.854736,0.312988,0.559091,-0.598642,0.575204,6.471221,-50.217716,55.854794,,,,,,,,,,,,,,,,,,,,,,,,,
1577742191.489870,7.000000,0.000000,4152.307617,4291.282227,4128.717773,4095.897461,4137.436035,450.000000,4.000000,,,,0.000000,4.000000,4.000000,4.000000,4.000000,4.000000,,,,,,,,,,,,,,,,,,,,,,,,,,,,,,,,,,,,,
1577742191.497667,8.000000,0.000000,4179.487305,4337.948730,4153.846191,4122.051270,4166.153809,450.000000,4.000000,,,,0.000000,4.000000,4.000000,4.000000,4.000000,4.000000,4.000000,0.000000,0.357832,0.208008,0.854736,0.313232,0.548837,-0.597665,0.573251,6.601699,-50.280251,56.250851,,,,,,,,,,,,,,,,,,,,,,,,,
1577742191.505564,9.000000,0.000000,4197.436035,4358.974121,4152.820313,4141.538574,4182.051270,16193.000000,4.000000,,,,0.000000,4.000000,4.000000,4.000000,4.000000,4.000000,,,,,,,,,,,,,,,,,,,,,,,,,,,,,,,,,,,,,
1577742191.513361,10.000000,0.000000,4156.410156,4325.641113,4116.922852,4094.358887,4136.922852,450.000000,4.000000,,,,0.000000,4.000000,4.000000,4.000000,4.000000,4.000000,5.000000,0.000000,0.358273,0.208252,0.854492,0.313232,0.550790,-0.601083,0.570809,6.599498,-50.276718,56.667118,,,,,,,,,,,,,,,,,,,,,,,,,
1577742191.521057,11.000000,0.000000,4171.282227,4327.692383,4143.077148,4106.666504,4157.948730,16203.000000,4.000000,,,,0.000000,4.000000,4.000000,4.000000,4.000000,4.000000,,,,,,,,,,,,,6.105888,2.093540,5.611015,4.982165,4.237390,1.148523,0.849844,2.415404,2.079273,2.740272,6.291615,8.836135,4.911138,3.723846,3.106473,2.481842,2.934946,8.074041,4.683261,4.054448,5.511542,2.299653,7.275941,5.529660,4.145788
1577742191.528854,12.000000,0.000000,4227.692383,4361.538574,4180.000000,4171.794922,4223.077148,450.000000,4.000000,,,,0.000000,4.000000,4.000000,4.000000,4.000000,4.000000,6.000000,0.000000,0.358273,0.208252,0.854492,0.313232,0.545419,-0.621103,0.560067,9.468655,-50.094090,55.127666,,,,,,,,,,,,,,,,,,,,,,,,,
1577742191.536551,13.000000,0.000000,4228.717773,4354.358887,4155.897461,4164.615234,4215.384766,450.000000,4.000000,,,,0.000000,4.000000,4.000000,4.000000,4.000000,4.000000,,,,,,,,,,,,,,,,,,,,,,,,,,,,,,,,,,,,,
1577742191.544348,14.000000,0.000000,4209.230957,4336.922852,4136.410156,4129.230957,4187.179688,450.000000,4.000000,,,,0.000000,4.000000,4.000000,4.000000,4.000000,4.000000,7.000000,0.000000,0.358273,0.208252,0.854492,0.313232,0.557137,-0.594247,0.566903,12.110711,-50.049358,55.536621,,,,,,,,,,,,,,,,,,,,,,,,,
1577742191.552045,15.000000,0.000000,4207.179688,4339.487305,4147.179688,4141.025879,4193.333496,16203.000000,4.000000,,,,0.000000,4.000000,4.000000,4.000000,4.000000,4.000000,,,,,,,,,,,,,,,,,,,,,,,,,,,,,,,,,,,,,
1577742191.559841,16.000000,0.000000,4200.000000,4342.051270,4147.692383,4153.846191,4194.358887,0.000000,4.000000,,,,0.000000,4.000000,4.000000,4.000000,4.000000,4.000000,8.000000,0.000000,0.358060,0.208252,0.854492,0.313477,0.547860,-0.600107,0.568856,7.908872,-50.188541,56.024311,,,,,,,,,,,,,,,,,,,,,,,,,
1577742191.567538,17.000000,0.000000,4185.128418,4327.179688,4131.794922,4126.153809,4174.871582,0.000000,4.000000,,,,0.000000,4.000000,4.000000,4.000000,4.000000,4.000000,,,,,,,,,,,,,,,,,,,,,,,,,,,,,,,,,,,,,
1577742191.575335,18.000000,0.000000,4165.641113,4312.307617,4113.846191,4097.436035,4148.717773,0.000000,4.000000,,,,0.000000,4.000000,4.000000,4.000000,4.000000,4.000000,9.000000,0.000000,0.358060,0.208252,0.854492,0.313477,0.539559,-0.601572,0.571298,7.895585,-50.253994,56.403416,,,,,,,,,,,,,,,,,,,,,,,,,
1577742191.583032,19.000000,0.000000,4176.922852,4346.666504,4127.179688,4118.974121,4163.077148,0.000000,4.000000,,,,0.000000,4.000000,4.000000,4.000000,4.000000,4.000000,,,,,,,,,,,,,,,,,,,,,,,,,,,,,,,,,,,,,
1577742191.590829,20.000000,0.000000,4231.282227,4391.282227,4166.153809,4165.128418,4213.846191,0.000000,4.000000,,,,0.000000,4.000000,4.000000,4.000000,4.000000,4.000000,10.000000,0.000000,0.357846,0.208252,0.854492,0.313721,0.548837,-0.600107,0.568368,4.115258,-50.133453,56.684795,,,,,,,,,,,,,,,,,,,,,,,,,
1577742191.598526,21.000000,0.000000,4250.769043,4375.384766,4166.153809,4166.666504,4225.641113,0.000000,4.000000,,,,0.000000,4.000000,4.000000,4.000000,4.000000,4.000000,,,,,,,,,,,,,,,,,,,,,,,,,,,,,,,,,,,,,
1577742191.606322,22.000000,0.000000,4209.230957,4335.384766,4127.692383,4132.820313,4195.384766,0.000000,4.000000,,,,0.000000,4.000000,4.000000,4.000000,4.000000,4.000000,11.000000,0.000000,0.358428,0.208252,0.854248,0.313721,0.550301,-0.608896,0.570809,7.232839,-49.965153,57.117485,,,,,,,,,,,,,,,,,,,,,,,,,
1577742191.614019,23.000000,0.000000,4175.897461,4325.641113,4107.692383,4110.769043,4171.794922,0.000000,4.000000,,,,0.000000,4.000000,4.000000,4.000000,4.000000,4.000000,,,,,,,,,,,,,,,,,,,,,,,,,,,,,,,,,,,,,
1577742191.621816,24.000000,0.000000,4182.051270,4341.025879,4116.410156,4110.256348,4174.358887,0.000000,4.000000,,,,0.000000,4.000000,4.000000,4.000000,4.000000,4.000000,12.000000,0.000000,0.358214,0.208252,0.854248,0.313965,0.553719,-0.601572,0.560555,7.227339,-49.933315,57.327457,,,,,,,,,,,,,,,,,,,,,,,,,
1577742191.629513,25.000000,0.000000,4219.487305,4367.179688,4151.282227,4150.769043,4214.358887,0.000000,4.000000,,,,0.000000,4.000000,4.000000,4.000000,4.000000,4.000000,,,,,,,,,,,,,,,,,,,,,,,,,,,,,,,,,,,,,
1577742191.637410,26.000000,0.000000,4225.641113,4349.230957,4156.410156,4171.794922,4225.641113,0.000000,4.000000,,,,0.000000,4.000000,4.000000,4.000000,4.000000,4.000000,13.000000,0.000000,0.358356,0.208008,0.854248,0.313965,0.544930,-0.603525,0.573251,9.914081,-49.844841,57.695877,,,,,,,,,,,,,,,,,,,,,,,,,
1577742191.645207,27.000000,0.000000,4169.230957,4298.461426,4097.948730,4106.153809,4167.692383,0.000000,4.000000,,,,0.000000,4.000000,4.000000,4.000000,4.000000,4.000000,,,,,,,,,,,,,5.154737,2.196928,5.718634,4.947810,4.077404,1.135208,0.817604,2.399801,1.758927,2.582075,5.197210,6.422831,5.498558,3.663219,3.082679,2.369853,3.021784,8.110731,4.434397,4.138175,4.717019,2.378549,7.004643,5.404013,4.043295
1577742191.653104,28.000000,0.000000,4153.846191,4325.641113,4084.615479,4086.153809,4154.871582,0.000000,4.000000,,,,0.000000,4.000000,4.000000,4.000000,4.000000,4.000000,14.000000,0.000000,0.358356,0.208008,0.854248,0.313965,0.557137,-0.598154,0.568368,9.580642,-49.825035,57.967644,,,,,,,,,,,,,,,,,,,,,,,,,
1577742191.660901,29.000000,0.000000,4197.948730,4372.307617,4130.256348,4141.538574,4201.538574,0.000000,4.000000,,,,0.000000,4.000000,4.000000,4.000000,4.000000,4.000000,,,,,,,,,,,,,,,,,,,,,,,,,,,,,,,,,,,,,
1577742191.668798,30.000000,0.000000,4218.461426,4355.897461,4141.538574,4156.410156,4216.922852,0.000000,4.000000,,,,0.000000,4.000000,4.000000,4.000000,4.000000,4.000000,15.000000,0.000000,0.358142,0.208008,0.854248,0.314209,0.552254,-0.609384,0.568856,5.631809,-49.747391,58.212231,,,,,,,,,,,,,,,,,,,,,,,,,
1577742191.676595,31.000000,0.000000,4188.717773,4332.307617,4108.205078,4121.025879,4189.230957,0.000000,4.000000,,,,0.000000,4.000000,4.000000,4.000000,4.000000,4.000000,,,,,,,,,,,,,,,,,,,,,,,,,,,,,,,,,,,,,
1577742191.684491,32.000000,0.000000,4155.384766,4334.871582,4087.179443,4100.000000,4165.128418,0.000000,4.000000,,,,0.000000,4.000000,4.000000,4.000000,4.000000,4.000000,16.000000,0.000000,0.358510,0.208008,0.854004,0.314453,0.550790,-0.604013,0.566415,8.657551,-49.737328,56.458450,,,,,,,,,,,,,,,,,,,,,,,,,
1577742191.692288,33.000000,0.000000,4168.205078,4343.077148,4100.000000,4114.358887,4175.384766,0.000000,4.000000,,,,0.000000,4.000000,4.000000,4.000000,4.000000,4.000000,,,,,,,,,,,,,,,,,,,,,,,,,,,,,,,,,,,,,
1577742191.700185,34.000000,0.000000,4192.820313,4341.025879,4114.358887,4125.641113,4189.743652,0.000000,4.000000,,,,0.000000,4.000000,4.000000,4.000000,4.000000,4.000000,17.000000,0.000000,0.358510,0.208008,0.854004,0.314453,0.543465,-0.607431,0.577157,11.440533,-49.668453,56.973591,,,,,,,,,,,,,,,,,,,,,,,,,
1577742191.707981,35.000000,0.000000,4200.000000,4338.974121,4133.846191,4131.794922,4199.487305,0.000000,4.000000,,,,0.000000,4.000000,4.000000,4.000000,4.000000,4.000000,,,,,,,,,,,,,,,,,,,,,,,,,,,,,,,,,,,,,
1577742191.715878,36.000000,0.000000,4198.461426,4354.358887,4147.179688,4139.487305,4201.025879,0.000000,4.000000,,,,0.000000,4.000000,4.000000,4.000000,4.000000,4.000000,18.000000,0.000000,0.358437,0.207764,0.854004,0.314697,0.552254,-0.609384,0.573739,11.014264,-49.845730,57.377399,,,,,,,,,,,,,,,,,,,,,,,,,
1577742191.723675,37.000000,0.000000,4177.948730,4371.794922,4127.179688,4120.512695,4174.871582,0.000000,4.000000,,,,0.000000,4.000000,4.000000,4.000000,4.000000,4.000000,,,,,,,,,,,,,,,,,,,,,,,,,,,,,,,,,,,,,
1577742191.731372,38.000000,0.000000,4161.025879,4354.871582,4111.282227,4097.436035,4156.922852,0.000000,4.000000,,,,0.000000,4.000000,4.000000,4.000000,4.000000,4.000000,19.000000,0.000000,0.358437,0.207764,0.854004,0.314697,0.554696,-0.616220,0.583993,10.690437,-49.885647,57.621193,,,,,,,,,,,,,,,,,,,,,,,,,
1577742191.739168,39.000000,0.000000,4173.846191,4333.333496,4124.615234,4114.358887,4176.922852,0.000000,4.000000,,,,0.000000,4.000000,4.000000,4.000000,4.000000,4.000000,,,,,,,,,,,,,,,,,,,,,,,,,,,,,,,,,,,,,
1577742191.746965,40.000000,0.000000,4181.538574,4337.948730,4122.563965,4135.897461,4189.230957,0.000000,4.000000,,,,0.000000,4.000000,4.000000,4.000000,4.000000,4.000000,20.000000,0.000000,0.358296,0.208008,0.854004,0.314697,0.545419,-0.604501,0.569345,9.202686,-49.861759,57.900429,,,,,,,,,,,,,,,,,,,,,,,,,
1577742191.754662,41.000000,0.000000,4175.384766,4343.589844,4111.794922,4134.358887,4181.025879,0.000000,4.000000,,,,0.000000,4.000000,4.000000,4.000000,4.000000,4.000000,,,,,,,,,,,,,,,,,,,,,,,,,,,,,,,,,,,,,
1577742191.762359,42.000000,0.000000,4197.948730,4350.256348,4138.461426,4150.769043,4204.102539,0.000000,4.000000,,,,0.000000,4.000000,4.000000,4.000000,4.000000,4.000000,21.000000,0.000000,0.358437,0.207764,0.854004,0.314697,0.552254,-0.609384,0.573739,9.000202,-49.780441,58.032104,,,,,,,,,,,,,,,,,,,,,,,,,
1577742191.770156,43.000000,0.000000,4209.230957,4343.077148,4147.692383,4156.922852,4215.897461,0.000000,4.000000,,,,0.000000,4.000000,4.000000,4.000000,4.000000,4.000000,,,,,,,,,,,,,4.206229,2.529105,5.775404,4.720085,3.891693,1.100375,0.780780,2.470371,1.455539,2.479364,4.165308,4.439178,6.201537,3.506595,3.090290,2.315942,3.400198,7.638637,4.120157,4.323227,3.991982,2.833321,6.641060,4.997051,3.983007
1577742191.777853,44.000000,0.000000,4173.333496,4331.282227,4116.922852,4120.512695,4178.974121,0.000000,4.000000,,,,0.000000,4.000000,4.000000,4.000000,4.000000,4.000000,22.000000,0.000000,0.358296,0.208008,0.854004,0.314697,0.545419,-0.604501,0.569345,7.681474,-49.767075,58.270248,,,,,,,,,,,,,,,,,,,,,,,,,
1577742191.785749,45.000000,0.000000,4184.615234,4350.256348,4138.974121,4136.410156,4193.846191,0.000000,4.000000,,,,0.000000,4.000000,4.000000,4.000000,4.000000,4.000000,,,,,,,,,,,,,,,,,,,,,,,,,,,,,,,,,,,,,
1577742191.793546,46.000000,0.000000,4225.641113,4348.205078,4174.358887,4179.487305,4234.871582,0.000000,4.000000,,,,0.000000,4.000000,4.000000,4.000000,4.000000,4.000000,23.000000,0.000000,0.358296,0.208008,0.854004,0.314697,0.549325,-0.609384,0.566415,7.690927,-49.874672,58.484573,,,,,,,,,,,,,,,,,,,,,,,,,
1577742191.801443,47.000000,0.000000,4198.461426,4328.205078,4145.641113,4142.051270,4203.077148,0.000000,4.000000,,,,0.000000,4.000000,4.000000,4.000000,4.000000,4.000000,,,,,,,,,,,,,,,,,,,,,,,,,,,,,,,,,,,,,
1577742191.809240,48.000000,0.000000,4162.563965,4353.333496,4125.641113,4094.358887,4168.717773,0.000000,4.000000,,,,0.000000,4.000000,4.000000,4.000000,4.000000,4.000000,24.000000,0.000000,0.357713,0.208008,0.854248,0.314697,0.546395,-0.604990,0.570321,7.759249,-49.732250,58.737286,,,,,,,,,,,,,,,,,,,,,,,,,
1577742191.817137,49.000000,0.000000,4167.692383,4367.179688,4135.384766,4111.794922,4178.974121,0.000000,4.000000,,,,0.000000,4.000000,4.000000,4.000000,4.000000,4.000000,,,,,,,,,,,,,,,,,,,,,,,,,,,,,,,,,,,,,
1577742191.824934,50.000000,0.000000,4180.000000,4339.487305,4137.948730,4139.487305,4190.769043,0.000000,4.000000,,,,0.000000,4.000000,4.000000,4.000000,4.000000,4.000000,25.000000,0.000000,0.357713,0.208008,0.854248,0.314697,0.534676,-0.605478,0.576669,3.932740,-49.843330,56.931000,,,,,,,,,,,,,,,,,,,,,,,,,
1577742191.832731,51.000000,0.000000,4181.538574,4338.974121,4143.077148,4138.461426,4191.794922,0.000000,4.000000,,,,0.000000,4.000000,4.000000,4.000000,4.000000,4.000000,,,,,,,,,,,,,,,,,,,,,,,,,,,,,,,,,,,,,
1577742191.840428,52.000000,0.000000,4184.102539,4350.769043,4148.717773,4137.436035,4196.410156,0.000000,4.000000,,,,0.000000,4.000000,4.000000,4.000000,4.000000,4.000000,26.000000,0.000000,0.357713,0.208008,0.854248,0.314697,0.562509,-0.604990,0.572274,3.240389,-49.763859,57.099808,,,,,,,,,,,,,,,,,,,,,,,,,
1577742191.848325,53.000000,0.000000,4188.717773,4329.230957,4144.615234,4146.666504,4198.974121,0.000000,4.000000,,,,0.000000,4.000000,4.000000,4.000000,4.000000,4.000000,,,,,,,,,,,,,,,,,,,,,,,,,,,,,,,,,,,,,
1577742191.856122,54.000000,0.000000,4174.871582,4315.897461,4130.769043,4130.769043,4182.051270,0.000000,4.000000,,,,0.000000,4.000000,4.000000,4.000000,4.000000,4.000000,27.000000,0.000000,0.357713,0.208008,0.854248,0.314697,0.541024,-0.608408,0.565927,3.753766,-49.632515,57.490993,,,,,,,,,,,,,,,,,,,,,,,,,
1577742191.863919,55.000000,0.000000,4153.846191,4332.820313,4116.410156,4108.717773,4165.128418,0.000000,4.000000,,,,0.000000,4.000000,4.000000,4.000000,4.000000,4.000000,,,,,,,,,,,,,,,,,,,,,,,,,,,,,,,,,,,,,
1577742191.871616,56.000000,0.000000,4172.307617,4358.461426,4132.307617,4133.846191,4187.692383,0.000000,4.000000,,,,0.000000,4.000000,4.000000,4.000000,4.000000,4.000000,28.000000,0.000000,0.357928,0.208008,0.854248,0.314453,0.559091,-0.600595,0.565438,4.215804,-49.753571,57.843060,,,,,,,,,,,,,,,,,,,,,,,,,
1577742191.879413,57.000000,0.000000,4209.743652,4351.282227,4155.897461,4166.153809,4221.538574,0.000000,4.000000,,,,0.000000,4.000000,4.000000,4.000000,4.000000,4.000000,,,,,,,,,,,,,,,,,,,,,,,,,,,,,,,,,,,,,
1577742191.887110,58.000000,0.000000,4221.025879,4342.051270,4152.307617,4170.256348,4228.205078,0.000000,4.000000,,,,0.000000,4.000000,4.000000,4.000000,4.000000,4.000000,29.000000,0.000000,0.357713,0.208008,0.854248,0.314697,0.542489,-0.606943,0.569833,4.571824,-49.742889,57.980476,,,,,,,,,,,,,,,,,,,,,,,,,
1577742191.895006,59.000000,0.000000,4210.769043,4355.897461,4143.589844,4171.282227,4219.487305,0.000000,4.000000,,,,0.000000,4.000000,4.000000,4.000000,4.000000,4.000000,,,,,,,,,,,,,3.447323,2.967906,5.800713,4.382741,3.759660,1.019826,0.734289,2.577769,1.234803,2.484484,3.489013,3.267103,6.750019,3.319825,3.166080,2.321973,3.939835,6.725202,3.799187,4.607234,3.459693,3.501417,6.308322,4.407832,4.025417
1577742191.902903,60.000000,0.000000,4198.461426,4342.563965,4141.025879,4158.461426,4210.769043,0.000000,4.000000,,,,0.000000,4.000000,4.000000,4.000000,4.000000,4.000000,30.000000,0.000000,0.357713,0.208008,0.854248,0.314697,0.561532,-0.595712,0.576181,4.772610,-49.673462,58.163963,,,,,,,,,,,,,,,,,,,,,,,,,
1577742191.910700,61.000000,0.000000,4190.769043,4316.922852,4137.948730,4134.358887,4198.974121,0.000000,4.000000,,,,0.000000,4.000000,4.000000,4.000000,4.000000,4.000000,,,,,,,,,,,,,,,,,,,,,,,,,,,,,,,,,,,,,
1577742191.918597,62.000000,0.000000,4185.128418,4327.692383,4135.384766,4120.512695,4181.025879,0.000000,4.000000,,,,0.000000,4.000000,4.000000,4.000000,4.000000,4.000000,31.000000,0.000000,0.357713,0.208008,0.854248,0.314697,0.550301,-0.600107,0.574716,5.295402,-49.734184,58.597363,,,,,,,,,,,,,,,,,,,,,,,,,
1577742191.926394,63.000000,0.000000,4198.461426,4361.025879,4149.230957,4135.384766,4191.794922,0.000000,4.000000,,,,0.000000,4.000000,4.000000,4.000000,4.000000,4.000000,,,,,,,,,,,,,,,,,,,,,,,,,,,,,,,,,,,,,
1577742191.934291,64.000000,0.000000,4222.051270,4372.820313,4168.717773,4165.641113,4222.563965,450.000000,4.000000,,,,0.000000,4.000000,4.000000,4.000000,4.000000,4.000000,32.000000,0.000000,0.357571,0.208252,0.854248,0.314697,0.554208,-0.608408,0.572763,8.354783,-49.845070,58.719162,,,,,,,,,,,,,,,,,,,,,,,,,
1577742191.942088,65.000000,0.000000,4217.436035,4357.948730,4166.153809,4164.615234,4222.051270,450.000000,4.000000,,,,0.000000,4.000000,4.000000,4.000000,4.000000,4.000000,,,,,,,,,,,,,,,,,,,,,,,,,,,,,,,,,,,,,
1577742191.949985,66.000000,0.000000,4198.974121,4328.717773,4145.128418,4137.436035,4207.179688,16208.000000,4.000000,,,,0.000000,4.000000,4.000000,4.000000,4.000000,4.000000,33.000000,0.000000,0.357571,0.208252,0.854248,0.314697,0.538094,-0.605478,0.576669,11.108227,-49.885056,58.888599,,,,,,,,,,,,,,,,,,,,,,,,,
1577742191.957782,67.000000,0.000000,4191.282227,4304.615234,4122.051270,4122.051270,4191.282227,450.000000,4.000000,,,,0.000000,4.000000,4.000000,4.000000,4.000000,4.000000,,,,,,,,,,,,,,,,,,,,,,,,,,,,,,,,,,,,,
1577742191.965679,68.000000,0.000000,4207.179688,4317.436035,4115.897461,4116.922852,4184.615234,16242.000000,4.000000,,,,0.000000,4.000000,4.000000,4.000000,4.000000,4.000000,34.000000,0.000000,0.357571,0.208252,0.854248,0.314697,0.548348,-0.611337,0.584482,10.715189,-49.921040,58.981274,,,,,,,,,,,,,,,,,,,,,,,,,
1577742191.973476,69.000000,0.000000,4268.717773,4350.256348,4140.512695,4125.641113,4226.666504,450.000000,4.000000,,,,0.000000,4.000000,4.000000,4.000000,4.000000,4.000000,,,,,,,,,,,,,,,,,,,,,,,,,,,,,,,,,,,,,
1577742191.981373,70.000000,0.000000,4334.358887,4354.871582,4152.820313,4141.538574,4273.333496,16139.000000,4.000000,,,,0.000000,4.000000,4.000000,4.000000,4.000000,4.000000,35.000000,0.000000,0.357786,0.208252,0.854248,0.314453,0.545419,-0.599619,0.571786,10.361454,-49.833797,59.064686,,,,,,,,,,,,,,,,,,,,,,,,,
1577742191.989170,71.000000,0.000000,4350.256348,4335.897461,4121.025879,4120.000000,4261.025879,450.000000,4.000000,,,,0.000000,4.000000,4.000000,4.000000,4.000000,4.000000,,,,,,,,,,,,,,,,,,,,,,,,,,,,,,,,,,,,,
1577742191.997067,72.000000,0.000000,4393.333496,4350.256348,4126.153809,4123.589844,4283.589844,450.000000,4.000000,,,,0.000000,4.000000,4.000000,4.000000,4.000000,4.000000,36.000000,0.000000,0.357786,0.208252,0.854248,0.314453,0.544930,-0.612314,0.567880,6.274725,-49.695461,59.020123,,,,,,,,,,,,,,,,,,,,,,,,,
1577742192.004864,73.000000,0.000000,4455.897461,4363.589844,4156.410156,4157.948730,4346.153809,16187.000000,4.000000,,,,0.000000,4.000000,4.000000,4.000000,4.000000,4.000000,,,,,,,,,,,,,,,,,,,,,,,,,,,,,,,,,,,,,
1577742192.012760,74.000000,0.000000,4440.000000,4352.820313,4138.461426,4134.871582,4338.974121,450.000000,4.000000,,,,0.000000,4.000000,4.000000,4.000000,4.000000,4.000000,37.000000,0.000000,0.357928,0.208008,0.854248,0.314453,0.553231,-0.593759,0.583993,9.176359,-49.570961,59.159462,,,,,,,,,,,,,,,,,,,,,,,,,
1577742192.020557,75.000000,0.000000,4420.000000,4351.794922,4134.358887,4117.436035,4327.692383,16205.000000,4.000000,,,,0.000000,4.000000,4.000000,4.000000,4.000000,4.000000,,,,,,,,,,,,,2.907688,3.341105,5.809022,4.062219,3.733417,0.902345,0.675933,2.669404,1.133704,2.635912,3.246981,2.812456,6.903828,3.170967,3.305381,2.347961,4.390344,5.550206,3.536418,4.940657,3.096308,4.096473,6.054322,3.800709,4.183612
1577742192.028454,76.000000,0.000000,4440.512695,4346.153809,4152.307617,4153.846191,4358.974121,450.000000,4.000000,,,,0.000000,4.000000,4.000000,4.000000,4.000000,4.000000,38.000000,0.000000,0.358142,0.208008,0.854248,0.314209,0.551278,-0.606455,0.578622,11.787829,-49.578537,57.550220,,,,,,,,,,,,,,,,,,,,,,,,,
1577742192.036251,77.000000,0.000000,4408.205078,4322.051270,4123.077148,4142.563965,4337.436035,450.000000,4.000000,,,,0.000000,4.000000,4.000000,4.000000,4.000000,4.000000,,,,,,,,,,,,,,,,,,,,,,,,,,,,,,,,,,,,,
1577742192.044148,78.000000,0.000000,4354.358887,4330.769043,4106.153809,4104.615234,4295.384766,450.000000,4.000000,,,,0.000000,4.000000,4.000000,4.000000,4.000000,4.000000,39.000000,0.000000,0.357559,0.208008,0.854492,0.314209,0.555673,-0.596201,0.580087,14.197968,-49.704990,58.015999,,,,,,,,,,,,,,,,,,,,,,,,,
1577742192.051945,79.000000,0.000000,4371.282227,4362.051270,4150.256348,4143.589844,4320.000000,16205.000000,4.000000,,,,0.000000,4.000000,4.000000,4.000000,4.000000,4.000000,,,,,,,,,,,,,,,,,,,,,,,,,,,,,,,,,,,,,
1577742192.059842,80.000000,0.000000,4362.051270,4345.641113,4155.384766,4163.589844,4316.922852,450.000000,4.000000,,,,0.000000,4.000000,4.000000,4.000000,4.000000,4.000000,40.000000,0.000000,0.357559,0.208008,0.854492,0.314209,0.547860,-0.607919,0.568856,13.555772,-49.758984,56.281841,,,,,,,,,,,,,,,,,,,,,,,,,
1577742192.067739,81.000000,0.000000,4309.230957,4338.461426,4129.230957,4128.205078,4273.846191,450.000000,4.000000,,,,0.000000,4.000000,4.000000,4.000000,4.000000,4.000000,,,,,,,,,,,,,,,,,,,,,,,,,,,,,,,,,,,,,
1577742192.075536,82.000000,0.000000,4284.615234,4334.358887,4124.615234,4114.358887,4251.282227,450.000000,4.000000,,,,0.000000,4.000000,4.000000,4.000000,4.000000,4.000000,41.000000,0.000000,0.357774,0.208008,0.854492,0.313965,0.557626,-0.613779,0.579599,11.901117,-49.628128,56.754826,,,,,,,,,,,,,,,,,,,,,,,,,
1577742192.083433,83.000000,0.000000,4245.128418,4297.948730,4106.153809,4085.641113,4209.230957,16205.000000,4.000000,,,,0.000000,4.000000,4.000000,4.000000,4.000000,4.000000,,,,,,,,,,,,,,,,,,,,,,,,,,,,,,,,,,,,,
1577742192.091230,84.000000,0.000000,4237.436035,4327.692383,4127.692383,4087.692383,4208.717773,450.000000,4.000000,,,,0.000000,4.000000,4.000000,4.000000,4.000000,4.000000,42.000000,0.000000,0.357774,0.208008,0.854492,0.313965,0.553231,-0.615244,0.576181,11.368975,-49.689808,55.146790,,,,,,,,,,,,,,,,,,,,,,,,,
1577742192.099127,85.000000,0.000000,4285.641113,4381.538574,4178.461426,4160.512695,4272.307617,450.000000,4.000000,,,,0.000000,4.000000,4.000000,4.000000,4.000000,4.000000,,,,,,,,,,,,,,,,,,,,,,,,,,,,,,,,,,,,,
1577742192.106924,86.000000,0.000000,4280.512695,4342.051270,4163.589844,4174.871582,4275.384766,450.000000,4.000000,,,,0.000000,4.000000,4.000000,4.000000,4.000000,4.000000,43.000000,0.000000,0.357774,0.208008,0.854492,0.313965,0.551278,-0.601572,0.574228,7.061863,-49.685501,55.494015,,,,,,,,,,,,,,,,,,,,,,,,,
1577742192.114821,87.000000,0.000000,4231.282227,4305.128418,4135.384766,4123.077148,4224.102539,16205.000000,4.000000,,,,0.000000,4.000000,4.000000,4.000000,4.000000,4.000000,,,,,,,,,,,,,,,,,,,,,,,,,,,,,,,,,,,,,
1577742192.122618,88.000000,0.000000,4215.897461,4353.333496,4145.641113,4116.410156,4213.333496,450.000000,4.000000,,,,0.000000,4.000000,4.000000,4.000000,4.000000,4.000000,44.000000,0.000000,0.357915,0.207764,0.854492,0.313965,0.556649,-0.608896,0.584970,3.245278,-49.561996,55.985966,,,,,,,,,,,,,,,,,,,,,,,,,
1577742192.130515,89.000000,0.000000,4214.358887,4371.794922,4138.461426,4130.769043,4217.948730,450.000000,4.000000,,,,0.000000,4.000000,4.000000,4.000000,4.000000,4.000000,,,,,,,,,,,,,,,,,,,,,,,,,,,,,,,,,,,,,
1577742192.138312,90.000000,0.000000,4212.307617,4331.794922,4128.205078,4129.743652,4216.410156,450.000000,4.000000,,,,0.000000,4.000000,4.000000,4.000000,4.000000,4.000000,45.000000,0.000000,0.357915,0.207764,0.854492,0.313965,0.545419,-0.606943,0.570321,6.449857,-49.450840,56.488537,,,,,,,,,,,,,,,,,,,,,,,,,
1577742192.146209,91.000000,0.000000,4222.563965,4314.358887,4149.230957,4138.461426,4229.743652,16205.000000,4.000000,,,,0.000000,4.000000,4.000000,4.000000,4.000000,4.000000,,,,,,,,,,,,,2.691549,3.570129,5.758724,3.912265,3.796745,0.777105,0.635917,2.721997,1.164254,2.918048,3.263192,2.672238,6.536191,3.124383,3.455454,2.347880,4.529437,4.331033,3.435049,5.229830,2.842202,4.408810,5.815174,3.375929,4.394393
1577742192.154006,92.000000,0.000000,4204.615234,4330.256348,4144.102539,4127.179688,4212.820313,450.000000,4.000000,,,,0.000000,4.000000,4.000000,4.000000,4.000000,4.000000,46.000000,0.000000,0.357915,0.207764,0.854492,0.313965,0.564462,-0.584482,0.575692,9.453609,-49.530247,56.821220,,,,,,,,,,,,,,,,,,,,,,,,,
1577742192.161902,93.000000,0.000000,4185.641113,4350.256348,4122.563965,4104.615234,4192.307617,450.000000,4.000000,,,,0.000000,4.000000,4.000000,4.000000,4.000000,4.000000,,,,,,,,,,,,,,,,,,,,,,,,,,,,,,,,,,,,,
1577742192.169699,94.000000,0.000000,4211.794922,4353.846191,4145.128418,4127.692383,4223.077148,450.000000,4.000000,,,,0.000000,4.000000,4.000000,4.000000,4.000000,4.000000,47.000000,0.000000,0.357915,0.207764,0.854492,0.313965,0.554208,-0.582528,0.572763,9.106401,-49.541897,57.240265,,,,,,,,,,,,,,,,,,,,,,,,,
1577742192.177596,95.000000,0.000000,4216.410156,4329.743652,4163.077148,4150.256348,4229.230957,16205.000000,4.000000,,,,0.000000,4.000000,4.000000,4.000000,4.000000,4.000000,,,,,,,,,,,,,,,,,,,,,,,,,,,,,,,,,,,,,
1577742192.185493,96.000000,0.000000,4177.436035,4311.794922,4137.948730,4128.205078,4185.128418,450.000000,4.000000,,,,0.000000,4.000000,4.000000,4.000000,4.000000,4.000000,48.000000,0.000000,0.358057,0.207520,0.854492,0.313965,0.544930,-0.599619,0.566903,11.724868,-49.552383,57.557590,,,,,,,,,,,,,,,,,,,,,,,,,
1577742192.193290,97.000000,0.000000,4150.256348,4326.666504,4117.436035,4108.717773,4160.000000,450.000000,4.000000,,,,0.000000,4.000000,4.000000,4.000000,4.000000,4.000000,,,,,,,,,,,,,,,,,,,,,,,,,,,,,,,,,,,,,
1577742192.201087,98.000000,0.000000,4149.230957,4331.794922,4122.051270,4112.307617,4166.153809,450.000000,4.000000,,,,0.000000,4.000000,4.000000,4.000000,4.000000,4.000000,49.000000,0.000000,0.357915,0.207764,0.854492,0.313965,0.564462,-0.584482,0.575692,11.329981,-49.621635,55.869274,,,,,,,,,,,,,,,,,,,,,,,,,
1577742192.208984,99.000000,0.000000,4168.205078,4324.102539,4138.461426,4139.487305,4189.230957,16205.000000,4.000000,,,,0.000000,4.000000,4.000000,4.000000,4.000000,4.000000,,,,,,,,,,,,,,,,,,,,,,,,,,,,,,,,,,,,,
1577742192.216881,100.000000,0.000000,4186.153809,4344.102539,4155.897461,4166.666504,4210.256348,450.000000,4.000000,,,,0.000000,4.000000,4.000000,4.000000,4.000000,4.000000,50.000000,0.000000,0.358057,0.207520,0.854492,0.313965,0.544930,-0.599619,0.566903,13.726089,-49.624149,56.323700,,,,,,,,,,,,,,,,,,,,,,,,,
1577742192.224678,101.000000,0.000000,4185.641113,4365.128418,4161.538574,4158.461426,4215.897461,450.000000,4.000000,,,,0.000000,4.000000,4.000000,4.000000,4.000000,4.000000,,,,,,,,,,,,,,,,,,,,,,,,,,,,,,,,,,,,,
1577742192.232575,102.000000,0.000000,4184.615234,4352.307617,4153.333496,4142.563965,4217.436035,450.000000,4.000000,,,,0.000000,4.000000,4.000000,4.000000,4.000000,4.000000,51.000000,0.000000,0.357615,0.207275,0.854736,0.313965,0.556649,-0.614755,0.577157,13.011449,-49.686222,56.792496,,,,,,,,,,,,,,,,,,,,,,,,,
1577742192.240372,103.000000,0.000000,4175.384766,4326.666504,4134.358887,4135.897461,4199.487305,16205.000000,4.000000,,,,0.000000,4.000000,4.000000,4.000000,4.000000,4.000000,,,,,,,,,,,,,,,,,,,,,,,,,,,,,,,,,,,,,
1577742192.248269,104.000000,0.000000,4154.871582,4327.179688,4123.077148,4122.051270,4175.384766,450.000000,4.000000,,,,0.000000,4.000000,4.000000,4.000000,4.000000,4.000000,52.000000,0.000000,0.357757,0.207031,0.854736,0.313965,0.537606,-0.602060,0.572763,11.530858,-49.742092,57.214417,,,,,,,,,,,,,,,,,,,,,,,,,
1577742192.256066,105.000000,0.000000,4171.794922,4359.487305,4145.128418,4129.230957,4196.410156,450.000000,4.000000,,,,0.000000,4.000000,4.000000,4.000000,4.000000,4.000000,,,,,,,,,,,,,,,,,,,,,,,,,,,,,,,,,,,,,
1577742192.263963,106.000000,0.000000,4188.205078,4355.384766,4161.025879,4146.153809,4215.384766,450.000000,4.000000,,,,0.000000,4.000000,4.000000,4.000000,4.000000,4.000000,53.000000,0.000000,0.358112,0.206787,0.854736,0.313721,0.550790,-0.601572,0.569833,11.095556,-49.971821,57.594139,,,,,,,,,,,,,,,,,,,,,,,,,
1577742192.271760,107.000000,0.000000,4165.128418,4324.615234,4153.846191,4133.333496,4197.436035,16205.000000,4.000000,,,,0.000000,4.000000,4.000000,4.000000,4.000000,4.000000,,,,,,,,,,,,,4.032783,4.002128,5.630585,4.039501,3.887275,0.680406,0.637892,2.736297,1.329176,3.249484,3.281400,2.464528,5.699069,3.209589,3.549861,2.294122,4.293749,3.262231,3.582256,5.386137,3.045166,4.518459,5.522191,3.277452,4.562706
1577742192.279657,108.000000,0.000000,4164.615234,4348.205078,4160.512695,4132.307617,4198.461426,450.000000,4.000000,,,,0.000000,4.000000,4.000000,4.000000,4.000000,4.000000,54.000000,0.000000,0.358326,0.206787,0.854736,0.313477,0.543954,-0.594736,0.575692,13.694553,-49.939312,57.816265,,,,,,,,,,,,,,,,,,,,,,,,,
1577742192.287454,109.000000,0.000000,4175.384766,4361.025879,4158.461426,4135.384766,4200.000000,450.000000,4.000000,,,,0.000000,4.000000,4.000000,4.000000,4.000000,4.000000,,,,,,,,,,,,,,,,,,,,,,,,,,,,,,,,,,,,,
1577742192.295351,110.000000,0.000000,4162.051270,4316.922852,4137.948730,4113.846191,4180.000000,450.000000,4.000000,,,,0.000000,4.000000,4.000000,4.000000,4.000000,4.000000,55.000000,0.000000,0.358098,0.206543,0.854980,0.313232,0.547860,-0.593271,0.575692,13.102698,-49.910057,58.075989,,,,,,,,,,,,,,,,,,,,,,,,,
1577742192.303148,111.000000,0.000000,4149.743652,4298.461426,4125.128418,4101.025879,4168.205078,16205.000000,4.000000,,,,0.000000,4.000000,4.000000,4.000000,4.000000,4.000000,,,,,,,,,,,,,,,,,,,,,,,,,,,,,,,,,,,,,
1577742192.311045,112.000000,0.000000,4162.563965,4338.974121,4134.358887,4123.589844,4178.974121,450.000000,4.000000,,,,0.000000,4.000000,4.000000,4.000000,4.000000,4.000000,56.000000,0.000000,0.358098,0.206543,0.854980,0.313232,0.555673,-0.582528,0.577157,8.562399,-50.063171,56.276020,,,,,,,,,,,,,,,,,,,,,,,,,
1577742192.318842,113.000000,0.000000,4182.563965,4365.641113,4146.153809,4149.743652,4191.282227,450.000000,4.000000,,,,0.000000,4.000000,4.000000,4.000000,4.000000,4.000000,,,,,,,,,,,,,,,,,,,,,,,,,,,,,,,,,,,,,
1577742192.326738,114.000000,0.000000,4182.563965,4347.179688,4140.000000,4149.230957,4189.743652,450.000000,4.000000,,,,0.000000,4.000000,4.000000,4.000000,4.000000,4.000000,57.000000,0.000000,0.358098,0.206543,0.854980,0.313232,0.546883,-0.597177,0.577646,8.423944,-50.141163,56.570137,,,,,,,,,,,,,,,,,,,,,,,,,
1577742192.334535,115.000000,0.000000,4170.256348,4329.230957,4131.794922,4138.974121,4179.487305,16205.000000,4.000000,,,,0.000000,4.000000,4.000000,4.000000,4.000000,4.000000,,,,,,,,,,,,,,,,,,,,,,,,,,,,,,,,,,,,,
1577742192.342432,116.000000,0.000000,4150.256348,4338.461426,4121.025879,4123.589844,4160.000000,450.000000,4.000000,,,,0.000000,4.000000,4.000000,4.000000,4.000000,4.000000,58.000000,0.000000,0.357884,0.206543,0.854980,0.313477,0.560067,-0.575204,0.574228,11.170471,-50.091721,57.014294,,,,,,,,,,,,,,,,,,,,,,,,,
1577742192.350229,117.000000,0.000000,4164.102539,4355.897461,4132.820313,4136.922852,4171.794922,450.000000,4.000000,,,,0.000000,4.000000,4.000000,4.000000,4.000000,4.000000,,,,,,,,,,,,,,,,,,,,,,,,,,,,,,,,,,,,,
1577742192.358126,118.000000,0.000000,4211.794922,4349.230957,4167.179688,4170.256348,4214.871582,450.000000,4.000000,,,,0.000000,4.000000,4.000000,4.000000,4.000000,4.000000,59.000000,0.000000,0.358253,0.206543,0.854736,0.313721,0.553719,-0.595712,0.578134,10.711392,-49.927593,57.294399,,,,,,,,,,,,,,,,,,,,,,,,,
1577742192.366023,119.000000,0.000000,4204.102539,4338.974121,4156.922852,4153.333496,4208.717773,16205.000000,4.000000,,,,0.000000,4.000000,4.000000,4.000000,4.000000,4.000000,,,,,,,,,,,,,,,,,,,,,,,,,,,,,,,,,,,,,
1577742192.373820,120.000000,0.000000,4185.641113,4348.205078,4143.589844,4147.692383,4194.871582,450.000000,4.000000,,,,0.000000,4.000000,4.000000,4.000000,4.000000,4.000000,60.000000,0.000000,0.358039,0.206543,0.854736,0.313965,0.561532,-0.598154,0.570809,10.298223,-49.959324,57.606312,,,,,,,,,,,,,,,,,,,,,,,,,
1577742192.381617,121.000000,0.000000,4210.256348,4349.230957,4164.102539,4178.461426,4217.948730,450.000000,4.000000,,,,0.000000,4.000000,4.000000,4.000000,4.000000,4.000000,,,,,,,,,,,,,,,,,,,,,,,,,,,,,,,,,,,,,
1577742192.389514,122.000000,0.000000,4202.051270,4345.128418,4147.179688,4151.282227,4206.666504,450.000000,4.000000,,,,0.000000,4.000000,4.000000,4.000000,4.000000,4.000000,61.000000,0.000000,0.358039,0.206543,0.854736,0.313965,0.562997,-0.607431,0.582040,9.866554,-49.868252,56.032757,,,,,,,,,,,,,,,,,,,,,,,,,
1577742192.397311,123.000000,0.000000,4154.358887,4347.179688,4100.000000,4084.615479,4156.922852,16205.000000,4.000000,,,,0.000000,4.000000,4.000000,4.000000,4.000000,4.000000,,,,,,,,,,,,,9.631070,5.276036,5.384427,4.433016,3.942708,0.615454,0.703687,2.690830,1.623347,3.524139,3.121936,2.062774,4.552989,3.396246,3.548388,2.183063,3.793414,2.418170,3.975971,5.373866,4.677242,4.782232,5.082915,3.526456,4.623710
