title:003, start timestamp:2019-12-31T00:43:29.089877+03:00, stop timestamp:2019-12-31T00:43:41.013834+03:00, headset type:INSIGHT, headset serial:A2D200FB, headset firmware:930, subject name:Qasim, channels:56, sampling rate:eeg_128;mot_64;pow_8, samples:1532      , version:2.0
Timestamp,EEG.Counter,EEG.Interpolated,EEG.AF3,EEG.T7,EEG.Pz,EEG.T8,EEG.AF4,EEG.RawCq,EEG.Battery,MarkerIndex,MarkerType,MarkerValueInt,EEG.MarkerHardware,CQ.AF3,CQ.T7,CQ.Pz,CQ.T8,CQ.AF4,MOT.CounterMems,MOT.InterpolatedMems,MOT.Q0,MOT.Q1,MOT.Q2,MOT.Q3,MOT.AccX,MOT.AccY,MOT.AccZ,MOT.MagX,MOT.MagY,MOT.MagZ,POW.AF3.Theta,POW.AF3.Alpha,POW.AF3.BetaL,POW.AF3.BetaH,POW.AF3.Gamma,POW.T7.Theta,POW.T7.Alpha,POW.T7.BetaL,POW.T7.BetaH,POW.T7.Gamma,POW.Pz.Theta,POW.Pz.Alpha,POW.Pz.BetaL,POW.Pz.BetaH,POW.Pz.Gamma,POW.T8.Theta,POW.T8.Alpha,POW.T8.BetaL,POW.T8.BetaH,POW.T8.Gamma,POW.AF4.Theta,POW.AF4.Alpha,POW.AF4.BetaL,POW.AF4.BetaH,POW.AF4.Gamma
1577742209.089877,87.000000,0.000000,4270.256348,4353.846191,4213.333496,4174.871582,4263.589844,16211.000000,4.000000,,,,0.000000,4.000000,4.000000,4.000000,4.000000,4.000000,,,,,,,,,,,,,,,,,,,,,,,,,,,,,,,,,,,,,
1577742209.097774,88.000000,0.000000,4235.384766,4316.922852,4180.512695,4145.641113,4231.794922,450.000000,4.000000,,,,0.000000,4.000000,4.000000,4.000000,4.000000,4.000000,44.000000,0.000000,0.345188,0.181396,0.864502,0.317139,0.551278,-0.594736,0.575692,3.612318,-49.292507,57.869583,,,,,,,,,,,,,,,,,,,,,,,,,
1577742209.105671,89.000000,0.000000,4232.820313,4333.333496,4185.641113,4148.717773,4231.282227,450.000000,4.000000,,,,0.000000,4.000000,4.000000,4.000000,4.000000,4.000000,,,,,,,,,,,,,,,,,,,,,,,,,,,,,,,,,,,,,
1577742209.113469,90.000000,0.000000,4256.410156,4357.948730,4209.743652,4176.410156,4251.794922,450.000000,4.000000,,,,0.000000,4.000000,4.000000,4.000000,4.000000,4.000000,45.000000,0.000000,0.345188,0.181396,0.864502,0.317139,0.534676,-0.603037,0.575692,3.968871,-49.268116,58.064163,,,,,,,,,,,,,,,,,,,,,,,,,
1577742209.121266,91.000000,0.000000,4252.307617,4342.051270,4193.846191,4157.948730,4253.333496,16211.000000,4.000000,,,,0.000000,4.000000,4.000000,4.000000,4.000000,4.000000,,,,,,,,,,,,,61.119461,16.858250,5.386970,3.375900,3.079337,0.382158,2.291198,1.647761,2.258901,3.229907,2.963247,7.524666,5.236612,2.796458,2.709862,2.581036,6.603409,7.527450,3.712266,3.946845,29.675081,14.003910,5.956639,3.298819,3.117881
1577742209.129064,92.000000,0.000000,4228.717773,4333.846191,4168.717773,4128.717773,4224.615234,450.000000,4.000000,,,,0.000000,4.000000,4.000000,4.000000,4.000000,4.000000,46.000000,0.000000,0.345092,0.181152,0.864502,0.317383,0.558114,-0.604501,0.575692,4.289768,-49.365795,58.299099,,,,,,,,,,,,,,,,,,,,,,,,,
1577742209.136961,93.000000,0.000000,4210.769043,4339.487305,4165.641113,4125.641113,4196.922852,450.000000,4.000000,,,,0.000000,4.000000,4.000000,4.000000,4.000000,4.000000,,,,,,,,,,,,,,,,,,,,,,,,,,,,,,,,,,,,,
1577742209.144758,94.000000,0.000000,4222.051270,4349.230957,4189.230957,4142.051270,4218.461426,450.000000,4.000000,,,,0.000000,4.000000,4.000000,4.000000,4.000000,4.000000,47.000000,0.000000,0.345092,0.181152,0.864502,0.317383,0.555184,-0.587900,0.568368,4.518760,-49.453705,58.510540,,,,,,,,,,,,,,,,,,,,,,,,,
1577742209.152655,95.000000,0.000000,4235.897461,4357.436035,4201.538574,4157.436035,4234.358887,16211.000000,4.000000,,,,0.000000,4.000000,4.000000,4.000000,4.000000,4.000000,,,,,,,,,,,,,,,,,,,,,,,,,,,,,,,,,,,,,
1577742209.160453,96.000000,0.000000,4230.769043,4343.077148,4187.692383,4158.974121,4227.179688,450.000000,4.000000,,,,0.000000,4.000000,4.000000,4.000000,4.000000,4.000000,48.000000,0.000000,0.345220,0.180908,0.864502,0.317383,0.535653,-0.592294,0.597177,0.956485,-49.353382,56.726933,,,,,,,,,,,,,,,,,,,,,,,,,
1577742209.168350,97.000000,0.000000,4228.205078,4338.461426,4184.615234,4155.384766,4226.153809,450.000000,4.000000,,,,0.000000,4.000000,4.000000,4.000000,4.000000,4.000000,,,,,,,,,,,,,,,,,,,,,,,,,,,,,,,,,,,,,
1577742209.176147,98.000000,0.000000,4212.820313,4353.333496,4184.615234,4137.436035,4212.307617,450.000000,4.000000,,,,0.000000,4.000000,4.000000,4.000000,4.000000,4.000000,49.000000,0.000000,0.345348,0.180664,0.864502,0.317383,0.560555,-0.593271,0.597177,4.569389,-49.442532,57.035774,,,,,,,,,,,,,,,,,,,,,,,,,
1577742209.184044,99.000000,0.000000,4207.179688,4354.358887,4181.538574,4135.897461,4211.794922,16211.000000,4.000000,,,,0.000000,4.000000,4.000000,4.000000,4.000000,4.000000,,,,,,,,,,,,,,,,,,,,,,,,,,,,,,,,,,,,,
1577742209.191841,100.000000,0.000000,4223.077148,4342.563965,4188.717773,4157.948730,4227.692383,450.000000,4.000000,,,,0.000000,4.000000,4.000000,4.000000,4.000000,4.000000,50.000000,0.000000,0.345123,0.180664,0.864502,0.317627,0.555184,-0.583017,0.598154,0.942236,-49.283508,57.313732,,,,,,,,,,,,,,,,,,,,,,,,,
1577742209.199739,101.000000,0.000000,4204.615234,4334.358887,4173.846191,4145.128418,4210.256348,450.000000,4.000000,,,,0.000000,4.000000,4.000000,4.000000,4.000000,4.000000,,,,,,,,,,,,,,,,,,,,,,,,,,,,,,,,,,,,,
1577742209.207536,102.000000,0.000000,4188.205078,4342.051270,4158.974121,4134.871582,4197.948730,450.000000,4.000000,,,,0.000000,4.000000,4.000000,4.000000,4.000000,4.000000,51.000000,0.000000,0.345123,0.180664,0.864502,0.317627,0.538582,-0.598154,0.596689,4.377119,-49.379650,57.623711,,,,,,,,,,,,,,,,,,,,,,,,,
1577742209.215433,103.000000,0.000000,4238.974121,4365.128418,4197.948730,4186.666504,4244.102539,16211.000000,4.000000,,,,0.000000,4.000000,4.000000,4.000000,4.000000,4.000000,,,,,,,,,,,,,,,,,,,,,,,,,,,,,,,,,,,,,
1577742209.223230,104.000000,0.000000,4290.256348,4376.922852,4240.512695,4229.743652,4292.820313,450.000000,4.000000,,,,0.000000,4.000000,4.000000,4.000000,4.000000,4.000000,52.000000,0.000000,0.344995,0.180908,0.864502,0.317627,0.540536,-0.596689,0.591318,4.717007,-49.406361,58.022324,,,,,,,,,,,,,,,,,,,,,,,,,
1577742209.231127,105.000000,0.000000,4252.307617,4337.436035,4203.589844,4178.461426,4258.974121,450.000000,4.000000,,,,0.000000,4.000000,4.000000,4.000000,4.000000,4.000000,,,,,,,,,,,,,,,,,,,,,,,,,,,,,,,,,,,,,
1577742209.238925,106.000000,0.000000,4193.846191,4309.230957,4151.282227,4112.307617,4194.871582,450.000000,4.000000,,,,0.000000,4.000000,4.000000,4.000000,4.000000,4.000000,53.000000,0.000000,0.345220,0.180908,0.864502,0.317383,0.538094,-0.603037,0.593759,4.065860,-49.310768,56.227722,,,,,,,,,,,,,,,,,,,,,,,,,
1577742209.246822,107.000000,0.000000,4213.846191,4358.461426,4175.384766,4137.948730,4209.230957,16211.000000,4.000000,,,,0.000000,4.000000,4.000000,4.000000,4.000000,4.000000,,,,,,,,,,,,,59.563564,16.844595,3.753921,3.677729,3.205553,0.365968,2.272620,1.389858,2.721933,3.317668,2.988616,7.599649,3.317111,3.115033,2.918008,2.573470,7.385260,4.738264,4.088349,4.120527,29.419060,14.746786,4.000589,3.636336,3.219431
1577742209.254719,108.000000,0.000000,4251.794922,4376.922852,4217.436035,4178.974121,4258.461426,450.000000,4.000000,,,,0.000000,4.000000,4.000000,4.000000,4.000000,4.000000,54.000000,0.000000,0.345316,0.181152,0.864502,0.317139,0.526375,-0.596689,0.596689,4.377059,-49.344368,56.646301,,,,,,,,,,,,,,,,,,,,,,,,,
1577742209.262516,109.000000,0.000000,4253.846191,4332.820313,4217.948730,4165.128418,4265.128418,450.000000,4.000000,,,,0.000000,4.000000,4.000000,4.000000,4.000000,4.000000,,,,,,,,,,,,,,,,,,,,,,,,,,,,,,,,,,,,,
1577742209.270413,110.000000,0.000000,4255.384766,4320.512695,4205.128418,4154.358887,4252.307617,450.000000,4.000000,,,,0.000000,4.000000,4.000000,4.000000,4.000000,4.000000,55.000000,0.000000,0.345668,0.180908,0.864502,0.316895,0.540047,-0.570809,0.586923,7.468459,-49.314789,56.903393,,,,,,,,,,,,,,,,,,,,,,,,,
1577742209.278210,111.000000,0.000000,4256.410156,4342.051270,4197.436035,4162.563965,4244.102539,16211.000000,4.000000,,,,0.000000,4.000000,4.000000,4.000000,4.000000,4.000000,,,,,,,,,,,,,,,,,,,,,,,,,,,,,,,,,,,,,
1577742209.286108,112.000000,0.000000,4244.615234,4358.461426,4189.230957,4151.794922,4234.871582,450.000000,4.000000,,,,0.000000,4.000000,4.000000,4.000000,4.000000,4.000000,56.000000,0.000000,0.345057,0.180908,0.864746,0.316895,0.540536,-0.575204,0.587411,3.671030,-49.347988,55.160866,,,,,,,,,,,,,,,,,,,,,,,,,
1577742209.293905,113.000000,0.000000,4238.974121,4359.487305,4184.615234,4135.384766,4230.769043,450.000000,4.000000,,,,0.000000,4.000000,4.000000,4.000000,4.000000,4.000000,,,,,,,,,,,,,,,,,,,,,,,,,,,,,,,,,,,,,
1577742209.301802,114.000000,0.000000,4270.769043,4354.358887,4204.615234,4157.948730,4257.436035,450.000000,4.000000,,,,0.000000,4.000000,4.000000,4.000000,4.000000,4.000000,57.000000,0.000000,0.345185,0.180664,0.864746,0.316895,0.548348,-0.562020,0.581064,4.021711,-49.377865,55.686131,,,,,,,,,,,,,,,,,,,,,,,,,
1577742209.309599,115.000000,0.000000,4303.589844,4362.563965,4227.692383,4183.589844,4284.102539,16211.000000,4.000000,,,,0.000000,4.000000,4.000000,4.000000,4.000000,4.000000,,,,,,,,,,,,,,,,,,,,,,,,,,,,,,,,,,,,,
1577742209.317496,116.000000,0.000000,4277.948730,4366.666504,4202.051270,4162.563965,4261.538574,450.000000,4.000000,,,,0.000000,4.000000,4.000000,4.000000,4.000000,4.000000,58.000000,0.000000,0.344961,0.180664,0.864746,0.317139,0.554208,-0.576181,0.596201,7.328093,-49.464569,54.304596,,,,,,,,,,,,,,,,,,,,,,,,,
1577742209.325294,117.000000,0.000000,4243.589844,4336.922852,4163.589844,4130.769043,4233.333496,450.000000,4.000000,,,,0.000000,4.000000,4.000000,4.000000,4.000000,4.000000,,,,,,,,,,,,,,,,,,,,,,,,,,,,,,,,,,,,,
1577742209.333191,118.000000,0.000000,4267.692383,4316.922852,4176.410156,4144.102539,4250.769043,450.000000,4.000000,,,,0.000000,4.000000,4.000000,4.000000,4.000000,4.000000,59.000000,0.000000,0.345088,0.180420,0.864746,0.317139,0.562509,-0.583993,0.590341,10.064574,-49.602417,54.915485,,,,,,,,,,,,,,,,,,,,,,,,,
1577742209.340988,119.000000,0.000000,4306.153809,4332.820313,4200.512695,4182.051270,4285.128418,16211.000000,4.000000,,,,0.000000,4.000000,4.000000,4.000000,4.000000,4.000000,,,,,,,,,,,,,,,,,,,,,,,,,,,,,,,,,,,,,
1577742209.348885,120.000000,0.000000,4310.256348,4340.512695,4196.410156,4190.769043,4300.000000,450.000000,4.000000,,,,0.000000,4.000000,4.000000,4.000000,4.000000,4.000000,60.000000,0.000000,0.345088,0.180420,0.864746,0.317139,0.555673,-0.592294,0.597177,9.716086,-49.487221,55.465290,,,,,,,,,,,,,,,,,,,,,,,,,
1577742209.356682,121.000000,0.000000,4311.794922,4345.128418,4195.384766,4178.461426,4300.000000,450.000000,4.000000,,,,0.000000,4.000000,4.000000,4.000000,4.000000,4.000000,,,,,,,,,,,,,,,,,,,,,,,,,,,,,,,,,,,,,
1577742209.364579,122.000000,0.000000,4313.333496,4360.512695,4196.922852,4167.692383,4294.871582,450.000000,4.000000,,,,0.000000,4.000000,4.000000,4.000000,4.000000,4.000000,61.000000,0.000000,0.345088,0.180420,0.864746,0.317139,0.554208,-0.584482,0.588388,9.581893,-49.503174,53.926392,,,,,,,,,,,,,,,,,,,,,,,,,
1577742209.372477,123.000000,0.000000,4305.128418,4355.897461,4189.743652,4165.641113,4295.897461,16211.000000,4.000000,,,,0.000000,4.000000,4.000000,4.000000,4.000000,4.000000,,,,,,,,,,,,,50.728706,15.492867,3.048143,4.033050,3.450158,0.441519,2.079738,1.242428,3.116913,3.482359,2.985387,7.244057,2.274659,3.474826,3.175041,2.851682,8.080683,3.303930,4.577407,4.334845,25.955143,14.488082,3.112670,3.994781,3.498281
1577742209.380274,124.000000,0.000000,4317.948730,4344.102539,4195.384766,4178.974121,4309.230957,450.000000,4.000000,,,,0.000000,4.000000,4.000000,4.000000,4.000000,4.000000,62.000000,0.000000,0.345216,0.180176,0.864746,0.317139,0.560067,-0.574716,0.589853,9.461119,-49.338085,54.575104,,,,,,,,,,,,,,,,,,,,,,,,,
1577742209.388171,125.000000,0.000000,4332.820313,4348.717773,4203.077148,4177.436035,4311.794922,450.000000,4.000000,,,,0.000000,4.000000,4.000000,4.000000,4.000000,4.000000,,,,,,,,,,,,,,,,,,,,,,,,,,,,,,,,,,,,,
1577742209.395968,126.000000,0.000000,4325.128418,4354.358887,4197.436035,4161.538574,4299.487305,450.000000,4.000000,,,,0.000000,4.000000,4.000000,4.000000,4.000000,4.000000,63.000000,0.000000,0.345343,0.179932,0.864746,0.317139,0.551278,-0.590829,0.595712,12.044113,-49.309135,53.304668,,,,,,,,,,,,,,,,,,,,,,,,,
1577742209.403865,127.000000,0.000000,4316.410156,4346.666504,4192.307617,4162.051270,4291.282227,236.000000,4.000000,,,,0.000000,4.000000,4.000000,4.000000,4.000000,4.000000,,,,,,,,,,,,,,,,,,,,,,,,,,,,,,,,,,,,,
1577742209.411663,0.000000,0.000000,4333.333496,4353.333496,4204.615234,4183.077148,4308.205078,450.000000,4.000000,,,,0.000000,4.000000,4.000000,4.000000,4.000000,4.000000,0.000000,0.000000,0.345343,0.179932,0.864746,0.317139,0.554208,-0.577157,0.585946,11.378040,-49.283085,54.075371,,,,,,,,,,,,,,,,,,,,,,,,,
1577742209.419560,1.000000,0.000000,4330.769043,4358.461426,4201.538574,4179.487305,4312.307617,450.000000,4.000000,,,,0.000000,4.000000,4.000000,4.000000,4.000000,4.000000,,,,,,,,,,,,,,,,,,,,,,,,,,,,,,,,,,,,,
1577742209.427357,2.000000,0.000000,4285.128418,4343.589844,4169.743652,4144.615234,4274.871582,16224.000000,4.000000,,,,0.000000,4.000000,4.000000,4.000000,4.000000,4.000000,1.000000,0.000000,0.345246,0.179688,0.864746,0.317383,0.553231,-0.583017,0.599130,11.017836,-49.379265,52.675461,,,,,,,,,,,,,,,,,,,,,,,,,
1577742209.435254,3.000000,0.000000,4272.820313,4337.948730,4164.615234,4142.051270,4262.051270,450.000000,4.000000,,,,0.000000,4.000000,4.000000,4.000000,4.000000,4.000000,,,,,,,,,,,,,,,,,,,,,,,,,,,,,,,,,,,,,
1577742209.443051,4.000000,0.000000,4288.205078,4338.974121,4172.820313,4157.436035,4276.410156,16237.000000,4.000000,,,,0.000000,4.000000,4.000000,4.000000,4.000000,4.000000,2.000000,0.000000,0.345373,0.179443,0.864746,0.317383,0.552254,-0.576181,0.594247,10.574021,-49.226566,53.509083,,,,,,,,,,,,,,,,,,,,,,,,,
1577742209.450949,5.000000,0.000000,4283.077148,4339.487305,4159.487305,4149.230957,4277.436035,450.000000,4.000000,,,,0.000000,4.000000,4.000000,4.000000,4.000000,4.000000,,,,,,,,,,,,,,,,,,,,,,,,,,,,,,,,,,,,,
1577742209.458746,6.000000,0.000000,4289.230957,4338.974121,4167.179688,4159.487305,4286.666504,16142.000000,4.000000,,,,0.000000,4.000000,4.000000,4.000000,4.000000,4.000000,3.000000,0.000000,0.345148,0.179443,0.864746,0.317627,0.539071,-0.571786,0.592294,6.346405,-49.268585,54.259342,,,,,,,,,,,,,,,,,,,,,,,,,
1577742209.466643,7.000000,0.000000,4314.871582,4328.205078,4196.410156,4204.102539,4311.794922,450.000000,4.000000,,,,0.000000,4.000000,4.000000,4.000000,4.000000,4.000000,,,,,,,,,,,,,,,,,,,,,,,,,,,,,,,,,,,,,
1577742209.474440,8.000000,0.000000,4304.615234,4325.128418,4183.589844,4211.282227,4310.256348,450.000000,4.000000,,,,0.000000,4.000000,4.000000,4.000000,4.000000,4.000000,4.000000,0.000000,0.345148,0.179443,0.864746,0.317627,0.557626,-0.580575,0.585946,6.369733,-49.306404,53.080299,,,,,,,,,,,,,,,,,,,,,,,,,
1577742209.482337,9.000000,0.000000,4270.769043,4325.128418,4146.666504,4168.205078,4278.974121,16202.000000,4.000000,,,,0.000000,4.000000,4.000000,4.000000,4.000000,4.000000,,,,,,,,,,,,,,,,,,,,,,,,,,,,,,,,,,,,,
1577742209.490135,10.000000,0.000000,4291.282227,4333.333496,4165.128418,4171.282227,4285.641113,450.000000,4.000000,,,,0.000000,4.000000,4.000000,4.000000,4.000000,4.000000,5.000000,0.000000,0.345373,0.179443,0.864746,0.317383,0.552254,-0.576181,0.594247,6.390729,-49.340439,51.839714,,,,,,,,,,,,,,,,,,,,,,,,,
1577742209.498032,11.000000,0.000000,4317.948730,4353.846191,4191.282227,4192.820313,4306.666504,16214.000000,4.000000,,,,0.000000,4.000000,4.000000,4.000000,4.000000,4.000000,,,,,,,,,,,,,37.498222,13.311005,2.886937,4.326007,3.710614,0.556514,1.775050,1.177084,3.289687,3.701389,2.894658,6.569116,1.878805,3.757974,3.386949,3.258343,8.462536,2.850475,5.022639,4.491749,20.391596,13.311369,2.904341,4.261567,3.828678
1577742209.505829,12.000000,0.000000,4281.025879,4357.436035,4162.051270,4154.871582,4278.974121,450.000000,4.000000,,,,0.000000,4.000000,4.000000,4.000000,4.000000,4.000000,6.000000,0.000000,0.345148,0.179443,0.864746,0.317627,0.557626,-0.580575,0.585946,6.409625,-49.371071,50.902634,,,,,,,,,,,,,,,,,,,,,,,,,
1577742209.513726,13.000000,0.000000,4237.436035,4334.871582,4130.256348,4113.846191,4235.897461,450.000000,4.000000,,,,0.000000,4.000000,4.000000,4.000000,4.000000,4.000000,,,,,,,,,,,,,,,,,,,,,,,,,,,,,,,,,,,,,
1577742209.521523,14.000000,0.000000,4228.717773,4322.051270,4124.102539,4104.102539,4221.025879,450.000000,4.000000,,,,0.000000,4.000000,4.000000,4.000000,4.000000,4.000000,7.000000,0.000000,0.345275,0.179199,0.864746,0.317627,0.548348,-0.571786,0.593271,2.718079,-49.458454,51.853722,,,,,,,,,,,,,,,,,,,,,,,,,
1577742209.529420,15.000000,0.000000,4243.077148,4340.512695,4135.384766,4119.487305,4240.512695,16214.000000,4.000000,,,,0.000000,4.000000,4.000000,4.000000,4.000000,4.000000,,,,,,,,,,,,,,,,,,,,,,,,,,,,,,,,,,,,,
1577742209.537318,16.000000,0.000000,4265.641113,4352.820313,4156.410156,4154.871582,4266.153809,0.000000,4.000000,,,,0.000000,4.000000,4.000000,4.000000,4.000000,4.000000,8.000000,0.000000,0.345275,0.179199,0.864746,0.317627,0.548348,-0.576181,0.592782,3.223871,-49.537098,52.709702,,,,,,,,,,,,,,,,,,,,,,,,,
1577742209.545115,17.000000,0.000000,4258.974121,4332.820313,4143.077148,4148.717773,4253.333496,0.000000,4.000000,,,,0.000000,4.000000,4.000000,4.000000,4.000000,4.000000,,,,,,,,,,,,,,,,,,,,,,,,,,,,,,,,,,,,,
1577742209.552912,18.000000,0.000000,4236.410156,4327.179688,4124.615234,4124.102539,4237.436035,0.000000,4.000000,,,,0.000000,4.000000,4.000000,4.000000,4.000000,4.000000,9.000000,0.000000,0.345662,0.179199,0.864502,0.317871,0.552743,-0.595224,0.591806,6.550221,-49.488251,53.539898,,,,,,,,,,,,,,,,,,,,,,,,,
1577742209.560809,19.000000,0.000000,4256.922852,4354.871582,4171.282227,4164.615234,4271.282227,0.000000,4.000000,,,,0.000000,4.000000,4.000000,4.000000,4.000000,4.000000,,,,,,,,,,,,,,,,,,,,,,,,,,,,,,,,,,,,,
1577742209.568606,20.000000,0.000000,4301.538574,4351.282227,4209.743652,4205.641113,4310.256348,0.000000,4.000000,,,,0.000000,4.000000,4.000000,4.000000,4.000000,4.000000,10.000000,0.000000,0.345310,0.179443,0.864502,0.318115,0.542489,-0.583017,0.587411,2.844615,-49.563915,54.227261,,,,,,,,,,,,,,,,,,,,,,,,,
1577742209.576504,21.000000,0.000000,4318.974121,4324.102539,4189.743652,4190.769043,4308.717773,0.000000,4.000000,,,,0.000000,4.000000,4.000000,4.000000,4.000000,4.000000,,,,,,,,,,,,,,,,,,,,,,,,,,,,,,,,,,,,,
1577742209.584301,22.000000,0.000000,4307.179688,4343.077148,4173.846191,4175.897461,4289.743652,0.000000,4.000000,,,,0.000000,4.000000,4.000000,4.000000,4.000000,4.000000,11.000000,0.000000,0.345183,0.179688,0.864502,0.318115,0.533211,-0.591318,0.575692,3.218123,-49.512383,54.905701,,,,,,,,,,,,,,,,,,,,,,,,,
1577742209.592198,23.000000,0.000000,4287.179688,4356.410156,4168.717773,4160.512695,4265.641113,0.000000,4.000000,,,,0.000000,4.000000,4.000000,4.000000,4.000000,4.000000,,,,,,,,,,,,,,,,,,,,,,,,,,,,,,,,,,,,,
1577742209.599995,24.000000,0.000000,4274.358887,4332.307617,4152.820313,4128.205078,4248.717773,0.000000,4.000000,,,,0.000000,4.000000,4.000000,4.000000,4.000000,4.000000,12.000000,0.000000,0.345408,0.179688,0.864502,0.317871,0.555184,-0.608408,0.578134,3.673910,-49.466003,55.516300,,,,,,,,,,,,,,,,,,,,,,,,,
1577742209.607892,25.000000,0.000000,4262.051270,4340.512695,4140.512695,4112.820313,4244.615234,0.000000,4.000000,,,,0.000000,4.000000,4.000000,4.000000,4.000000,4.000000,,,,,,,,,,,,,,,,,,,,,,,,,,,,,,,,,,,,,
1577742209.615690,26.000000,0.000000,4266.666504,4379.487305,4153.846191,4132.820313,4253.846191,0.000000,4.000000,,,,0.000000,4.000000,4.000000,4.000000,4.000000,4.000000,13.000000,0.000000,0.345056,0.179932,0.864502,0.318115,0.545907,-0.588388,0.579110,4.084119,-49.603710,56.006020,,,,,,,,,,,,,,,,,,,,,,,,,
1577742209.623587,27.000000,0.000000,4295.384766,4377.436035,4176.922852,4165.128418,4276.922852,0.000000,4.000000,,,,0.000000,4.000000,4.000000,4.000000,4.000000,4.000000,,,,,,,,,,,,,24.195082,10.879968,2.804298,4.529371,3.950423,0.664922,1.443770,1.159634,3.181374,3.910887,2.685195,5.676119,1.745815,3.913035,3.530415,3.670056,8.355385,2.812656,5.350729,4.591592,14.587696,11.472917,2.847835,4.434234,4.142152
1577742209.631484,28.000000,0.000000,4284.102539,4331.794922,4163.077148,4153.333496,4267.692383,0.000000,4.000000,,,,0.000000,4.000000,4.000000,4.000000,4.000000,4.000000,14.000000,0.000000,0.345540,0.180176,0.864258,0.318115,0.563973,-0.592782,0.582528,4.453307,-49.608013,56.386955,,,,,,,,,,,,,,,,,,,,,,,,,
1577742209.639281,29.000000,0.000000,4221.025879,4306.153809,4114.358887,4084.102539,4202.563965,0.000000,4.000000,,,,0.000000,4.000000,4.000000,4.000000,4.000000,4.000000,,,,,,,,,,,,,,,,,,,,,,,,,,,,,,,,,,,,,
1577742209.647178,30.000000,0.000000,4208.205078,4317.436035,4104.615234,4056.410156,4174.358887,0.000000,4.000000,,,,0.000000,4.000000,4.000000,4.000000,4.000000,4.000000,15.000000,0.000000,0.345285,0.180664,0.864258,0.318115,0.555184,-0.605478,0.599619,7.537083,-49.611889,56.789612,,,,,,,,,,,,,,,,,,,,,,,,,
1577742209.655075,31.000000,0.000000,4273.846191,4345.128418,4156.410156,4124.102539,4234.358887,0.000000,4.000000,,,,0.000000,4.000000,4.000000,4.000000,4.000000,4.000000,,,,,,,,,,,,,,,,,,,,,,,,,,,,,,,,,,,,,
1577742209.662873,32.000000,0.000000,4303.077148,4367.179688,4183.589844,4160.000000,4268.205078,0.000000,4.000000,,,,0.000000,4.000000,4.000000,4.000000,4.000000,4.000000,16.000000,0.000000,0.345029,0.181152,0.864258,0.318115,0.546883,-0.604501,0.575692,7.560974,-49.615376,57.331448,,,,,,,,,,,,,,,,,,,,,,,,,
1577742209.670670,33.000000,0.000000,4267.692383,4362.563965,4165.641113,4117.948730,4231.282227,0.000000,4.000000,,,,0.000000,4.000000,4.000000,4.000000,4.000000,4.000000,,,,,,,,,,,,,,,,,,,,,,,,,,,,,,,,,,,,,
1577742209.678567,34.000000,0.000000,4255.897461,4344.615234,4154.358887,4107.179688,4214.871582,0.000000,4.000000,,,,0.000000,4.000000,4.000000,4.000000,4.000000,4.000000,17.000000,0.000000,0.344772,0.181641,0.864258,0.318115,0.542977,-0.601572,0.577646,7.522661,-49.498882,57.579842,,,,,,,,,,,,,,,,,,,,,,,,,
1577742209.686364,35.000000,0.000000,4274.871582,4346.666504,4161.538574,4140.512695,4232.307617,0.000000,4.000000,,,,0.000000,4.000000,4.000000,4.000000,4.000000,4.000000,,,,,,,,,,,,,,,,,,,,,,,,,,,,,,,,,,,,,
1577742209.694261,36.000000,0.000000,4277.436035,4363.077148,4167.179688,4143.589844,4234.358887,0.000000,4.000000,,,,0.000000,4.000000,4.000000,4.000000,4.000000,4.000000,18.000000,0.000000,0.344740,0.182129,0.864258,0.317871,0.537606,-0.609384,0.570809,7.607810,-49.394039,58.042656,,,,,,,,,,,,,,,,,,,,,,,,,
1577742209.702059,37.000000,0.000000,4261.538574,4353.333496,4155.384766,4113.846191,4220.512695,0.000000,4.000000,,,,0.000000,4.000000,4.000000,4.000000,4.000000,4.000000,,,,,,,,,,,,,,,,,,,,,,,,,,,,,,,,,,,,,
1577742209.709956,38.000000,0.000000,4252.820313,4344.615234,4149.230957,4105.641113,4215.384766,0.000000,4.000000,,,,0.000000,4.000000,4.000000,4.000000,4.000000,4.000000,19.000000,0.000000,0.344706,0.182617,0.864258,0.317627,0.541024,-0.621103,0.567391,7.624629,-49.239864,58.339558,,,,,,,,,,,,,,,,,,,,,,,,,
1577742209.717753,39.000000,0.000000,4266.153809,4368.205078,4174.871582,4135.384766,4234.871582,0.000000,4.000000,,,,0.000000,4.000000,4.000000,4.000000,4.000000,4.000000,,,,,,,,,,,,,,,,,,,,,,,,,,,,,,,,,,,,,
1577742209.725650,40.000000,0.000000,4279.487305,4368.205078,4192.307617,4155.897461,4250.256348,0.000000,4.000000,,,,0.000000,4.000000,4.000000,4.000000,4.000000,4.000000,20.000000,0.000000,0.344189,0.182861,0.864502,0.317383,0.541024,-0.615244,0.583505,3.751767,-49.220737,56.692677,,,,,,,,,,,,,,,,,,,,,,,,,
1577742209.733447,41.000000,0.000000,4273.333496,4340.512695,4176.922852,4151.282227,4237.436035,0.000000,4.000000,,,,0.000000,4.000000,4.000000,4.000000,4.000000,4.000000,,,,,,,,,,,,,,,,,,,,,,,,,,,,,,,,,,,,,
1577742209.741345,42.000000,0.000000,4280.000000,4346.666504,4180.512695,4168.205078,4242.051270,0.000000,4.000000,,,,0.000000,4.000000,4.000000,4.000000,4.000000,4.000000,21.000000,0.000000,0.344509,0.183105,0.864502,0.316895,0.545907,-0.611826,0.576669,3.914929,-49.203526,57.124577,,,,,,,,,,,,,,,,,,,,,,,,,
1577742209.749142,43.000000,0.000000,4290.769043,4364.615234,4198.461426,4185.128418,4266.153809,0.000000,4.000000,,,,0.000000,4.000000,4.000000,4.000000,4.000000,4.000000,,,,,,,,,,,,,14.212872,8.745678,2.539598,4.645718,4.161778,0.738076,1.171579,1.158867,2.837151,4.019272,2.374428,4.697795,1.577541,3.932449,3.618605,4.008221,7.816513,2.768998,5.518012,4.674503,10.049924,9.403646,2.604728,4.544861,4.396591
1577742209.757039,44.000000,0.000000,4274.358887,4352.820313,4183.589844,4161.538574,4255.897461,0.000000,4.000000,,,,0.000000,4.000000,4.000000,4.000000,4.000000,4.000000,22.000000,0.000000,0.344604,0.183350,0.864502,0.316650,0.545907,-0.592294,0.580575,0.353221,-49.128216,57.573101,,,,,,,,,,,,,,,,,,,,,,,,,
1577742209.764836,45.000000,0.000000,4265.641113,4342.563965,4164.102539,4151.794922,4235.384766,0.000000,4.000000,,,,0.000000,4.000000,4.000000,4.000000,4.000000,4.000000,,,,,,,,,,,,,,,,,,,,,,,,,,,,,,,,,,,,,
1577742209.772733,46.000000,0.000000,4260.000000,4342.051270,4156.410156,4149.743652,4223.077148,0.000000,4.000000,,,,0.000000,4.000000,4.000000,4.000000,4.000000,4.000000,23.000000,0.000000,0.344121,0.183105,0.864746,0.316650,0.555673,-0.595224,0.581552,3.906821,-49.299702,57.976772,,,,,,,,,,,,,,,,,,,,,,,,,
1577742209.780630,47.000000,0.000000,4223.077148,4331.794922,4141.538574,4115.384766,4196.410156,0.000000,4.000000,,,,0.000000,4.000000,4.000000,4.000000,4.000000,4.000000,,,,,,,,,,,,,,,,,,,,,,,,,,,,,,,,,,,,,
1577742209.788428,48.000000,0.000000,4198.461426,4338.461426,4137.948730,4093.333252,4180.000000,0.000000,4.000000,,,,0.000000,4.000000,4.000000,4.000000,4.000000,4.000000,24.000000,0.000000,0.344121,0.183105,0.864746,0.316650,0.545419,-0.592294,0.579599,4.293739,-49.274590,58.340080,,,,,,,,,,,,,,,,,,,,,,,,,
1577742209.796325,49.000000,0.000000,4200.000000,4362.563965,4152.820313,4094.871826,4178.974121,0.000000,4.000000,,,,0.000000,4.000000,4.000000,4.000000,4.000000,4.000000,,,,,,,,,,,,,,,,,,,,,,,,,,,,,,,,,,,,,
1577742209.804122,50.000000,0.000000,4195.384766,4362.051270,4149.743652,4089.230713,4173.333496,0.000000,4.000000,,,,0.000000,4.000000,4.000000,4.000000,4.000000,4.000000,25.000000,0.000000,0.344380,0.182617,0.864746,0.316650,0.554696,-0.606455,0.572274,4.701780,-49.251991,56.513702,,,,,,,,,,,,,,,,,,,,,,,,,
1577742209.811919,51.000000,0.000000,4214.871582,4358.461426,4152.307617,4112.820313,4200.000000,0.000000,4.000000,,,,0.000000,4.000000,4.000000,4.000000,4.000000,4.000000,,,,,,,,,,,,,,,,,,,,,,,,,,,,,,,,,,,,,
1577742209.819816,52.000000,0.000000,4267.179688,4365.641113,4188.717773,4168.717773,4259.487305,0.000000,4.000000,,,,0.000000,4.000000,4.000000,4.000000,4.000000,4.000000,26.000000,0.000000,0.343896,0.182373,0.864990,0.316650,0.551278,-0.594247,0.585458,4.889571,-49.530727,56.903683,,,,,,,,,,,,,,,,,,,,,,,,,
1577742209.827714,53.000000,0.000000,4286.153809,4358.461426,4202.051270,4182.051270,4280.000000,0.000000,4.000000,,,,0.000000,4.000000,4.000000,4.000000,4.000000,4.000000,,,,,,,,,,,,,,,,,,,,,,,,,,,,,,,,,,,,,
1577742209.835511,54.000000,0.000000,4267.692383,4343.589844,4182.051270,4161.025879,4262.051270,0.000000,4.000000,,,,0.000000,4.000000,4.000000,4.000000,4.000000,4.000000,27.000000,0.000000,0.344025,0.182129,0.864990,0.316650,0.549325,-0.591806,0.584970,7.989536,-49.542332,57.135036,,,,,,,,,,,,,,,,,,,,,,,,,
1577742209.843408,55.000000,0.000000,4248.205078,4331.794922,4171.282227,4151.794922,4244.102539,0.000000,4.000000,,,,0.000000,4.000000,4.000000,4.000000,4.000000,4.000000,,,,,,,,,,,,,,,,,,,,,,,,,,,,,,,,,,,,,
1577742209.851205,56.000000,0.000000,4249.743652,4334.871582,4177.948730,4164.102539,4248.205078,0.000000,4.000000,,,,0.000000,4.000000,4.000000,4.000000,4.000000,4.000000,28.000000,0.000000,0.343636,0.182129,0.865234,0.316406,0.547860,-0.590829,0.585458,8.027997,-49.552773,57.462883,,,,,,,,,,,,,,,,,,,,,,,,,
1577742209.859102,57.000000,0.000000,4268.205078,4359.487305,4182.563965,4179.487305,4263.589844,0.000000,4.000000,,,,0.000000,4.000000,4.000000,4.000000,4.000000,4.000000,,,,,,,,,,,,,,,,,,,,,,,,,,,,,,,,,,,,,
1577742209.866900,58.000000,0.000000,4263.589844,4360.000000,4177.436035,4170.769043,4256.410156,0.000000,4.000000,,,,0.000000,4.000000,4.000000,4.000000,4.000000,4.000000,29.000000,0.000000,0.343636,0.182129,0.865234,0.316406,0.550301,-0.592782,0.597665,10.993566,-49.502357,57.817764,,,,,,,,,,,,,,,,,,,,,,,,,
1577742209.874797,59.000000,0.000000,4241.025879,4340.512695,4170.256348,4161.025879,4240.000000,0.000000,4.000000,,,,0.000000,4.000000,4.000000,4.000000,4.000000,4.000000,,,,,,,,,,,,,8.770073,7.242342,2.102679,4.712330,4.347548,0.762620,1.010935,1.173772,2.403604,3.956235,2.049358,3.836683,1.303295,3.864743,3.676208,4.294589,7.233660,2.651373,5.534492,4.781922,7.368271,7.625217,2.170421,4.648596,4.569590
1577742209.882594,60.000000,0.000000,4202.563965,4350.256348,4143.589844,4146.153809,4208.205078,0.000000,4.000000,,,,0.000000,4.000000,4.000000,4.000000,4.000000,4.000000,30.000000,0.000000,0.343021,0.182129,0.865479,0.316406,0.545419,-0.587411,0.587411,10.611994,-49.456982,58.137154,,,,,,,,,,,,,,,,,,,,,,,,,
1577742209.890391,61.000000,0.000000,4174.871582,4367.179688,4131.794922,4128.205078,4184.615234,0.000000,4.000000,,,,0.000000,4.000000,4.000000,4.000000,4.000000,4.000000,,,,,,,,,,,,,,,,,,,,,,,,,,,,,,,,,,,,,
1577742209.898088,62.000000,0.000000,4222.051270,4373.846191,4181.025879,4169.743652,4230.769043,0.000000,4.000000,,,,0.000000,4.000000,4.000000,4.000000,4.000000,4.000000,31.000000,0.000000,0.343150,0.181885,0.865479,0.316406,0.543465,-0.586923,0.596201,13.319162,-49.416142,58.245159,,,,,,,,,,,,,,,,,,,,,,,,,
1577742209.905985,63.000000,0.000000,4279.487305,4389.743652,4229.743652,4227.179688,4284.615234,0.000000,4.000000,,,,0.000000,4.000000,4.000000,4.000000,4.000000,4.000000,,,,,,,,,,,,,,,,,,,,,,,,,,,,,,,,,,,,,
1577742209.913783,64.000000,0.000000,4272.307617,4396.922852,4226.153809,4222.051270,4279.487305,450.000000,4.000000,,,,0.000000,4.000000,4.000000,4.000000,4.000000,4.000000,32.000000,0.000000,0.342629,0.182129,0.865723,0.316162,0.540536,-0.589364,0.602548,12.884477,-49.259758,58.402180,,,,,,,,,,,,,,,,,,,,,,,,,
1577742209.921680,65.000000,0.000000,4256.922852,4366.666504,4221.025879,4202.051270,4266.666504,450.000000,4.000000,,,,0.000000,4.000000,4.000000,4.000000,4.000000,4.000000,,,,,,,,,,,,,,,,,,,,,,,,,,,,,,,,,,,,,
1577742209.929477,66.000000,0.000000,4259.487305,4341.538574,4225.128418,4202.563965,4266.666504,16225.000000,4.000000,,,,0.000000,4.000000,4.000000,4.000000,4.000000,4.000000,33.000000,0.000000,0.342984,0.181885,0.865723,0.315918,0.555184,-0.591806,0.592294,8.485630,-49.238644,58.543499,,,,,,,,,,,,,,,,,,,,,,,,,
1577742209.937374,67.000000,0.000000,4257.948730,4359.487305,4218.974121,4199.487305,4261.025879,450.000000,4.000000,,,,0.000000,4.000000,4.000000,4.000000,4.000000,4.000000,,,,,,,,,,,,,,,,,,,,,,,,,,,,,,,,,,,,,
1577742209.945271,68.000000,0.000000,4254.358887,4378.974121,4211.282227,4198.461426,4251.794922,16242.000000,4.000000,,,,0.000000,4.000000,4.000000,4.000000,4.000000,4.000000,34.000000,0.000000,0.343150,0.181885,0.865479,0.316406,0.543465,-0.586923,0.596201,11.405435,-49.219639,58.610870,,,,,,,,,,,,,,,,,,,,,,,,,
1577742209.953069,69.000000,0.000000,4236.410156,4385.641113,4190.769043,4176.410156,4229.230957,450.000000,4.000000,,,,0.000000,4.000000,4.000000,4.000000,4.000000,4.000000,,,,,,,,,,,,,,,,,,,,,,,,,,,,,,,,,,,,,
1577742209.960966,70.000000,0.000000,4233.333496,4384.102539,4183.077148,4159.487305,4226.153809,16157.000000,4.000000,,,,0.000000,4.000000,4.000000,4.000000,4.000000,4.000000,35.000000,0.000000,0.342984,0.181885,0.865723,0.315918,0.555184,-0.591806,0.592294,7.154492,-49.202534,58.731319,,,,,,,,,,,,,,,,,,,,,,,,,
1577742209.968763,71.000000,0.000000,4237.948730,4358.461426,4189.230957,4165.128418,4233.846191,450.000000,4.000000,,,,0.000000,4.000000,4.000000,4.000000,4.000000,4.000000,,,,,,,,,,,,,,,,,,,,,,,,,,,,,,,,,,,,,
1577742209.976660,72.000000,0.000000,4197.436035,4342.563965,4170.256348,4133.333496,4197.436035,450.000000,4.000000,,,,0.000000,4.000000,4.000000,4.000000,4.000000,4.000000,36.000000,0.000000,0.342854,0.182129,0.865723,0.315918,0.536141,-0.588876,0.595224,10.087780,-49.187141,56.985447,,,,,,,,,,,,,,,,,,,,,,,,,
1577742209.984457,73.000000,0.000000,4199.487305,4367.179688,4176.922852,4133.333496,4198.974121,16206.000000,4.000000,,,,0.000000,4.000000,4.000000,4.000000,4.000000,4.000000,,,,,,,,,,,,,,,,,,,,,,,,,,,,,,,,,,,,,
1577742209.992255,74.000000,0.000000,4272.820313,4387.692383,4218.974121,4202.051270,4267.692383,450.000000,4.000000,,,,0.000000,4.000000,4.000000,4.000000,4.000000,4.000000,37.000000,0.000000,0.342463,0.182129,0.865967,0.315674,0.555673,-0.574716,0.612314,9.976233,-49.352734,57.328255,,,,,,,,,,,,,,,,,,,,,,,,,
1577742210.000152,75.000000,0.000000,4284.102539,4377.948730,4220.000000,4218.974121,4279.487305,16222.000000,4.000000,,,,0.000000,4.000000,4.000000,4.000000,4.000000,4.000000,,,,,,,,,,,,,7.037935,6.597502,1.605748,4.774504,4.501462,0.751135,0.984163,1.222699,2.064059,3.711900,1.878441,3.342948,1.009893,3.781623,3.713557,4.754304,7.156839,2.556268,5.446263,4.927292,6.350254,6.670724,1.674529,4.785897,4.651300
1577742210.007949,76.000000,0.000000,4235.384766,4363.589844,4189.230957,4173.846191,4229.743652,450.000000,4.000000,,,,0.000000,4.000000,4.000000,4.000000,4.000000,4.000000,38.000000,0.000000,0.342687,0.182129,0.865967,0.315430,0.548348,-0.583505,0.585946,12.567532,-49.322319,57.636780,,,,,,,,,,,,,,,,,,,,,,,,,
1577742210.015846,77.000000,0.000000,4228.717773,4367.179688,4180.000000,4165.128418,4213.333496,450.000000,4.000000,,,,0.000000,4.000000,4.000000,4.000000,4.000000,4.000000,,,,,,,,,,,,,,,,,,,,,,,,,,,,,,,,,,,,,
1577742210.023643,78.000000,0.000000,4237.948730,4371.282227,4182.563965,4181.025879,4220.000000,450.000000,4.000000,,,,0.000000,4.000000,4.000000,4.000000,4.000000,4.000000,39.000000,0.000000,0.342817,0.181885,0.865967,0.315430,0.547860,-0.582528,0.591318,14.780069,-49.354763,55.880733,,,,,,,,,,,,,,,,,,,,,,,,,
1577742210.031440,79.000000,0.000000,4236.410156,4369.230957,4195.384766,4187.692383,4228.717773,16222.000000,4.000000,,,,0.000000,4.000000,4.000000,4.000000,4.000000,4.000000,,,,,,,,,,,,,,,,,,,,,,,,,,,,,,,,,,,,,
1577742210.039337,80.000000,0.000000,4269.743652,4384.102539,4229.230957,4217.436035,4265.641113,450.000000,4.000000,,,,0.000000,4.000000,4.000000,4.000000,4.000000,4.000000,40.000000,0.000000,0.342817,0.181885,0.865967,0.315430,0.543954,-0.571298,0.591806,14.199293,-49.383961,54.539551,,,,,,,,,,,,,,,,,,,,,,,,,
1577742210.047135,81.000000,0.000000,4270.769043,4387.179688,4218.974121,4212.820313,4259.487305,450.000000,4.000000,,,,0.000000,4.000000,4.000000,4.000000,4.000000,4.000000,,,,,,,,,,,,,,,,,,,,,,,,,,,,,,,,,,,,,
1577742210.055032,82.000000,0.000000,4214.358887,4353.333496,4172.820313,4150.769043,4205.128418,450.000000,4.000000,,,,0.000000,4.000000,4.000000,4.000000,4.000000,4.000000,41.000000,0.000000,0.342722,0.181641,0.865967,0.315674,0.549813,-0.586435,0.604501,9.788595,-49.350426,55.186764,,,,,,,,,,,,,,,,,,,,,,,,,
1577742210.062829,83.000000,0.000000,4223.077148,4352.307617,4196.922852,4158.461426,4221.538574,16222.000000,4.000000,,,,0.000000,4.000000,4.000000,4.000000,4.000000,4.000000,,,,,,,,,,,,,,,,,,,,,,,,,,,,,,,,,,,,,
1577742210.070726,84.000000,0.000000,4273.846191,4376.922852,4240.000000,4218.974121,4267.179688,450.000000,4.000000,,,,0.000000,4.000000,4.000000,4.000000,4.000000,4.000000,42.000000,0.000000,0.342722,0.181641,0.865967,0.315674,0.536629,-0.590341,0.584482,9.527520,-49.439873,55.769253,,,,,,,,,,,,,,,,,,,,,,,,,
1577742210.078523,85.000000,0.000000,4258.461426,4368.205078,4213.333496,4207.179688,4243.589844,450.000000,4.000000,,,,0.000000,4.000000,4.000000,4.000000,4.000000,4.000000,,,,,,,,,,,,,,,,,,,,,,,,,,,,,,,,,,,,,
1577742210.086421,86.000000,0.000000,4210.256348,4366.153809,4181.538574,4154.871582,4196.922852,450.000000,4.000000,,,,0.000000,4.000000,4.000000,4.000000,4.000000,4.000000,43.000000,0.000000,0.342851,0.181396,0.865967,0.315674,0.559091,-0.589853,0.603037,9.352368,-49.580193,56.233681,,,,,,,,,,,,,,,,,,,,,,,,,
1577742210.094218,87.000000,0.000000,4215.384766,4390.256348,4205.128418,4164.615234,4206.666504,16222.000000,4.000000,,,,0.000000,4.000000,4.000000,4.000000,4.000000,4.000000,,,,,,,,,,,,,,,,,,,,,,,,,,,,,,,,,,,,,
1577742210.102115,88.000000,0.000000,4256.410156,4394.358887,4245.641113,4213.846191,4251.794922,450.000000,4.000000,,,,0.000000,4.000000,4.000000,4.000000,4.000000,4.000000,44.000000,0.000000,0.342234,0.181396,0.866211,0.315674,0.553231,-0.590829,0.594247,9.194731,-49.467216,56.651665,,,,,,,,,,,,,,,,,,,,,,,,,
1577742210.109912,89.000000,0.000000,4263.589844,4365.128418,4252.820313,4218.974121,4263.077148,450.000000,4.000000,,,,0.000000,4.000000,4.000000,4.000000,4.000000,4.000000,,,,,,,,,,,,,,,,,,,,,,,,,,,,,,,,,,,,,
1577742210.117809,90.000000,0.000000,4232.820313,4354.358887,4232.820313,4187.692383,4241.025879,450.000000,4.000000,,,,0.000000,4.000000,4.000000,4.000000,4.000000,4.000000,45.000000,0.000000,0.342363,0.181152,0.866211,0.315674,0.542000,-0.592782,0.598642,5.224674,-49.544987,57.027851,,,,,,,,,,,,,,,,,,,,,,,,,
1577742210.125607,91.000000,0.000000,4224.102539,4388.717773,4230.256348,4174.358887,4233.333496,16222.000000,4.000000,,,,0.000000,4.000000,4.000000,4.000000,4.000000,4.000000,,,,,,,,,,,,,7.010184,7.027454,1.322468,4.900929,4.585315,0.718417,1.085538,1.310511,1.946445,3.333588,1.976579,3.521592,0.873344,3.751425,3.711065,5.515796,8.093957,2.680981,5.342283,5.068214,6.344465,7.019623,1.409953,4.997591,4.626042
1577742210.133504,92.000000,0.000000,4254.871582,4399.487305,4253.333496,4192.307617,4254.358887,450.000000,4.000000,,,,0.000000,4.000000,4.000000,4.000000,4.000000,4.000000,46.000000,0.000000,0.342588,0.181152,0.866211,0.315430,0.550790,-0.594247,0.600595,1.591808,-49.555164,57.426231,,,,,,,,,,,,,,,,,,,,,,,,,
1577742210.141301,93.000000,0.000000,4242.563965,4357.436035,4234.358887,4185.641113,4236.922852,450.000000,4.000000,,,,0.000000,4.000000,4.000000,4.000000,4.000000,4.000000,,,,,,,,,,,,,,,,,,,,,,,,,,,,,,,,,,,,,
1577742210.149198,94.000000,0.000000,4193.333496,4337.948730,4184.615234,4148.717773,4188.717773,450.000000,4.000000,,,,0.000000,4.000000,4.000000,4.000000,4.000000,4.000000,47.000000,0.000000,0.341970,0.181152,0.866455,0.315430,0.551766,-0.584482,0.601083,2.150411,-49.444691,57.724960,,,,,,,,,,,,,,,,,,,,,,,,,
1577742210.156995,95.000000,0.000000,4206.153809,4373.846191,4194.871582,4157.948730,4198.974121,16222.000000,4.000000,,,,0.000000,4.000000,4.000000,4.000000,4.000000,4.000000,,,,,,,,,,,,,,,,,,,,,,,,,,,,,,,,,,,,,
1577742210.164892,96.000000,0.000000,4244.615234,4382.563965,4232.820313,4195.384766,4237.436035,450.000000,4.000000,,,,0.000000,4.000000,4.000000,4.000000,4.000000,4.000000,48.000000,0.000000,0.342099,0.180908,0.866455,0.315430,0.551766,-0.568856,0.596689,2.772785,-49.405083,58.173264,,,,,,,,,,,,,,,,,,,,,,,,,
1577742210.172690,97.000000,0.000000,4235.897461,4359.487305,4224.615234,4194.871582,4235.897461,450.000000,4.000000,,,,0.000000,4.000000,4.000000,4.000000,4.000000,4.000000,,,,,,,,,,,,,,,,,,,,,,,,,,,,,,,,,,,,,
1577742210.180587,98.000000,0.000000,4203.077148,4360.512695,4192.307617,4162.563965,4207.179688,450.000000,4.000000,,,,0.000000,4.000000,4.000000,4.000000,4.000000,4.000000,49.000000,0.000000,0.342099,0.180908,0.866455,0.315430,0.543465,-0.573251,0.591806,-0.435446,-49.429249,58.457104,,,,,,,,,,,,,,,,,,,,,,,,,
1577742210.188384,99.000000,0.000000,4211.282227,4371.794922,4197.948730,4161.025879,4214.871582,16222.000000,4.000000,,,,0.000000,4.000000,4.000000,4.000000,4.000000,4.000000,,,,,,,,,,,,,,,,,,,,,,,,,,,,,,,,,,,,,
1577742210.196081,100.000000,0.000000,4251.794922,4364.102539,4227.179688,4192.307617,4260.512695,450.000000,4.000000,,,,0.000000,4.000000,4.000000,4.000000,4.000000,4.000000,50.000000,0.000000,0.342228,0.180664,0.866455,0.315430,0.549325,-0.592782,0.599130,0.325883,-49.391186,58.652744,,,,,,,,,,,,,,,,,,,,,,,,,
1577742210.203879,101.000000,0.000000,4257.436035,4357.948730,4223.589844,4193.846191,4268.205078,450.000000,4.000000,,,,0.000000,4.000000,4.000000,4.000000,4.000000,4.000000,,,,,,,,,,,,,,,,,,,,,,,,,,,,,,,,,,,,,
1577742210.211576,102.000000,0.000000,4238.461426,4375.384766,4203.077148,4181.538574,4245.128418,450.000000,4.000000,,,,0.000000,4.000000,4.000000,4.000000,4.000000,4.000000,51.000000,0.000000,0.342357,0.180420,0.866455,0.315430,0.542489,-0.600595,0.574228,1.130710,-49.297112,58.888638,,,,,,,,,,,,,,,,,,,,,,,,,
1577742210.219373,103.000000,0.000000,4213.333496,4364.102539,4185.128418,4167.692383,4219.487305,16222.000000,4.000000,,,,0.000000,4.000000,4.000000,4.000000,4.000000,4.000000,,,,,,,,,,,,,,,,,,,,,,,,,,,,,,,,,,,,,
1577742210.227070,104.000000,0.000000,4176.410156,4326.153809,4159.487305,4130.256348,4183.589844,450.000000,4.000000,,,,0.000000,4.000000,4.000000,4.000000,4.000000,4.000000,52.000000,0.000000,0.342132,0.180420,0.866455,0.315674,0.537118,-0.585458,0.605966,4.486930,-49.212444,59.100941,,,,,,,,,,,,,,,,,,,,,,,,,
1577742210.234967,105.000000,0.000000,4197.436035,4353.846191,4175.897461,4144.615234,4200.000000,450.000000,4.000000,,,,0.000000,4.000000,4.000000,4.000000,4.000000,4.000000,,,,,,,,,,,,,,,,,,,,,,,,,,,,,,,,,,,,,
1577742210.242764,106.000000,0.000000,4263.589844,4410.256348,4231.282227,4212.307617,4261.538574,450.000000,4.000000,,,,0.000000,4.000000,4.000000,4.000000,4.000000,4.000000,53.000000,0.000000,0.342132,0.180420,0.866455,0.315674,0.526864,-0.582528,0.593759,4.815837,-49.196060,59.172382,,,,,,,,,,,,,,,,,,,,,,,,,
1577742210.250661,107.000000,0.000000,4264.615234,4390.769043,4239.487305,4209.230957,4265.128418,16222.000000,4.000000,,,,0.000000,4.000000,4.000000,4.000000,4.000000,4.000000,,,,,,,,,,,,,7.074143,8.777155,1.558866,5.157597,4.548885,0.696576,1.277644,1.423371,2.079631,2.893650,2.406412,4.568693,1.069810,3.809389,3.632601,6.649812,10.212351,3.197616,5.327012,5.128993,6.694564,8.928110,1.724883,5.316831,4.480917
1577742210.258459,108.000000,0.000000,4240.512695,4355.384766,4218.461426,4176.922852,4244.102539,450.000000,4.000000,,,,0.000000,4.000000,4.000000,4.000000,4.000000,4.000000,54.000000,0.000000,0.342035,0.180176,0.866455,0.315918,0.557626,-0.588388,0.592782,7.803545,-49.181313,59.296497,,,,,,,,,,,,,,,,,,,,,,,,,
1577742210.266356,109.000000,0.000000,4247.179688,4375.384766,4210.256348,4180.512695,4247.692383,450.000000,4.000000,,,,0.000000,4.000000,4.000000,4.000000,4.000000,4.000000,,,,,,,,,,,,,,,,,,,,,,,,,,,,,,,,,,,,,
1577742210.274153,110.000000,0.000000,4221.025879,4369.230957,4186.153809,4141.025879,4215.384766,450.000000,4.000000,,,,0.000000,4.000000,4.000000,4.000000,4.000000,4.000000,55.000000,0.000000,0.341810,0.180176,0.866455,0.316162,0.540047,-0.572274,0.587900,10.671927,-49.168041,59.288570,,,,,,,,,,,,,,,,,,,,,,,,,
1577742210.282050,111.000000,0.000000,4195.897461,4346.666504,4174.871582,4110.769043,4190.256348,16222.000000,4.000000,,,,0.000000,4.000000,4.000000,4.000000,4.000000,4.000000,,,,,,,,,,,,,,,,,,,,,,,,,,,,,,,,,,,,,
1577742210.289847,112.000000,0.000000,4235.384766,4383.077148,4200.512695,4164.102539,4228.205078,450.000000,4.000000,,,,0.000000,4.000000,4.000000,4.000000,4.000000,4.000000,56.000000,0.000000,0.341712,0.179932,0.866455,0.316406,0.542977,-0.586923,0.593271,6.554151,-49.156097,59.341248,,,,,,,,,,,,,,,,,,,,,,,,,
1577742210.297745,113.000000,0.000000,4262.051270,4407.692383,4209.230957,4195.384766,4252.820313,450.000000,4.000000,,,,0.000000,4.000000,4.000000,4.000000,4.000000,4.000000,,,,,,,,,,,,,,,,,,,,,,,,,,,,,,,,,,,,,
1577742210.305542,114.000000,0.000000,4239.487305,4362.051270,4184.615234,4162.563965,4229.743652,450.000000,4.000000,,,,0.000000,4.000000,4.000000,4.000000,4.000000,4.000000,57.000000,0.000000,0.341357,0.180176,0.866455,0.316650,0.550790,-0.583017,0.592782,6.676335,-49.145348,59.388660,,,,,,,,,,,,,,,,,,,,,,,,,
1577742210.313439,115.000000,0.000000,4232.307617,4335.384766,4177.948730,4152.820313,4217.436035,16222.000000,4.000000,,,,0.000000,4.000000,4.000000,4.000000,4.000000,4.000000,,,,,,,,,,,,,,,,,,,,,,,,,,,,,,,,,,,,,
1577742210.321236,116.000000,0.000000,4258.974121,4376.922852,4200.512695,4186.666504,4242.051270,450.000000,4.000000,,,,0.000000,4.000000,4.000000,4.000000,4.000000,4.000000,58.000000,0.000000,0.341486,0.179932,0.866455,0.316650,0.545907,-0.588876,0.590829,9.657439,-49.135674,59.550961,,,,,,,,,,,,,,,,,,,,,,,,,
1577742210.329133,117.000000,0.000000,4278.974121,4394.871582,4212.820313,4207.179688,4264.102539,450.000000,4.000000,,,,0.000000,4.000000,4.000000,4.000000,4.000000,4.000000,,,,,,,,,,,,,,,,,,,,,,,,,,,,,,,,,,,,,
1577742210.337030,118.000000,0.000000,4264.615234,4354.871582,4196.410156,4184.102539,4247.692383,450.000000,4.000000,,,,0.000000,4.000000,4.000000,4.000000,4.000000,4.000000,59.000000,0.000000,0.341260,0.179932,0.866455,0.316895,0.541512,-0.592782,0.590829,5.641112,-49.126965,59.577404,,,,,,,,,,,,,,,,,,,,,,,,,
1577742210.344828,119.000000,0.000000,4241.025879,4340.512695,4173.333496,4151.794922,4216.922852,16222.000000,4.000000,,,,0.000000,4.000000,4.000000,4.000000,4.000000,4.000000,,,,,,,,,,,,,,,,,,,,,,,,,,,,,,,,,,,,,
1577742210.352625,120.000000,0.000000,4242.051270,4377.948730,4173.333496,4164.102539,4220.512695,450.000000,4.000000,,,,0.000000,4.000000,4.000000,4.000000,4.000000,4.000000,60.000000,0.000000,0.341260,0.179932,0.866455,0.316895,0.533211,-0.590341,0.570321,8.665922,-49.119129,59.780643,,,,,,,,,,,,,,,,,,,,,,,,,
1577742210.360522,121.000000,0.000000,4257.948730,4385.641113,4182.051270,4191.794922,4243.077148,450.000000,4.000000,,,,0.000000,4.000000,4.000000,4.000000,4.000000,4.000000,,,,,,,,,,,,,,,,,,,,,,,,,,,,,,,,,,,,,
1577742210.368419,122.000000,0.000000,4255.897461,4351.282227,4173.333496,4178.974121,4236.922852,450.000000,4.000000,,,,0.000000,4.000000,4.000000,4.000000,4.000000,4.000000,61.000000,0.000000,0.341131,0.180176,0.866455,0.316895,0.544442,-0.587900,0.598154,8.636745,-49.171890,59.724300,,,,,,,,,,,,,,,,,,,,,,,,,
1577742210.376216,123.000000,0.000000,4251.794922,4349.743652,4168.717773,4164.615234,4225.641113,16222.000000,4.000000,,,,0.000000,4.000000,4.000000,4.000000,4.000000,4.000000,,,,,,,,,,,,,6.879328,11.644537,2.368961,5.558488,4.385389,0.704231,1.504654,1.547928,2.400261,2.462618,3.115326,6.394597,1.631118,3.934637,3.464623,8.070767,13.191040,4.057475,5.461848,5.061979,7.112732,12.067177,2.684541,5.735430,4.239348
1577742210.384114,124.000000,0.000000,4273.333496,4372.820313,4190.769043,4191.794922,4247.692383,450.000000,4.000000,,,,0.000000,4.000000,4.000000,4.000000,4.000000,4.000000,62.000000,0.000000,0.341260,0.179932,0.866455,0.316895,0.541512,-0.592782,0.590829,11.421808,-49.219379,59.673592,,,,,,,,,,,,,,,,,,,,,,,,,
1577742210.391911,125.000000,0.000000,4273.333496,4368.717773,4191.794922,4200.000000,4252.820313,450.000000,4.000000,,,,0.000000,4.000000,4.000000,4.000000,4.000000,4.000000,,,,,,,,,,,,,,,,,,,,,,,,,,,,,,,,,,,,,
1577742210.399808,126.000000,0.000000,4253.333496,4354.871582,4172.307617,4169.230957,4231.282227,450.000000,4.000000,,,,0.000000,4.000000,4.000000,4.000000,4.000000,4.000000,63.000000,0.000000,0.341131,0.180176,0.866455,0.316895,0.544442,-0.587900,0.598154,11.117043,-49.262115,59.627953,,,,,,,,,,,,,,,,,,,,,,,,,
1577742210.407605,127.000000,0.000000,4268.205078,4357.948730,4181.025879,4169.743652,4241.025879,236.000000,4.000000,,,,0.000000,4.000000,4.000000,4.000000,4.000000,4.000000,,,,,,,,,,,,,,,,,,,,,,,,,,,,,,,,,,,,,
1577742210.415502,0.000000,0.000000,4286.666504,4354.871582,4196.410156,4193.846191,4261.025879,450.000000,4.000000,,,,0.000000,4.000000,4.000000,4.000000,4.000000,4.000000,0.000000,0.000000,0.340904,0.180176,0.866455,0.317139,0.537606,-0.603525,0.585946,13.654076,-49.180950,59.586880,,,,,,,,,,,,,,,,,,,,,,,,,
1577742210.423300,1.000000,0.000000,4265.641113,4335.897461,4186.666504,4185.641113,4247.179688,450.000000,4.000000,,,,0.000000,4.000000,4.000000,4.000000,4.000000,4.000000,,,,,,,,,,,,,,,,,,,,,,,,,,,,,,,,,,,,,
1577742210.431197,2.000000,0.000000,4256.922852,4349.230957,4177.948730,4172.820313,4240.000000,16211.000000,4.000000,,,,0.000000,4.000000,4.000000,4.000000,4.000000,4.000000,1.000000,0.000000,0.341033,0.179932,0.866455,0.317139,0.542489,-0.594247,0.589853,13.066268,-49.167713,57.755451,,,,,,,,,,,,,,,,,,,,,,,,,
1577742210.438994,3.000000,0.000000,4295.384766,4386.153809,4196.922852,4204.615234,4273.333496,450.000000,4.000000,,,,0.000000,4.000000,4.000000,4.000000,4.000000,4.000000,,,,,,,,,,,,,,,,,,,,,,,,,,,,,,,,,,,,,
1577742210.446791,4.000000,0.000000,4321.538574,4368.205078,4217.436035,4234.871582,4299.487305,16242.000000,4.000000,,,,0.000000,4.000000,4.000000,4.000000,4.000000,4.000000,2.000000,0.000000,0.340676,0.180176,0.866455,0.317383,0.534676,-0.602060,0.589364,8.649241,-49.155804,58.140888,,,,,,,,,,,,,,,,,,,,,,,,,
1577742210.454488,5.000000,0.000000,4293.846191,4331.282227,4197.948730,4197.948730,4269.743652,450.000000,4.000000,,,,0.000000,4.000000,4.000000,4.000000,4.000000,4.000000,,,,,,,,,,,,,,,,,,,,,,,,,,,,,,,,,,,,,
1577742210.462385,6.000000,0.000000,4262.563965,4344.615234,4167.692383,4149.743652,4233.333496,16147.000000,4.000000,,,,0.000000,4.000000,4.000000,4.000000,4.000000,4.000000,3.000000,0.000000,0.340676,0.180176,0.866455,0.317383,0.536629,-0.613779,0.593271,8.561917,-49.025452,58.427967,,,,,,,,,,,,,,,,,,,,,,,,,
1577742210.470283,7.000000,0.000000,4266.666504,4362.051270,4173.333496,4160.000000,4237.948730,450.000000,4.000000,,,,0.000000,4.000000,4.000000,4.000000,4.000000,4.000000,,,,,,,,,,,,,,,,,,,,,,,,,,,,,,,,,,,,,
1577742210.478080,8.000000,0.000000,4277.948730,4348.205078,4184.102539,4182.563965,4247.179688,450.000000,4.000000,,,,0.000000,4.000000,4.000000,4.000000,4.000000,4.000000,4.000000,0.000000,0.340904,0.180176,0.866455,0.317139,0.542977,-0.606455,0.584482,11.294647,-49.147396,58.686340,,,,,,,,,,,,,,,,,,,,,,,,,
1577742210.485877,9.000000,0.000000,4265.641113,4344.615234,4167.692383,4163.077148,4228.205078,16185.000000,4.000000,,,,0.000000,4.000000,4.000000,4.000000,4.000000,4.000000,,,,,,,,,,,,,,,,,,,,,,,,,,,,,,,,,,,,,
1577742210.493774,10.000000,0.000000,4255.384766,4368.717773,4162.563965,4153.333496,4222.563965,450.000000,4.000000,,,,0.000000,4.000000,4.000000,4.000000,4.000000,4.000000,5.000000,0.000000,0.340904,0.180176,0.866455,0.317139,0.536141,-0.603525,0.583505,11.002598,-49.137516,58.859058,,,,,,,,,,,,,,,,,,,,,,,,,
1577742210.501571,11.000000,0.000000,4278.461426,4369.743652,4187.179688,4189.743652,4251.794922,16214.000000,4.000000,,,,0.000000,4.000000,4.000000,4.000000,4.000000,4.000000,,,,,,,,,,,,,6.821659,14.779538,3.629499,6.062777,4.157964,0.736492,1.703655,1.657297,2.798617,2.110407,3.985508,8.546154,2.527314,4.076290,3.244871,9.491326,16.220369,5.106695,5.747480,4.888331,7.572623,15.463420,4.162924,6.213045,3.973355
1577742210.509469,12.000000,0.000000,4298.461426,4337.948730,4190.769043,4199.487305,4267.692383,450.000000,4.000000,,,,0.000000,4.000000,4.000000,4.000000,4.000000,4.000000,6.000000,0.000000,0.340904,0.180176,0.866455,0.317139,0.538582,-0.596689,0.595712,6.851755,-49.188442,59.014503,,,,,,,,,,,,,,,,,,,,,,,,,
1577742210.517266,13.000000,0.000000,4288.717773,4341.538574,4168.205078,4172.820313,4251.282227,450.000000,4.000000,,,,0.000000,4.000000,4.000000,4.000000,4.000000,4.000000,,,,,,,,,,,,,,,,,,,,,,,,,,,,,,,,,,,,,
1577742210.525163,14.000000,0.000000,4269.230957,4364.615234,4151.794922,4162.051270,4229.743652,450.000000,4.000000,,,,0.000000,4.000000,4.000000,4.000000,4.000000,4.000000,7.000000,0.000000,0.340676,0.180176,0.866455,0.317383,0.542000,-0.581552,0.590829,3.295442,-49.353905,59.274036,,,,,,,,,,,,,,,,,,,,,,,,,
1577742210.533060,15.000000,0.000000,4257.436035,4347.692383,4141.538574,4160.512695,4225.128418,16214.000000,4.000000,,,,0.000000,4.000000,4.000000,4.000000,4.000000,4.000000,,,,,,,,,,,,,,,,,,,,,,,,,,,,,,,,,,,,,
1577742210.540857,16.000000,0.000000,4253.333496,4324.102539,4131.794922,4153.333496,4226.666504,0.000000,4.000000,,,,0.000000,4.000000,4.000000,4.000000,4.000000,4.000000,8.000000,0.000000,0.340676,0.180176,0.866455,0.317383,0.545419,-0.597177,0.599619,6.614635,-49.383186,57.653339,,,,,,,,,,,,,,,,,,,,,,,,,
1577742210.548655,17.000000,0.000000,4258.974121,4351.794922,4143.077148,4162.563965,4230.256348,0.000000,4.000000,,,,0.000000,4.000000,4.000000,4.000000,4.000000,4.000000,,,,,,,,,,,,,,,,,,,,,,,,,,,,,,,,,,,,,
1577742210.556352,18.000000,0.000000,4271.282227,4376.922852,4163.077148,4182.563965,4243.589844,0.000000,4.000000,,,,0.000000,4.000000,4.000000,4.000000,4.000000,4.000000,9.000000,0.000000,0.340676,0.180176,0.866455,0.317383,0.532723,-0.584482,0.595712,6.730771,-49.349728,57.929356,,,,,,,,,,,,,,,,,,,,,,,,,
1577742210.564149,19.000000,0.000000,4255.384766,4348.717773,4141.025879,4167.179688,4229.743652,0.000000,4.000000,,,,0.000000,4.000000,4.000000,4.000000,4.000000,4.000000,,,,,,,,,,,,,,,,,,,,,,,,,,,,,,,,,,,,,
1577742210.571847,20.000000,0.000000,4271.282227,4344.615234,4142.563965,4176.922852,4244.615234,0.000000,4.000000,,,,0.000000,4.000000,4.000000,4.000000,4.000000,4.000000,10.000000,0.000000,0.340676,0.180176,0.866455,0.317383,0.538094,-0.599130,0.591806,6.775478,-49.379433,58.297405,,,,,,,,,,,,,,,,,,,,,,,,,
1577742210.579644,21.000000,0.000000,4331.282227,4372.307617,4187.179688,4224.615234,4302.051270,0.000000,4.000000,,,,0.000000,4.000000,4.000000,4.000000,4.000000,4.000000,,,,,,,,,,,,,,,,,,,,,,,,,,,,,,,,,,,,,
1577742210.587341,22.000000,0.000000,4325.641113,4359.487305,4181.538574,4217.436035,4294.358887,0.000000,4.000000,,,,0.000000,4.000000,4.000000,4.000000,4.000000,4.000000,11.000000,0.000000,0.340676,0.180176,0.866455,0.317383,0.553719,-0.582528,0.588388,3.047347,-49.406162,58.509014,,,,,,,,,,,,,,,,,,,,,,,,,
1577742210.595238,23.000000,0.000000,4290.256348,4341.025879,4157.436035,4191.794922,4260.000000,0.000000,4.000000,,,,0.000000,4.000000,4.000000,4.000000,4.000000,4.000000,,,,,,,,,,,,,,,,,,,,,,,,,,,,,,,,,,,,,
1577742210.603035,24.000000,0.000000,4298.974121,4360.512695,4167.692383,4205.128418,4273.846191,0.000000,4.000000,,,,0.000000,4.000000,4.000000,4.000000,4.000000,4.000000,12.000000,0.000000,0.340805,0.179932,0.866455,0.317383,0.561044,-0.590829,0.596689,3.460397,-49.250778,58.819096,,,,,,,,,,,,,,,,,,,,,,,,,
1577742210.610833,25.000000,0.000000,4288.205078,4361.025879,4152.820313,4191.794922,4261.025879,0.000000,4.000000,,,,0.000000,4.000000,4.000000,4.000000,4.000000,4.000000,,,,,,,,,,,,,,,,,,,,,,,,,,,,,,,,,,,,,
1577742210.618530,26.000000,0.000000,4240.000000,4325.641113,4113.846191,4142.051270,4207.179688,0.000000,4.000000,,,,0.000000,4.000000,4.000000,4.000000,4.000000,4.000000,13.000000,0.000000,0.340805,0.179932,0.866455,0.317383,0.547860,-0.580575,0.587411,3.832141,-49.230560,59.098167,,,,,,,,,,,,,,,,,,,,,,,,,
1577742210.626427,27.000000,0.000000,4245.641113,4333.846191,4127.692383,4152.820313,4215.897461,0.000000,4.000000,,,,0.000000,4.000000,4.000000,4.000000,4.000000,4.000000,,,,,,,,,,,,,6.620646,17.092161,5.059990,6.567968,3.956478,0.786156,1.817739,1.711348,3.152008,1.909320,4.843209,10.358410,3.649138,4.179271,3.038017,10.447270,18.284597,6.129704,6.112393,4.684531,7.706432,17.962709,5.876446,6.669697,3.765240
1577742210.634224,28.000000,0.000000,4268.717773,4351.282227,4150.769043,4174.358887,4245.641113,0.000000,4.000000,,,,0.000000,4.000000,4.000000,4.000000,4.000000,4.000000,14.000000,0.000000,0.340449,0.180176,0.866455,0.317627,0.540047,-0.598642,0.597665,3.269481,-49.212364,59.349335,,,,,,,,,,,,,,,,,,,,,,,,,
1577742210.642122,29.000000,0.000000,4243.589844,4342.051270,4128.717773,4138.461426,4220.000000,0.000000,4.000000,,,,0.000000,4.000000,4.000000,4.000000,4.000000,4.000000,,,,,,,,,,,,,,,,,,,,,,,,,,,,,,,,,,,,,
1577742210.650019,30.000000,0.000000,4223.589844,4349.230957,4119.487305,4130.769043,4203.077148,0.000000,4.000000,,,,0.000000,4.000000,4.000000,4.000000,4.000000,4.000000,15.000000,0.000000,0.340676,0.180176,0.866455,0.317383,0.532723,-0.589853,0.590829,6.710901,-49.375435,59.395939,,,,,,,,,,,,,,,,,,,,,,,,,
1577742210.657816,31.000000,0.000000,4241.538574,4365.128418,4156.410156,4181.538574,4230.769043,0.000000,4.000000,,,,0.000000,4.000000,4.000000,4.000000,4.000000,4.000000,,,,,,,,,,,,,,,,,,,,,,,,,,,,,,,,,,,,,
1577742210.665713,32.000000,0.000000,4270.769043,4363.589844,4190.256348,4214.358887,4263.077148,0.000000,4.000000,,,,0.000000,4.000000,4.000000,4.000000,4.000000,4.000000,16.000000,0.000000,0.340676,0.180176,0.866455,0.317383,0.543954,-0.603525,0.596201,9.748363,-49.462379,57.942497,,,,,,,,,,,,,,,,,,,,,,,,,
1577742210.673510,33.000000,0.000000,4248.717773,4336.922852,4156.410156,4176.410156,4236.922852,0.000000,4.000000,,,,0.000000,4.000000,4.000000,4.000000,4.000000,4.000000,,,,,,,,,,,,,,,,,,,,,,,,,,,,,,,,,,,,,
1577742210.681308,34.000000,0.000000,4227.692383,4325.641113,4136.410156,4155.897461,4213.846191,0.000000,4.000000,,,,0.000000,4.000000,4.000000,4.000000,4.000000,4.000000,17.000000,0.000000,0.340055,0.180176,0.866699,0.317383,0.537606,-0.603037,0.583505,9.551127,-49.421001,58.129784,,,,,,,,,,,,,,,,,,,,,,,,,
1577742210.689205,35.000000,0.000000,4262.563965,4338.974121,4176.922852,4195.384766,4246.666504,0.000000,4.000000,,,,0.000000,4.000000,4.000000,4.000000,4.000000,4.000000,,,,,,,,,,,,,,,,,,,,,,,,,,,,,,,,,,,,,
1577742210.697002,36.000000,0.000000,4253.846191,4336.922852,4164.102539,4185.128418,4238.974121,0.000000,4.000000,,,,0.000000,4.000000,4.000000,4.000000,4.000000,4.000000,18.000000,0.000000,0.340775,0.180420,0.866455,0.317139,0.542977,-0.605966,0.586435,9.493245,-49.443577,58.298344,,,,,,,,,,,,,,,,,,,,,,,,,
1577742210.704899,37.000000,0.000000,4212.307617,4336.922852,4121.025879,4132.820313,4200.000000,0.000000,4.000000,,,,0.000000,4.000000,4.000000,4.000000,4.000000,4.000000,,,,,,,,,,,,,,,,,,,,,,,,,,,,,,,,,,,,,
1577742210.712696,38.000000,0.000000,4230.769043,4347.179688,4137.436035,4135.897461,4213.846191,0.000000,4.000000,,,,0.000000,4.000000,4.000000,4.000000,4.000000,4.000000,19.000000,0.000000,0.340775,0.180420,0.866455,0.317139,0.542000,-0.595224,0.588876,9.321520,-49.463894,58.450043,,,,,,,,,,,,,,,,,,,,,,,,,
1577742210.720594,39.000000,0.000000,4241.025879,4348.205078,4146.153809,4148.205078,4218.974121,0.000000,4.000000,,,,0.000000,4.000000,4.000000,4.000000,4.000000,4.000000,,,,,,,,,,,,,,,,,,,,,,,,,,,,,,,,,,,,,
1577742210.728391,40.000000,0.000000,4212.820313,4355.384766,4125.128418,4132.307617,4192.307617,0.000000,4.000000,,,,0.000000,4.000000,4.000000,4.000000,4.000000,4.000000,20.000000,0.000000,0.340775,0.180420,0.866455,0.317139,0.551278,-0.586435,0.588876,11.978290,-49.422367,56.732300,,,,,,,,,,,,,,,,,,,,,,,,,
1577742210.736188,41.000000,0.000000,4254.358887,4381.025879,4162.563965,4173.333496,4232.307617,0.000000,4.000000,,,,0.000000,4.000000,4.000000,4.000000,4.000000,4.000000,,,,,,,,,,,,,,,,,,,,,,,,,,,,,,,,,,,,,
1577742210.743985,42.000000,0.000000,4295.897461,4362.563965,4195.897461,4211.794922,4270.769043,0.000000,4.000000,,,,0.000000,4.000000,4.000000,4.000000,4.000000,4.000000,21.000000,0.000000,0.340775,0.180420,0.866455,0.317139,0.551278,-0.596689,0.596201,11.617876,-49.325172,57.160236,,,,,,,,,,,,,,,,,,,,,,,,,
1577742210.751683,43.000000,0.000000,4254.871582,4321.538574,4160.000000,4167.179688,4234.358887,0.000000,4.000000,,,,0.000000,4.000000,4.000000,4.000000,4.000000,4.000000,,,,,,,,,,,,,5.994725,17.790064,6.450861,6.949627,3.851348,0.827090,1.809865,1.678181,3.365996,1.919827,5.512582,11.277218,4.887898,4.207672,2.898517,10.573607,18.689465,7.036581,6.443412,4.538007,7.292416,18.776140,7.599032,7.004296,3.671404
1577742210.759480,44.000000,0.000000,4261.025879,4354.358887,4156.922852,4158.461426,4238.461426,0.000000,4.000000,,,,0.000000,4.000000,4.000000,4.000000,4.000000,4.000000,22.000000,0.000000,0.340775,0.180420,0.866455,0.317139,0.542977,-0.592782,0.597177,11.233688,-49.297516,57.545380,,,,,,,,,,,,,,,,,,,,,,,,,
1577742210.767177,45.000000,0.000000,4304.102539,4390.256348,4184.615234,4196.922852,4270.256348,0.000000,4.000000,,,,0.000000,4.000000,4.000000,4.000000,4.000000,4.000000,,,,,,,,,,,,,,,,,,,,,,,,,,,,,,,,,,,,,
1577742210.774974,46.000000,0.000000,4263.077148,4350.256348,4153.846191,4165.641113,4226.666504,0.000000,4.000000,,,,0.000000,4.000000,4.000000,4.000000,4.000000,4.000000,23.000000,0.000000,0.340775,0.180420,0.866455,0.317139,0.553231,-0.596201,0.589853,10.947735,-49.332439,57.892010,,,,,,,,,,,,,,,,,,,,,,,,,
1577742210.782672,47.000000,0.000000,4221.538574,4319.487305,4124.102539,4121.538574,4188.205078,0.000000,4.000000,,,,0.000000,4.000000,4.000000,4.000000,4.000000,4.000000,,,,,,,,,,,,,,,,,,,,,,,,,,,,,,,,,,,,,
1577742210.790569,48.000000,0.000000,4259.487305,4342.563965,4148.205078,4151.794922,4223.077148,0.000000,4.000000,,,,0.000000,4.000000,4.000000,4.000000,4.000000,4.000000,24.000000,0.000000,0.340547,0.180420,0.866455,0.317383,0.543465,-0.603525,0.593271,10.690376,-49.363873,58.263790,,,,,,,,,,,,,,,,,,,,,,,,,
1577742210.798366,49.000000,0.000000,4283.589844,4367.179688,4157.436035,4184.615234,4241.538574,0.000000,4.000000,,,,0.000000,4.000000,4.000000,4.000000,4.000000,4.000000,,,,,,,,,,,,,,,,,,,,,,,,,,,,,,,,,,,,,
1577742210.806263,50.000000,0.000000,4265.641113,4359.487305,4149.230957,4175.897461,4229.230957,0.000000,4.000000,,,,0.000000,4.000000,4.000000,4.000000,4.000000,4.000000,25.000000,0.000000,0.340676,0.180176,0.866455,0.317383,0.547860,-0.598154,0.601083,10.398938,-49.272530,58.478764,,,,,,,,,,,,,,,,,,,,,,,,,
1577742210.814060,51.000000,0.000000,4279.487305,4342.563965,4172.307617,4181.025879,4256.410156,0.000000,4.000000,,,,0.000000,4.000000,4.000000,4.000000,4.000000,4.000000,,,,,,,,,,,,,,,,,,,,,,,,,,,,,,,,,,,,,
1577742210.821958,52.000000,0.000000,4301.025879,4343.077148,4182.051270,4196.922852,4277.948730,0.000000,4.000000,,,,0.000000,4.000000,4.000000,4.000000,4.000000,4.000000,26.000000,0.000000,0.340676,0.180176,0.866455,0.317383,0.532723,-0.587900,0.579110,12.947967,-49.130505,56.937595,,,,,,,,,,,,,,,,,,,,,,,,,
1577742210.829755,53.000000,0.000000,4274.358887,4354.358887,4150.769043,4184.615234,4245.641113,0.000000,4.000000,,,,0.000000,4.000000,4.000000,4.000000,4.000000,4.000000,,,,,,,,,,,,,,,,,,,,,,,,,,,,,,,,,,,,,
1577742210.837652,54.000000,0.000000,4264.102539,4357.948730,4152.307617,4186.666504,4240.000000,0.000000,4.000000,,,,0.000000,4.000000,4.000000,4.000000,4.000000,4.000000,27.000000,0.000000,0.340547,0.180420,0.866455,0.317383,0.543465,-0.603525,0.593271,11.413908,-49.182129,57.165558,,,,,,,,,,,,,,,,,,,,,,,,,
1577742210.845449,55.000000,0.000000,4287.179688,4353.333496,4172.820313,4204.102539,4266.153809,0.000000,4.000000,,,,0.000000,4.000000,4.000000,4.000000,4.000000,4.000000,,,,,,,,,,,,,,,,,,,,,,,,,,,,,,,,,,,,,
1577742210.853346,56.000000,0.000000,4258.974121,4336.410156,4141.538574,4170.769043,4234.871582,0.000000,4.000000,,,,0.000000,4.000000,4.000000,4.000000,4.000000,4.000000,28.000000,0.000000,0.340676,0.180176,0.866455,0.317383,0.532723,-0.587900,0.579110,13.861440,-49.049145,55.755707,,,,,,,,,,,,,,,,,,,,,,,,,
1577742210.861144,57.000000,0.000000,4227.179688,4331.794922,4116.410156,4141.025879,4202.563965,0.000000,4.000000,,,,0.000000,4.000000,4.000000,4.000000,4.000000,4.000000,,,,,,,,,,,,,,,,,,,,,,,,,,,,,,,,,,,,,
1577742210.869041,58.000000,0.000000,4276.922852,4367.179688,4157.436035,4186.666504,4252.820313,0.000000,4.000000,,,,0.000000,4.000000,4.000000,4.000000,4.000000,4.000000,29.000000,0.000000,0.340449,0.180176,0.866455,0.317627,0.541512,-0.598154,0.585458,13.252895,-49.228539,56.101856,,,,,,,,,,,,,,,,,,,,,,,,,
1577742210.876838,59.000000,0.000000,4321.538574,4370.769043,4186.153809,4225.128418,4293.333496,0.000000,4.000000,,,,0.000000,4.000000,4.000000,4.000000,4.000000,4.000000,,,,,,,,,,,,,5.078308,16.686300,7.692084,7.087306,3.856145,0.836621,1.668977,1.565356,3.390463,2.156335,5.808334,11.054955,6.126655,4.144510,2.844812,9.792714,17.353132,7.885571,6.615169,4.499805,6.419816,17.715921,9.179616,7.110145,3.694558
1577742210.884735,60.000000,0.000000,4287.692383,4321.025879,4160.512695,4196.922852,4253.846191,0.000000,4.000000,,,,0.000000,4.000000,4.000000,4.000000,4.000000,4.000000,30.000000,0.000000,0.340578,0.179932,0.866455,0.317627,0.533700,-0.600107,0.606943,8.877022,-49.150730,56.533024,,,,,,,,,,,,,,,,,,,,,,,,,
1577742210.892532,61.000000,0.000000,4258.974121,4323.077148,4147.692383,4172.820313,4222.563965,0.000000,4.000000,,,,0.000000,4.000000,4.000000,4.000000,4.000000,4.000000,,,,,,,,,,,,,,,,,,,,,,,,,,,,,,,,,,,,,
1577742210.900430,62.000000,0.000000,4264.102539,4367.179688,4162.051270,4172.307617,4233.333496,0.000000,4.000000,,,,0.000000,4.000000,4.000000,4.000000,4.000000,4.000000,31.000000,0.000000,0.339956,0.179932,0.866699,0.317627,0.549325,-0.583505,0.593759,8.766920,-49.020885,56.980888,,,,,,,,,,,,,,,,,,,,,,,,,
1577742210.908227,63.000000,0.000000,4268.717773,4352.307617,4170.256348,4167.179688,4243.589844,0.000000,4.000000,,,,0.000000,4.000000,4.000000,4.000000,4.000000,4.000000,,,,,,,,,,,,,,,,,,,,,,,,,,,,,,,,,,,,,
1577742210.916124,64.000000,0.000000,4282.563965,4323.077148,4174.358887,4174.871582,4255.384766,450.000000,4.000000,,,,0.000000,4.000000,4.000000,4.000000,4.000000,4.000000,32.000000,0.000000,0.340184,0.179932,0.866699,0.317383,0.551278,-0.596201,0.604990,11.538965,-49.083473,57.324150,,,,,,,,,,,,,,,,,,,,,,,,,
1577742210.923921,65.000000,0.000000,4270.769043,4335.897461,4155.384766,4161.538574,4241.538574,450.000000,4.000000,,,,0.000000,4.000000,4.000000,4.000000,4.000000,4.000000,,,,,,,,,,,,,,,,,,,,,,,,,,,,,,,,,,,,,
1577742210.931619,66.000000,0.000000,4237.948730,4346.666504,4129.230957,4125.641113,4208.205078,16219.000000,4.000000,,,,0.000000,4.000000,4.000000,4.000000,4.000000,4.000000,33.000000,0.000000,0.340184,0.179932,0.866699,0.317383,0.520516,-0.592294,0.604501,14.033806,-49.139801,55.659180,,,,,,,,,,,,,,,,,,,,,,,,,
1577742210.939516,67.000000,0.000000,4257.436035,4357.436035,4152.820313,4152.307617,4229.230957,450.000000,4.000000,,,,0.000000,4.000000,4.000000,4.000000,4.000000,4.000000,,,,,,,,,,,,,,,,,,,,,,,,,,,,,,,,,,,,,
1577742210.947313,68.000000,0.000000,4293.333496,4366.153809,4188.205078,4207.692383,4266.666504,16241.000000,4.000000,,,,0.000000,4.000000,4.000000,4.000000,4.000000,4.000000,34.000000,0.000000,0.339789,0.179932,0.866943,0.317139,0.537606,-0.604501,0.608896,11.673379,-49.190495,56.014984,,,,,,,,,,,,,,,,,,,,,,,,,
1577742210.955210,69.000000,0.000000,4286.153809,4351.794922,4177.948730,4201.025879,4252.820313,450.000000,4.000000,,,,0.000000,4.000000,4.000000,4.000000,4.000000,4.000000,,,,,,,,,,,,,,,,,,,,,,,,,,,,,,,,,,,,,
1577742210.963007,70.000000,0.000000,4255.897461,4333.333496,4145.641113,4153.333496,4218.461426,16151.000000,4.000000,,,,0.000000,4.000000,4.000000,4.000000,4.000000,4.000000,35.000000,0.000000,0.340017,0.179932,0.866943,0.316895,0.534188,-0.593271,0.590341,14.154778,-49.176308,56.395023,,,,,,,,,,,,,,,,,,,,,,,,,
1577742210.970904,71.000000,0.000000,4243.589844,4341.025879,4129.743652,4132.307617,4210.256348,450.000000,4.000000,,,,0.000000,4.000000,4.000000,4.000000,4.000000,4.000000,,,,,,,,,,,,,,,,,,,,,,,,,,,,,,,,,,,,,
1577742210.978702,72.000000,0.000000,4261.025879,4350.256348,4138.974121,4145.128418,4230.769043,450.000000,4.000000,,,,0.000000,4.000000,4.000000,4.000000,4.000000,4.000000,36.000000,0.000000,0.340017,0.179932,0.866943,0.316895,0.533211,-0.596201,0.597665,15.670254,-49.223351,56.737057,,,,,,,,,,,,,,,,,,,,,,,,,
1577742210.986599,73.000000,0.000000,4254.871582,4333.333496,4134.358887,4132.820313,4230.769043,16198.000000,4.000000,,,,0.000000,4.000000,4.000000,4.000000,4.000000,4.000000,,,,,,,,,,,,,,,,,,,,,,,,,,,,,,,,,,,,,
1577742210.994396,74.000000,0.000000,4210.769043,4327.179688,4109.230957,4088.205078,4194.358887,450.000000,4.000000,,,,0.000000,4.000000,4.000000,4.000000,4.000000,4.000000,37.000000,0.000000,0.339888,0.180176,0.866943,0.316895,0.550790,-0.587900,0.592782,14.880828,-49.265690,57.104702,,,,,,,,,,,,,,,,,,,,,,,,,
1577742211.002193,75.000000,0.000000,4228.205078,4350.769043,4149.230957,4123.589844,4215.384766,16220.000000,4.000000,,,,0.000000,4.000000,4.000000,4.000000,4.000000,4.000000,,,,,,,,,,,,,4.136770,14.156068,8.697317,6.876757,3.930391,0.820060,1.428363,1.426178,3.215929,2.558977,5.692838,9.826318,7.217304,3.958002,2.860175,8.353206,14.784596,8.741483,6.489046,4.567144,5.401917,15.174503,10.496388,6.892656,3.790768
1577742211.009891,76.000000,0.000000,4303.589844,4362.563965,4225.641113,4221.538574,4298.461426,450.000000,4.000000,,,,0.000000,4.000000,4.000000,4.000000,4.000000,4.000000,38.000000,0.000000,0.340115,0.180176,0.866943,0.316650,0.532235,-0.576181,0.582040,10.342162,-49.184166,57.495399,,,,,,,,,,,,,,,,,,,,,,,,,
1577742211.017788,77.000000,0.000000,4306.666504,4361.538574,4222.563965,4226.153809,4306.666504,450.000000,4.000000,,,,0.000000,4.000000,4.000000,4.000000,4.000000,4.000000,,,,,,,,,,,,,,,,,,,,,,,,,,,,,,,,,,,,,
1577742211.025585,78.000000,0.000000,4263.589844,4375.897461,4177.436035,4169.743652,4253.333496,450.000000,4.000000,,,,0.000000,4.000000,4.000000,4.000000,4.000000,4.000000,39.000000,0.000000,0.340115,0.180176,0.866943,0.316650,0.545419,-0.591318,0.585458,13.016499,-49.290241,57.787212,,,,,,,,,,,,,,,,,,,,,,,,,
1577742211.033382,79.000000,0.000000,4244.615234,4354.871582,4155.897461,4143.589844,4223.589844,16220.000000,4.000000,,,,0.000000,4.000000,4.000000,4.000000,4.000000,4.000000,,,,,,,,,,,,,,,,,,,,,,,,,,,,,,,,,,,,,
1577742211.041079,80.000000,0.000000,4233.846191,4309.230957,4146.153809,4126.153809,4215.384766,450.000000,4.000000,,,,0.000000,4.000000,4.000000,4.000000,4.000000,4.000000,40.000000,0.000000,0.339492,0.180176,0.867188,0.316650,0.545907,-0.597665,0.586923,12.492448,-49.086632,58.109657,,,,,,,,,,,,,,,,,,,,,,,,,
1577742211.048976,81.000000,0.000000,4248.717773,4340.000000,4161.025879,4134.871582,4232.307617,450.000000,4.000000,,,,0.000000,4.000000,4.000000,4.000000,4.000000,4.000000,,,,,,,,,,,,,,,,,,,,,,,,,,,,,,,,,,,,,
1577742211.056774,82.000000,0.000000,4265.128418,4377.948730,4171.794922,4158.974121,4248.717773,450.000000,4.000000,,,,0.000000,4.000000,4.000000,4.000000,4.000000,4.000000,41.000000,0.000000,0.339622,0.179932,0.867188,0.316650,0.535653,-0.579599,0.588388,11.901173,-49.082829,58.399860,,,,,,,,,,,,,,,,,,,,,,,,,
1577742211.064671,83.000000,0.000000,4239.487305,4335.897461,4142.051270,4134.871582,4220.512695,16220.000000,4.000000,,,,0.000000,4.000000,4.000000,4.000000,4.000000,4.000000,,,,,,,,,,,,,,,,,,,,,,,,,,,,,,,,,,,,,
1577742211.072468,84.000000,0.000000,4239.487305,4324.615234,4146.666504,4124.102539,4215.384766,450.000000,4.000000,,,,0.000000,4.000000,4.000000,4.000000,4.000000,4.000000,42.000000,0.000000,0.339622,0.179932,0.867188,0.316650,0.540536,-0.596689,0.601572,7.720287,-49.199036,58.601227,,,,,,,,,,,,,,,,,,,,,,,,,
1577742211.080365,85.000000,0.000000,4284.615234,4379.487305,4195.897461,4168.717773,4262.563965,450.000000,4.000000,,,,0.000000,4.000000,4.000000,4.000000,4.000000,4.000000,,,,,,,,,,,,,,,,,,,,,,,,,,,,,,,,,,,,,
1577742211.088162,86.000000,0.000000,4293.846191,4375.384766,4203.589844,4183.589844,4275.384766,450.000000,4.000000,,,,0.000000,4.000000,4.000000,4.000000,4.000000,4.000000,43.000000,0.000000,0.339622,0.179932,0.867188,0.316650,0.543954,-0.598154,0.589853,4.017305,-49.243809,58.722641,,,,,,,,,,,,,,,,,,,,,,,,,
1577742211.096060,87.000000,0.000000,4283.589844,4340.512695,4198.461426,4177.948730,4268.205078,16220.000000,4.000000,,,,0.000000,4.000000,4.000000,4.000000,4.000000,4.000000,,,,,,,,,,,,,,,,,,,,,,,,,,,,,,,,,,,,,
1577742211.103857,88.000000,0.000000,4272.307617,4339.487305,4194.358887,4168.717773,4261.538574,450.000000,4.000000,,,,0.000000,4.000000,4.000000,4.000000,4.000000,4.000000,44.000000,0.000000,0.339622,0.179932,0.867188,0.316650,0.534676,-0.576669,0.596689,4.512805,-49.224285,58.712280,,,,,,,,,,,,,,,,,,,,,,,,,
1577742211.111554,89.000000,0.000000,4227.692383,4338.974121,4153.846191,4122.563965,4217.436035,450.000000,4.000000,,,,0.000000,4.000000,4.000000,4.000000,4.000000,4.000000,,,,,,,,,,,,,,,,,,,,,,,,,,,,,,,,,,,,,
1577742211.119351,90.000000,0.000000,4217.436035,4337.948730,4140.512695,4116.922852,4201.538574,450.000000,4.000000,,,,0.000000,4.000000,4.000000,4.000000,4.000000,4.000000,45.000000,0.000000,0.339751,0.179688,0.867188,0.316650,0.539071,-0.591806,0.587411,4.958755,-49.326347,58.822590,,,,,,,,,,,,,,,,,,,,,,,,,
1577742211.127049,91.000000,0.000000,4262.051270,4346.666504,4181.025879,4171.282227,4249.230957,16220.000000,4.000000,,,,0.000000,4.000000,4.000000,4.000000,4.000000,4.000000,,,,,,,,,,,,,3.622248,10.968353,9.447788,6.308699,4.027746,0.799254,1.158434,1.316180,2.875119,3.017448,5.134598,8.057632,8.062513,3.636621,2.918256,6.718991,11.819107,9.665355,6.009166,4.705481,4.587790,11.953631,11.490007,6.341529,3.911775
1577742211.134846,92.000000,0.000000,4278.461426,4357.948730,4193.846191,4182.051270,4270.256348,450.000000,4.000000,,,,0.000000,4.000000,4.000000,4.000000,4.000000,4.000000,46.000000,0.000000,0.339751,0.179688,0.867188,0.316650,0.542000,-0.599130,0.594247,1.531927,-49.358391,58.921867,,,,,,,,,,,,,,,,,,,,,,,,,
1577742211.142543,93.000000,0.000000,4260.000000,4366.666504,4180.000000,4158.461426,4244.615234,450.000000,4.000000,,,,0.000000,4.000000,4.000000,4.000000,4.000000,4.000000,,,,,,,,,,,,,,,,,,,,,,,,,,,,,,,,,,,,,
1577742211.150341,94.000000,0.000000,4262.051270,4364.102539,4194.358887,4170.769043,4242.051270,450.000000,4.000000,,,,0.000000,4.000000,4.000000,4.000000,4.000000,4.000000,47.000000,0.000000,0.339751,0.179688,0.867188,0.316650,0.546883,-0.590829,0.584970,1.139473,-49.327412,59.011219,,,,,,,,,,,,,,,,,,,,,,,,,
1577742211.158038,95.000000,0.000000,4260.512695,4340.512695,4205.128418,4171.282227,4247.692383,16220.000000,4.000000,,,,0.000000,4.000000,4.000000,4.000000,4.000000,4.000000,,,,,,,,,,,,,,,,,,,,,,,,,,,,,,,,,,,,,
1577742211.165835,96.000000,0.000000,4233.333496,4317.948730,4190.769043,4145.641113,4228.205078,450.000000,4.000000,,,,0.000000,4.000000,4.000000,4.000000,4.000000,4.000000,48.000000,0.000000,0.339880,0.179443,0.867188,0.316650,0.549813,-0.586435,0.586923,-1.965243,-49.299530,59.211262,,,,,,,,,,,,,,,,,,,,,,,,,
1577742211.173533,97.000000,0.000000,4225.641113,4332.307617,4191.794922,4151.282227,4219.487305,450.000000,4.000000,,,,0.000000,4.000000,4.000000,4.000000,4.000000,4.000000,,,,,,,,,,,,,,,,,,,,,,,,,,,,,,,,,,,,,
1577742211.181330,98.000000,0.000000,4248.717773,4355.897461,4208.205078,4180.000000,4234.871582,450.000000,4.000000,,,,0.000000,4.000000,4.000000,4.000000,4.000000,4.000000,49.000000,0.000000,0.339880,0.179443,0.867188,0.316650,0.547860,-0.582040,0.582528,-1.050934,-49.214622,59.391304,,,,,,,,,,,,,,,,,,,,,,,,,
1577742211.189027,99.000000,0.000000,4242.051270,4344.102539,4191.794922,4171.794922,4226.666504,16220.000000,4.000000,,,,0.000000,4.000000,4.000000,4.000000,4.000000,4.000000,,,,,,,,,,,,,,,,,,,,,,,,,,,,,,,,,,,,,
1577742211.196824,100.000000,0.000000,4218.974121,4330.256348,4175.384766,4149.230957,4206.666504,450.000000,4.000000,,,,0.000000,4.000000,4.000000,4.000000,4.000000,4.000000,50.000000,0.000000,0.340009,0.179199,0.867188,0.316650,0.533700,-0.595224,0.600107,-1.185102,-49.198017,59.433712,,,,,,,,,,,,,,,,,,,,,,,,,
1577742211.204522,101.000000,0.000000,4258.974121,4364.615234,4212.820313,4188.205078,4245.641113,450.000000,4.000000,,,,0.000000,4.000000,4.000000,4.000000,4.000000,4.000000,,,,,,,,,,,,,,,,,,,,,,,,,,,,,,,,,,,,,
1577742211.212319,102.000000,0.000000,4279.487305,4371.282227,4221.538574,4211.282227,4262.051270,450.000000,4.000000,,,,0.000000,4.000000,4.000000,4.000000,4.000000,4.000000,51.000000,0.000000,0.339781,0.179199,0.867188,0.316895,0.540536,-0.586923,0.592294,2.582145,-49.242893,59.591507,,,,,,,,,,,,,,,,,,,,,,,,,
1577742211.220016,103.000000,0.000000,4220.000000,4330.769043,4171.794922,4156.922852,4198.461426,16220.000000,4.000000,,,,0.000000,4.000000,4.000000,4.000000,4.000000,4.000000,,,,,,,,,,,,,,,,,,,,,,,,,,,,,,,,,,,,,
1577742211.227814,104.000000,0.000000,4205.128418,4347.179688,4167.179688,4133.333496,4182.051270,450.000000,4.000000,,,,0.000000,4.000000,4.000000,4.000000,4.000000,4.000000,52.000000,0.000000,0.339910,0.178955,0.867188,0.316895,0.531746,-0.585946,0.591806,5.912853,-49.223461,59.554077,,,,,,,,,,,,,,,,,,,,,,,,,
1577742211.235511,105.000000,0.000000,4266.153809,4395.897461,4211.282227,4186.666504,4245.128418,450.000000,4.000000,,,,0.000000,4.000000,4.000000,4.000000,4.000000,4.000000,,,,,,,,,,,,,,,,,,,,,,,,,,,,,,,,,,,,,
1577742211.243408,106.000000,0.000000,4280.512695,4375.897461,4222.563965,4218.974121,4260.512695,450.000000,4.000000,,,,0.000000,4.000000,4.000000,4.000000,4.000000,4.000000,53.000000,0.000000,0.339910,0.178955,0.867188,0.316895,0.527352,-0.594247,0.600107,2.270984,-49.325607,59.640022,,,,,,,,,,,,,,,,,,,,,,,,,
1577742211.251205,107.000000,0.000000,4229.230957,4332.820313,4195.384766,4185.128418,4211.282227,16220.000000,4.000000,,,,0.000000,4.000000,4.000000,4.000000,4.000000,4.000000,,,,,,,,,,,,,3.750753,7.983218,10.006104,5.459004,4.132991,0.787611,0.936438,1.279997,2.428320,3.419343,4.303398,6.394966,8.678250,3.196597,3.011015,5.364314,9.278696,10.776125,5.232203,4.884406,4.227550,8.953798,12.181397,5.521565,4.046932
1577742211.259102,108.000000,0.000000,4226.666504,4353.333496,4189.230957,4176.410156,4210.256348,450.000000,4.000000,,,,0.000000,4.000000,4.000000,4.000000,4.000000,4.000000,54.000000,0.000000,0.339910,0.178955,0.867188,0.316895,0.528817,-0.591318,0.589364,2.642039,-49.238091,59.657555,,,,,,,,,,,,,,,,,,,,,,,,,
1577742211.266899,109.000000,0.000000,4267.692383,4374.358887,4201.025879,4205.641113,4247.692383,450.000000,4.000000,,,,0.000000,4.000000,4.000000,4.000000,4.000000,4.000000,,,,,,,,,,,,,,,,,,,,,,,,,,,,,,,,,,,,,
1577742211.274797,110.000000,0.000000,4273.846191,4351.282227,4208.205078,4212.820313,4252.820313,450.000000,4.000000,,,,0.000000,4.000000,4.000000,4.000000,4.000000,4.000000,55.000000,0.000000,0.339910,0.178955,0.867188,0.316895,0.531746,-0.585946,0.591806,5.966757,-49.219143,59.613522,,,,,,,,,,,,,,,,,,,,,,,,,
1577742211.282594,111.000000,0.000000,4261.538574,4336.410156,4211.794922,4199.487305,4240.512695,16220.000000,4.000000,,,,0.000000,4.000000,4.000000,4.000000,4.000000,4.000000,,,,,,,,,,,,,,,,,,,,,,,,,,,,,,,,,,,,,
1577742211.290491,112.000000,0.000000,4236.410156,4322.563965,4186.666504,4158.974121,4210.769043,450.000000,4.000000,,,,0.000000,4.000000,4.000000,4.000000,4.000000,4.000000,56.000000,0.000000,0.339910,0.178955,0.867188,0.316895,0.528817,-0.591318,0.589364,5.968235,-49.142273,59.633705,,,,,,,,,,,,,,,,,,,,,,,,,
1577742211.298288,113.000000,0.000000,4213.333496,4329.230957,4167.179688,4133.846191,4188.717773,450.000000,4.000000,,,,0.000000,4.000000,4.000000,4.000000,4.000000,4.000000,,,,,,,,,,,,,,,,,,,,,,,,,,,,,,,,,,,,,
1577742211.306085,114.000000,0.000000,4244.615234,4367.179688,4207.179688,4194.358887,4229.743652,450.000000,4.000000,,,,0.000000,4.000000,4.000000,4.000000,4.000000,4.000000,57.000000,0.000000,0.339286,0.178955,0.867432,0.316895,0.545907,-0.583017,0.597177,6.208827,-49.013275,58.036858,,,,,,,,,,,,,,,,,,,,,,,,,
1577742211.313883,115.000000,0.000000,4275.384766,4367.179688,4232.307617,4241.538574,4263.589844,16220.000000,4.000000,,,,0.000000,4.000000,4.000000,4.000000,4.000000,4.000000,,,,,,,,,,,,,,,,,,,,,,,,,,,,,,,,,,,,,
1577742211.321580,116.000000,0.000000,4234.358887,4334.358887,4187.179688,4181.538574,4217.948730,450.000000,4.000000,,,,0.000000,4.000000,4.000000,4.000000,4.000000,4.000000,58.000000,0.000000,0.339286,0.178955,0.867432,0.316895,0.532723,-0.597665,0.590341,6.245913,-49.016808,58.394154,,,,,,,,,,,,,,,,,,,,,,,,,
1577742211.329377,117.000000,0.000000,4209.230957,4334.871582,4165.128418,4146.666504,4190.256348,450.000000,4.000000,,,,0.000000,4.000000,4.000000,4.000000,4.000000,4.000000,,,,,,,,,,,,,,,,,,,,,,,,,,,,,,,,,,,,,
1577742211.337075,118.000000,0.000000,4254.358887,4351.282227,4205.128418,4198.974121,4233.846191,450.000000,4.000000,,,,0.000000,4.000000,4.000000,4.000000,4.000000,4.000000,59.000000,0.000000,0.339286,0.178955,0.867432,0.316895,0.553231,-0.584482,0.598642,6.398921,-49.079803,58.655907,,,,,,,,,,,,,,,,,,,,,,,,,
1577742211.344972,119.000000,0.000000,4266.153809,4356.922852,4220.512695,4216.410156,4249.230957,16220.000000,4.000000,,,,0.000000,4.000000,4.000000,4.000000,4.000000,4.000000,,,,,,,,,,,,,,,,,,,,,,,,,,,,,,,,,,,,,
1577742211.352769,120.000000,0.000000,4212.820313,4355.384766,4184.102539,4165.641113,4204.102539,450.000000,4.000000,,,,0.000000,4.000000,4.000000,4.000000,4.000000,4.000000,60.000000,0.000000,0.339910,0.178955,0.867188,0.316895,0.538582,-0.578134,0.596689,9.228320,-49.136497,58.831669,,,,,,,,,,,,,,,,,,,,,,,,,
1577742211.360666,121.000000,0.000000,4188.717773,4341.538574,4172.820313,4139.487305,4180.512695,450.000000,4.000000,,,,0.000000,4.000000,4.000000,4.000000,4.000000,4.000000,,,,,,,,,,,,,,,,,,,,,,,,,,,,,,,,,,,,,
1577742211.368463,122.000000,0.000000,4213.333496,4335.384766,4206.153809,4168.717773,4203.589844,450.000000,4.000000,,,,0.000000,4.000000,4.000000,4.000000,4.000000,4.000000,61.000000,0.000000,0.339910,0.178955,0.867188,0.316895,0.546395,-0.587411,0.582528,8.963457,-48.948261,59.109482,,,,,,,,,,,,,,,,,,,,,,,,,
1577742211.376360,123.000000,0.000000,4216.922852,4341.538574,4203.589844,4185.641113,4217.436035,16220.000000,4.000000,,,,0.000000,4.000000,4.000000,4.000000,4.000000,4.000000,,,,,,,,,,,,,4.371830,5.722634,10.496190,4.522782,4.268007,0.788256,0.810926,1.358618,1.957543,3.696150,3.376800,5.309744,9.233742,2.739243,3.153399,4.513551,7.561958,12.217955,4.382424,5.098696,4.281312,6.745219,12.677029,4.618803,4.231722
1577742211.384158,124.000000,0.000000,4199.487305,4334.871582,4168.205078,4166.153809,4202.051270,450.000000,4.000000,,,,0.000000,4.000000,4.000000,4.000000,4.000000,4.000000,62.000000,0.000000,0.339910,0.178955,0.867188,0.316895,0.546395,-0.583505,0.599130,8.904527,-48.898479,59.299702,,,,,,,,,,,,,,,,,,,,,,,,,
1577742211.392055,125.000000,0.000000,4213.333496,4344.102539,4180.512695,4168.205078,4205.128418,450.000000,4.000000,,,,0.000000,4.000000,4.000000,4.000000,4.000000,4.000000,,,,,,,,,,,,,,,,,,,,,,,,,,,,,,,,,,,,,
1577742211.399852,126.000000,0.000000,4252.307617,4371.282227,4224.102539,4207.692383,4242.051270,450.000000,4.000000,,,,0.000000,4.000000,4.000000,4.000000,4.000000,4.000000,63.000000,0.000000,0.339910,0.178955,0.867188,0.316895,0.548348,-0.591318,0.592782,7.834628,-48.973309,59.470898,,,,,,,,,,,,,,,,,,,,,,,,,
1577742211.407749,127.000000,0.000000,4259.487305,4358.974121,4228.205078,4214.358887,4254.358887,236.000000,4.000000,,,,0.000000,4.000000,4.000000,4.000000,4.000000,4.000000,,,,,,,,,,,,,,,,,,,,,,,,,,,,,,,,,,,,,
1577742211.415546,0.000000,0.000000,4223.077148,4321.025879,4200.512695,4172.820313,4221.025879,450.000000,4.000000,,,,0.000000,4.000000,4.000000,4.000000,4.000000,4.000000,0.000000,0.000000,0.339781,0.179199,0.867188,0.316895,0.538582,-0.579110,0.598154,7.768950,-48.980835,59.624977,,,,,,,,,,,,,,,,,,,,,,,,,
1577742211.423444,1.000000,0.000000,4198.974121,4331.282227,4185.641113,4150.256348,4197.948730,450.000000,4.000000,,,,0.000000,4.000000,4.000000,4.000000,4.000000,4.000000,,,,,,,,,,,,,,,,,,,,,,,,,,,,,,,,,,,,,
1577742211.431241,2.000000,0.000000,4208.205078,4360.000000,4189.230957,4156.922852,4207.692383,16222.000000,4.000000,,,,0.000000,4.000000,4.000000,4.000000,4.000000,4.000000,1.000000,0.000000,0.339910,0.178955,0.867188,0.316895,0.558114,-0.583017,0.601083,7.829470,-49.047428,59.703831,,,,,,,,,,,,,,,,,,,,,,,,,
1577742211.439038,3.000000,0.000000,4211.794922,4350.769043,4196.410156,4163.589844,4212.307617,450.000000,4.000000,,,,0.000000,4.000000,4.000000,4.000000,4.000000,4.000000,,,,,,,,,,,,,,,,,,,,,,,,,,,,,,,,,,,,,
1577742211.446735,4.000000,0.000000,4182.563965,4343.077148,4178.461426,4145.641113,4183.589844,16243.000000,4.000000,,,,0.000000,4.000000,4.000000,4.000000,4.000000,4.000000,2.000000,0.000000,0.339158,0.179199,0.867432,0.316895,0.541512,-0.585458,0.598642,10.755075,-49.107361,57.800892,,,,,,,,,,,,,,,,,,,,,,,,,
1577742211.454632,5.000000,0.000000,4169.743652,4364.102539,4166.666504,4132.307617,4173.333496,450.000000,4.000000,,,,0.000000,4.000000,4.000000,4.000000,4.000000,4.000000,,,,,,,,,,,,,,,,,,,,,,,,,,,,,,,,,,,,,
1577742211.462430,6.000000,0.000000,4199.487305,4373.333496,4194.358887,4157.948730,4205.128418,16151.000000,4.000000,,,,0.000000,4.000000,4.000000,4.000000,4.000000,4.000000,3.000000,0.000000,0.339286,0.178955,0.867432,0.316895,0.556161,-0.582528,0.597177,13.447936,-48.981853,56.267693,,,,,,,,,,,,,,,,,,,,,,,,,
1577742211.470327,7.000000,0.000000,4229.743652,4354.871582,4220.000000,4193.333496,4230.256348,450.000000,4.000000,,,,0.000000,4.000000,4.000000,4.000000,4.000000,4.000000,,,,,,,,,,,,,,,,,,,,,,,,,,,,,,,,,,,,,
1577742211.478124,8.000000,0.000000,4228.717773,4331.282227,4204.615234,4189.230957,4222.051270,450.000000,4.000000,,,,0.000000,4.000000,4.000000,4.000000,4.000000,4.000000,4.000000,0.000000,0.339286,0.178955,0.867432,0.316895,0.552743,-0.581064,0.590341,9.052559,-49.048344,54.827999,,,,,,,,,,,,,,,,,,,,,,,,,
1577742211.486021,9.000000,0.000000,4197.948730,4323.077148,4170.256348,4146.666504,4192.307617,16199.000000,4.000000,,,,0.000000,4.000000,4.000000,4.000000,4.000000,4.000000,,,,,,,,,,,,,,,,,,,,,,,,,,,,,,,,,,,,,
1577742211.493818,10.000000,0.000000,4194.871582,4345.128418,4178.974121,4143.077148,4187.692383,450.000000,4.000000,,,,0.000000,4.000000,4.000000,4.000000,4.000000,4.000000,5.000000,0.000000,0.339286,0.178955,0.867432,0.316895,0.548837,-0.590829,0.588876,8.805272,-48.988556,55.386551,,,,,,,,,,,,,,,,,,,,,,,,,
1577742211.501516,11.000000,0.000000,4234.358887,4367.692383,4218.974121,4182.563965,4220.000000,16214.000000,4.000000,,,,0.000000,4.000000,4.000000,4.000000,4.000000,4.000000,,,,,,,,,,,,,5.047822,4.295069,11.009580,3.717308,4.470024,0.801953,0.801668,1.561287,1.551630,3.834941,2.521264,4.918113,9.913144,2.389655,3.361459,4.065065,6.612318,13.977866,3.737672,5.359647,4.462173,5.463895,13.071486,3.843530,4.514586
1577742211.509313,12.000000,0.000000,4225.641113,4343.589844,4196.922852,4161.025879,4213.846191,450.000000,4.000000,,,,0.000000,4.000000,4.000000,4.000000,4.000000,4.000000,6.000000,0.000000,0.339286,0.178955,0.867432,0.316895,0.538582,-0.594247,0.590829,8.522899,-48.994560,55.949066,,,,,,,,,,,,,,,,,,,,,,,,,
1577742211.517010,13.000000,0.000000,4190.256348,4328.205078,4160.000000,4122.051270,4184.102539,450.000000,4.000000,,,,0.000000,4.000000,4.000000,4.000000,4.000000,4.000000,,,,,,,,,,,,,,,,,,,,,,,,,,,,,,,,,,,,,
1577742211.524907,14.000000,0.000000,4229.743652,4358.461426,4205.128418,4176.922852,4225.128418,450.000000,4.000000,,,,0.000000,4.000000,4.000000,4.000000,4.000000,4.000000,7.000000,0.000000,0.339286,0.178955,0.867432,0.316895,0.522957,-0.591806,0.596689,8.328578,-49.059776,54.421604,,,,,,,,,,,,,,,,,,,,,,,,,
1577742211.532705,15.000000,0.000000,4270.256348,4365.641113,4241.538574,4232.307617,4268.205078,16214.000000,4.000000,,,,0.000000,4.000000,4.000000,4.000000,4.000000,4.000000,,,,,,,,,,,,,,,,,,,,,,,,,,,,,,,,,,,,,
1577742211.540602,16.000000,0.000000,4235.897461,4339.487305,4204.102539,4193.333496,4226.153809,0.000000,4.000000,,,,0.000000,4.000000,4.000000,4.000000,4.000000,4.000000,8.000000,0.000000,0.339286,0.178955,0.867432,0.316895,0.533700,-0.581064,0.591806,4.325505,-49.058659,52.987072,,,,,,,,,,,,,,,,,,,,,,,,,
1577742211.548399,17.000000,0.000000,4202.563965,4344.615234,4176.410156,4148.717773,4182.051270,0.000000,4.000000,,,,0.000000,4.000000,4.000000,4.000000,4.000000,4.000000,,,,,,,,,,,,,,,,,,,,,,,,,,,,,,,,,,,,,
1577742211.556196,18.000000,0.000000,4200.000000,4355.384766,4172.307617,4142.563965,4177.436035,0.000000,4.000000,,,,0.000000,4.000000,4.000000,4.000000,4.000000,4.000000,9.000000,0.000000,0.339811,0.178711,0.867188,0.317139,0.546883,-0.598642,0.592294,0.842371,-49.177284,53.789532,,,,,,,,,,,,,,,,,,,,,,,,,
1577742211.563894,19.000000,0.000000,4202.563965,4331.282227,4172.307617,4148.205078,4184.615234,0.000000,4.000000,,,,0.000000,4.000000,4.000000,4.000000,4.000000,4.000000,,,,,,,,,,,,,,,,,,,,,,,,,,,,,,,,,,,,,
1577742211.571691,20.000000,0.000000,4197.948730,4318.974121,4180.000000,4147.179688,4181.538574,0.000000,4.000000,,,,0.000000,4.000000,4.000000,4.000000,4.000000,4.000000,10.000000,0.000000,0.339187,0.178711,0.867432,0.317139,0.558114,-0.583017,0.597665,4.406871,-49.104603,54.511745,,,,,,,,,,,,,,,,,,,,,,,,,
1577742211.579388,21.000000,0.000000,4181.538574,4346.153809,4172.820313,4121.538574,4164.615234,0.000000,4.000000,,,,0.000000,4.000000,4.000000,4.000000,4.000000,4.000000,,,,,,,,,,,,,,,,,,,,,,,,,,,,,,,,,,,,,
1577742211.587285,22.000000,0.000000,4184.615234,4371.794922,4175.384766,4128.205078,4172.307617,0.000000,4.000000,,,,0.000000,4.000000,4.000000,4.000000,4.000000,4.000000,11.000000,0.000000,0.339187,0.178711,0.867432,0.317139,0.536141,-0.587900,0.587900,4.743784,-48.979370,55.101925,,,,,,,,,,,,,,,,,,,,,,,,,
1577742211.595083,23.000000,0.000000,4203.077148,4368.717773,4205.641113,4172.307617,4200.000000,0.000000,4.000000,,,,0.000000,4.000000,4.000000,4.000000,4.000000,4.000000,,,,,,,,,,,,,,,,,,,,,,,,,,,,,,,,,,,,,
1577742211.602880,24.000000,0.000000,4212.820313,4358.461426,4221.025879,4184.102539,4207.692383,0.000000,4.000000,,,,0.000000,4.000000,4.000000,4.000000,4.000000,4.000000,12.000000,0.000000,0.338959,0.178711,0.867432,0.317383,0.538094,-0.598642,0.608896,5.166636,-49.105923,53.778809,,,,,,,,,,,,,,,,,,,,,,,,,
1577742211.610577,25.000000,0.000000,4227.692383,4353.333496,4215.384766,4181.025879,4210.256348,0.000000,4.000000,,,,0.000000,4.000000,4.000000,4.000000,4.000000,4.000000,,,,,,,,,,,,,,,,,,,,,,,,,,,,,,,,,,,,,
1577742211.618374,26.000000,0.000000,4222.563965,4344.615234,4195.384766,4168.205078,4202.051270,0.000000,4.000000,,,,0.000000,4.000000,4.000000,4.000000,4.000000,4.000000,13.000000,0.000000,0.339187,0.178711,0.867432,0.317139,0.550301,-0.596689,0.589364,5.367757,-49.100193,54.322647,,,,,,,,,,,,,,,,,,,,,,,,,
1577742211.626071,27.000000,0.000000,4197.436035,4339.487305,4180.000000,4135.897461,4181.538574,0.000000,4.000000,,,,0.000000,4.000000,4.000000,4.000000,4.000000,4.000000,,,,,,,,,,,,,5.449617,3.472137,11.542641,3.166154,4.767785,0.826826,0.884191,1.841981,1.290264,3.869480,1.836604,4.966313,10.740156,2.214397,3.639214,3.752049,6.027970,15.829632,3.462259,5.694661,4.479375,4.855444,13.394389,3.310776,4.923269
1577742211.633968,28.000000,0.000000,4201.025879,4326.153809,4181.538574,4133.333496,4184.615234,0.000000,4.000000,,,,0.000000,4.000000,4.000000,4.000000,4.000000,4.000000,14.000000,0.000000,0.339316,0.178467,0.867432,0.317139,0.553719,-0.597177,0.595224,1.840213,-49.095032,52.898014,,,,,,,,,,,,,,,,,,,,,,,,,
1577742211.641765,29.000000,0.000000,4198.974121,4314.871582,4166.666504,4138.974121,4176.410156,0.000000,4.000000,,,,0.000000,4.000000,4.000000,4.000000,4.000000,4.000000,,,,,,,,,,,,,,,,,,,,,,,,,,,,,,,,,,,,,
1577742211.649663,30.000000,0.000000,4196.922852,4336.922852,4164.102539,4130.769043,4167.179688,0.000000,4.000000,,,,0.000000,4.000000,4.000000,4.000000,4.000000,4.000000,15.000000,0.000000,0.339187,0.178711,0.867432,0.317139,0.531746,-0.593759,0.590341,2.373976,-49.150204,53.709377,,,,,,,,,,,,,,,,,,,,,,,,,
1577742211.657560,31.000000,0.000000,4245.641113,4371.282227,4208.205078,4168.717773,4213.846191,0.000000,4.000000,,,,0.000000,4.000000,4.000000,4.000000,4.000000,4.000000,,,,,,,,,,,,,,,,,,,,,,,,,,,,,,,,,,,,,
1577742211.665357,32.000000,0.000000,4253.846191,4365.128418,4204.615234,4184.102539,4217.436035,0.000000,4.000000,,,,0.000000,4.000000,4.000000,4.000000,4.000000,4.000000,16.000000,0.000000,0.339187,0.178711,0.867432,0.317139,0.532235,-0.585458,0.594247,2.914178,-49.199860,54.379791,,,,,,,,,,,,,,,,,,,,,,,,,
1577742211.673154,33.000000,0.000000,4201.025879,4346.153809,4152.820313,4129.743652,4158.974121,0.000000,4.000000,,,,0.000000,4.000000,4.000000,4.000000,4.000000,4.000000,,,,,,,,,,,,,,,,,,,,,,,,,,,,,,,,,,,,,
1577742211.681051,34.000000,0.000000,4210.769043,4364.615234,4166.666504,4128.205078,4170.769043,0.000000,4.000000,,,,0.000000,4.000000,4.000000,4.000000,4.000000,4.000000,17.000000,0.000000,0.339187,0.178711,0.867432,0.317139,0.542489,-0.590341,0.589364,3.400360,-49.304363,53.069073,,,,,,,,,,,,,,,,,,,,,,,,,
1577742211.688849,35.000000,0.000000,4255.384766,4366.153809,4207.692383,4181.538574,4226.153809,0.000000,4.000000,,,,0.000000,4.000000,4.000000,4.000000,4.000000,4.000000,,,,,,,,,,,,,,,,,,,,,,,,,,,,,,,,,,,,,
1577742211.696546,36.000000,0.000000,4237.436035,4334.871582,4194.358887,4181.025879,4221.025879,0.000000,4.000000,,,,0.000000,4.000000,4.000000,4.000000,4.000000,4.000000,18.000000,0.000000,0.339187,0.178711,0.867432,0.317139,0.540047,-0.590341,0.595224,3.000509,-49.278790,53.743702,,,,,,,,,,,,,,,,,,,,,,,,,
1577742211.704343,37.000000,0.000000,4194.358887,4333.333496,4171.282227,4141.538574,4180.512695,0.000000,4.000000,,,,0.000000,4.000000,4.000000,4.000000,4.000000,4.000000,,,,,,,,,,,,,,,,,,,,,,,,,,,,,,,,,,,,,
1577742211.712040,38.000000,0.000000,4196.922852,4353.333496,4181.025879,4141.025879,4174.358887,0.000000,4.000000,,,,0.000000,4.000000,4.000000,4.000000,4.000000,4.000000,19.000000,0.000000,0.339187,0.178711,0.867432,0.317139,0.542489,-0.603037,0.586435,3.478058,-49.195953,52.556408,,,,,,,,,,,,,,,,,,,,,,,,,
1577742211.719838,39.000000,0.000000,4223.077148,4353.333496,4190.256348,4156.410156,4192.307617,0.000000,4.000000,,,,0.000000,4.000000,4.000000,4.000000,4.000000,4.000000,,,,,,,,,,,,,,,,,,,,,,,,,,,,,,,,,,,,,
1577742211.727535,40.000000,0.000000,4222.051270,4339.487305,4183.589844,4141.538574,4188.717773,0.000000,4.000000,,,,0.000000,4.000000,4.000000,4.000000,4.000000,4.000000,20.000000,0.000000,0.339187,0.178711,0.867432,0.317139,0.542489,-0.590341,0.589364,0.199299,-49.181217,53.401936,,,,,,,,,,,,,,,,,,,,,,,,,
1577742211.735332,41.000000,0.000000,4212.820313,4348.205078,4186.153809,4137.948730,4178.974121,0.000000,4.000000,,,,0.000000,4.000000,4.000000,4.000000,4.000000,4.000000,,,,,,,,,,,,,,,,,,,,,,,,,,,,,,,,,,,,,
1577742211.743030,42.000000,0.000000,4221.025879,4355.384766,4194.358887,4162.051270,4184.102539,0.000000,4.000000,,,,0.000000,4.000000,4.000000,4.000000,4.000000,4.000000,21.000000,0.000000,0.339187,0.178711,0.867432,0.317139,0.542489,-0.603037,0.586435,0.956969,-49.108143,52.248817,,,,,,,,,,,,,,,,,,,,,,,,,
1577742211.750827,43.000000,0.000000,4218.461426,4342.051270,4183.077148,4156.410156,4177.436035,0.000000,4.000000,,,,0.000000,4.000000,4.000000,4.000000,4.000000,4.000000,,,,,,,,,,,,,5.351585,2.922543,11.931979,2.856033,5.150000,0.859958,1.015833,2.136852,1.213564,3.853813,1.331203,5.068339,11.476453,2.184974,3.970402,3.343731,5.413861,17.341349,3.511106,6.123916,4.190948,4.520210,13.503370,3.001086,5.430117
1577742211.758524,44.000000,0.000000,4220.512695,4335.384766,4180.512695,4145.128418,4180.512695,0.000000,4.000000,,,,0.000000,4.000000,4.000000,4.000000,4.000000,4.000000,22.000000,0.000000,0.338959,0.178711,0.867432,0.317383,0.545419,-0.584970,0.588388,-2.069681,-49.102188,53.125103,,,,,,,,,,,,,,,,,,,,,,,,,
1577742211.766321,45.000000,0.000000,4236.922852,4344.615234,4190.256348,4162.563965,4200.000000,0.000000,4.000000,,,,0.000000,4.000000,4.000000,4.000000,4.000000,4.000000,,,,,,,,,,,,,,,,,,,,,,,,,,,,,,,,,,,,,
1577742211.774019,46.000000,0.000000,4219.487305,4345.641113,4172.307617,4148.717773,4184.615234,0.000000,4.000000,,,,0.000000,4.000000,4.000000,4.000000,4.000000,4.000000,23.000000,0.000000,0.339187,0.178711,0.867432,0.317139,0.541024,-0.598154,0.584482,-1.085113,-49.156643,53.973576,,,,,,,,,,,,,,,,,,,,,,,,,
1577742211.781916,47.000000,0.000000,4215.384766,4336.922852,4172.820313,4140.512695,4183.077148,0.000000,4.000000,,,,0.000000,4.000000,4.000000,4.000000,4.000000,4.000000,,,,,,,,,,,,,,,,,,,,,,,,,,,,,,,,,,,,,
1577742211.789713,48.000000,0.000000,4254.358887,4354.358887,4207.692383,4176.922852,4223.077148,0.000000,4.000000,,,,0.000000,4.000000,4.000000,4.000000,4.000000,4.000000,24.000000,0.000000,0.339187,0.178711,0.867432,0.317139,0.538582,-0.595224,0.591318,2.672135,-49.205654,54.617569,,,,,,,,,,,,,,,,,,,,,,,,,
1577742211.797610,49.000000,0.000000,4243.077148,4369.743652,4200.000000,4167.692383,4212.307617,0.000000,4.000000,,,,0.000000,4.000000,4.000000,4.000000,4.000000,4.000000,,,,,,,,,,,,,,,,,,,,,,,,,,,,,,,,,,,,,
1577742211.805408,50.000000,0.000000,4202.563965,4350.256348,4172.307617,4134.871582,4171.282227,0.000000,4.000000,,,,0.000000,4.000000,4.000000,4.000000,4.000000,4.000000,25.000000,0.000000,0.339187,0.178711,0.867432,0.317139,0.535653,-0.598642,0.595224,5.993844,-49.130135,55.197163,,,,,,,,,,,,,,,,,,,,,,,,,
1577742211.813305,51.000000,0.000000,4212.307617,4329.230957,4183.589844,4153.333496,4175.897461,0.000000,4.000000,,,,0.000000,4.000000,4.000000,4.000000,4.000000,4.000000,,,,,,,,,,,,,,,,,,,,,,,,,,,,,,,,,,,,,
1577742211.821102,52.000000,0.000000,4215.897461,4329.230957,4187.179688,4156.410156,4176.922852,0.000000,4.000000,,,,0.000000,4.000000,4.000000,4.000000,4.000000,4.000000,26.000000,0.000000,0.339187,0.178711,0.867432,0.317139,0.533211,-0.598154,0.589853,6.231874,-49.062164,53.984154,,,,,,,,,,,,,,,,,,,,,,,,,
1577742211.828999,53.000000,0.000000,4197.436035,4351.282227,4174.871582,4134.358887,4158.974121,0.000000,4.000000,,,,0.000000,4.000000,4.000000,4.000000,4.000000,4.000000,,,,,,,,,,,,,,,,,,,,,,,,,,,,,,,,,,,,,
1577742211.836796,54.000000,0.000000,4229.743652,4365.641113,4205.128418,4168.717773,4189.743652,0.000000,4.000000,,,,0.000000,4.000000,4.000000,4.000000,4.000000,4.000000,27.000000,0.000000,0.339187,0.178711,0.867432,0.317139,0.548348,-0.586923,0.590829,9.317240,-49.060810,54.567276,,,,,,,,,,,,,,,,,,,,,,,,,
1577742211.844693,55.000000,0.000000,4262.563965,4355.897461,4230.256348,4203.077148,4222.051270,0.000000,4.000000,,,,0.000000,4.000000,4.000000,4.000000,4.000000,4.000000,,,,,,,,,,,,,,,,,,,,,,,,,,,,,,,,,,,,,
1577742211.852491,56.000000,0.000000,4225.641113,4348.717773,4197.948730,4167.692383,4189.230957,0.000000,4.000000,,,,0.000000,4.000000,4.000000,4.000000,4.000000,4.000000,28.000000,0.000000,0.339316,0.178467,0.867432,0.317139,0.539559,-0.594247,0.608896,5.454563,-49.059589,55.211716,,,,,,,,,,,,,,,,,,,,,,,,,
1577742211.860388,57.000000,0.000000,4166.666504,4351.282227,4154.358887,4115.897461,4137.436035,0.000000,4.000000,,,,0.000000,4.000000,4.000000,4.000000,4.000000,4.000000,,,,,,,,,,,,,,,,,,,,,,,,,,,,,,,,,,,,,
1577742211.868185,58.000000,0.000000,4153.846191,4332.820313,4155.897461,4107.179688,4130.256348,0.000000,4.000000,,,,0.000000,4.000000,4.000000,4.000000,4.000000,4.000000,29.000000,0.000000,0.339316,0.178467,0.867432,0.317139,0.542000,-0.588876,0.600595,1.798708,-49.118305,55.612267,,,,,,,,,,,,,,,,,,,,,,,,,
1577742211.876082,59.000000,0.000000,4175.384766,4310.769043,4179.487305,4123.589844,4149.230957,0.000000,4.000000,,,,0.000000,4.000000,4.000000,4.000000,4.000000,4.000000,,,,,,,,,,,,,4.894710,2.504371,12.041767,2.692061,5.544125,0.886687,1.156924,2.420464,1.300976,3.818906,0.988397,4.931724,11.801865,2.233627,4.308836,2.833632,4.603308,18.146753,3.722803,6.611141,3.667085,4.201033,13.272727,2.837502,5.937442
1577742211.883879,60.000000,0.000000,4193.846191,4337.948730,4187.692383,4131.794922,4160.000000,0.000000,4.000000,,,,0.000000,4.000000,4.000000,4.000000,4.000000,4.000000,30.000000,0.000000,0.338819,0.178223,0.867676,0.317139,0.543465,-0.587411,0.592294,2.396437,-49.171150,56.092392,,,,,,,,,,,,,,,,,,,,,,,,,
1577742211.891577,61.000000,0.000000,4224.102539,4377.948730,4191.282227,4149.743652,4181.025879,0.000000,4.000000,,,,0.000000,4.000000,4.000000,4.000000,4.000000,4.000000,,,,,,,,,,,,,,,,,,,,,,,,,,,,,,,,,,,,,
1577742211.899374,62.000000,0.000000,4261.025879,4365.641113,4190.256348,4157.948730,4199.487305,0.000000,4.000000,,,,0.000000,4.000000,4.000000,4.000000,4.000000,4.000000,31.000000,0.000000,0.338819,0.178223,0.867676,0.317139,0.538582,-0.595712,0.594247,2.934393,-49.218708,56.464687,,,,,,,,,,,,,,,,,,,,,,,,,
1577742211.907071,63.000000,0.000000,4287.179688,4322.563965,4173.846191,4132.820313,4200.000000,0.000000,4.000000,,,,0.000000,4.000000,4.000000,4.000000,4.000000,4.000000,,,,,,,,,,,,,,,,,,,,,,,,,,,,,,,,,,,,,
1577742211.914969,64.000000,0.000000,4345.641113,4329.743652,4175.897461,4135.897461,4235.384766,450.000000,4.000000,,,,0.000000,4.000000,4.000000,4.000000,4.000000,4.000000,32.000000,0.000000,0.338819,0.178223,0.867676,0.317139,0.547372,-0.589853,0.596201,3.478369,-49.141884,56.859570,,,,,,,,,,,,,,,,,,,,,,,,,
1577742211.922766,65.000000,0.000000,4442.051270,4383.077148,4210.769043,4185.128418,4310.256348,450.000000,4.000000,,,,0.000000,4.000000,4.000000,4.000000,4.000000,4.000000,,,,,,,,,,,,,,,,,,,,,,,,,,,,,,,,,,,,,
1577742211.930663,66.000000,0.000000,4489.230957,4371.794922,4217.948730,4193.846191,4340.512695,16203.000000,4.000000,,,,0.000000,4.000000,4.000000,4.000000,4.000000,4.000000,33.000000,0.000000,0.339048,0.178223,0.867676,0.316895,0.542000,-0.595712,0.602060,3.908131,-49.072739,57.214966,,,,,,,,,,,,,,,,,,,,,,,,,
1577742211.938460,67.000000,0.000000,4469.743652,4306.153809,4187.179688,4152.820313,4319.487305,450.000000,4.000000,,,,0.000000,4.000000,4.000000,4.000000,4.000000,4.000000,,,,,,,,,,,,,,,,,,,,,,,,,,,,,,,,,,,,,
1577742211.946357,68.000000,0.000000,4465.641113,4314.358887,4188.717773,4150.256348,4320.512695,16240.000000,4.000000,,,,0.000000,4.000000,4.000000,4.000000,4.000000,4.000000,34.000000,0.000000,0.339404,0.177979,0.867676,0.316650,0.533211,-0.599130,0.596689,4.414549,-49.070324,57.475006,,,,,,,,,,,,,,,,,,,,,,,,,
1577742211.954155,69.000000,0.000000,4468.717773,4367.692383,4199.487305,4165.128418,4326.666504,450.000000,4.000000,,,,0.000000,4.000000,4.000000,4.000000,4.000000,4.000000,,,,,,,,,,,,,,,,,,,,,,,,,,,,,,,,,,,,,
1577742211.962052,70.000000,0.000000,4426.153809,4354.871582,4171.794922,4131.794922,4288.205078,16139.000000,4.000000,,,,0.000000,4.000000,4.000000,4.000000,4.000000,4.000000,35.000000,0.000000,0.338779,0.177979,0.867920,0.316650,0.543465,-0.577157,0.589853,0.862695,-49.187782,57.888489,,,,,,,,,,,,,,,,,,,,,,,,,
1577742211.969849,71.000000,0.000000,4402.563965,4324.615234,4171.282227,4119.487305,4265.641113,450.000000,4.000000,,,,0.000000,4.000000,4.000000,4.000000,4.000000,4.000000,,,,,,,,,,,,,,,,,,,,,,,,,,,,,,,,,,,,,
1577742211.977746,72.000000,0.000000,4424.615234,4340.512695,4206.666504,4164.615234,4291.282227,450.000000,4.000000,,,,0.000000,4.000000,4.000000,4.000000,4.000000,4.000000,36.000000,0.000000,0.338779,0.177979,0.867920,0.316650,0.543954,-0.572763,0.588876,4.425163,-49.173866,58.140991,,,,,,,,,,,,,,,,,,,,,,,,,
1577742211.985543,73.000000,0.000000,4410.769043,4363.077148,4201.538574,4181.538574,4291.282227,16186.000000,4.000000,,,,0.000000,4.000000,4.000000,4.000000,4.000000,4.000000,,,,,,,,,,,,,,,,,,,,,,,,,,,,,,,,,,,,,
1577742211.993341,74.000000,0.000000,4373.333496,4372.820313,4189.230957,4169.230957,4260.512695,450.000000,4.000000,,,,0.000000,4.000000,4.000000,4.000000,4.000000,4.000000,37.000000,0.000000,0.338907,0.177734,0.867920,0.316650,0.555184,-0.580575,0.591318,4.879877,-49.161339,58.308430,,,,,,,,,,,,,,,,,,,,,,,,,
1577742212.001038,75.000000,0.000000,4371.794922,4365.128418,4209.230957,4182.563965,4257.948730,16208.000000,4.000000,,,,0.000000,4.000000,4.000000,4.000000,4.000000,4.000000,,,,,,,,,,,,,4.412423,2.237410,11.811910,2.546908,5.842701,0.892439,1.282931,2.709886,1.474697,3.748561,0.755501,4.492022,11.482302,2.268126,4.587871,2.313558,3.665531,18.080223,3.883428,7.047421,3.118891,3.829341,12.642913,2.699304,6.311776
1577742212.008835,76.000000,0.000000,4336.410156,4330.256348,4184.102539,4160.000000,4230.769043,450.000000,4.000000,,,,0.000000,4.000000,4.000000,4.000000,4.000000,4.000000,38.000000,0.000000,0.338907,0.177734,0.867920,0.316650,0.543465,-0.592782,0.595224,1.401121,-49.090248,58.459122,,,,,,,,,,,,,,,,,,,,,,,,,
1577742212.016532,77.000000,0.000000,4274.358887,4327.179688,4150.769043,4118.974121,4185.128418,450.000000,4.000000,,,,0.000000,4.000000,4.000000,4.000000,4.000000,4.000000,,,,,,,,,,,,,,,,,,,,,,,,,,,,,,,,,,,,,
1577742212.024329,78.000000,0.000000,4272.820313,4346.666504,4180.512695,4139.487305,4193.846191,450.000000,4.000000,,,,0.000000,4.000000,4.000000,4.000000,4.000000,4.000000,39.000000,0.000000,0.338907,0.177734,0.867920,0.316650,0.551278,-0.576669,0.612314,-1.849390,-49.145901,58.714378,,,,,,,,,,,,,,,,,,,,,,,,,
1577742212.032026,79.000000,0.000000,4282.563965,4343.077148,4197.436035,4149.230957,4206.153809,16208.000000,4.000000,,,,0.000000,4.000000,4.000000,4.000000,4.000000,4.000000,,,,,,,,,,,,,,,,,,,,,,,,,,,,,,,,,,,,,
1577742212.039923,80.000000,0.000000,4276.410156,4363.077148,4191.794922,4142.563965,4200.512695,450.000000,4.000000,,,,0.000000,4.000000,4.000000,4.000000,4.000000,4.000000,40.000000,0.000000,0.338907,0.177734,0.867920,0.316650,0.542977,-0.588876,0.593759,-4.715035,-49.136169,58.884293,,,,,,,,,,,,,,,,,,,,,,,,,
1577742212.047721,81.000000,0.000000,4281.025879,4380.000000,4209.230957,4174.871582,4213.333496,450.000000,4.000000,,,,0.000000,4.000000,4.000000,4.000000,4.000000,4.000000,,,,,,,,,,,,,,,,,,,,,,,,,,,,,,,,,,,,,
1577742212.055518,82.000000,0.000000,4265.128418,4353.333496,4211.794922,4173.846191,4204.102539,450.000000,4.000000,,,,0.000000,4.000000,4.000000,4.000000,4.000000,4.000000,41.000000,0.000000,0.338907,0.177734,0.867920,0.316650,0.549325,-0.586435,0.612314,-4.422977,-49.067596,59.097031,,,,,,,,,,,,,,,,,,,,,,,,,
1577742212.063215,83.000000,0.000000,4252.820313,4341.025879,4200.512695,4146.153809,4183.589844,16208.000000,4.000000,,,,0.000000,4.000000,4.000000,4.000000,4.000000,4.000000,,,,,,,,,,,,,,,,,,,,,,,,,,,,,,,,,,,,,
1577742212.070912,84.000000,0.000000,4269.743652,4346.666504,4205.641113,4163.077148,4201.025879,450.000000,4.000000,,,,0.000000,4.000000,4.000000,4.000000,4.000000,4.000000,42.000000,0.000000,0.339035,0.177490,0.867920,0.316650,0.546395,-0.584482,0.593759,-3.203080,-49.065697,59.109047,,,,,,,,,,,,,,,,,,,,,,,,,
1577742212.078710,85.000000,0.000000,4270.769043,4345.641113,4204.102539,4180.000000,4211.282227,450.000000,4.000000,,,,0.000000,4.000000,4.000000,4.000000,4.000000,4.000000,,,,,,,,,,,,,,,,,,,,,,,,,,,,,,,,,,,,,
1577742212.086607,86.000000,0.000000,4234.358887,4349.230957,4181.538574,4145.641113,4172.820313,450.000000,4.000000,,,,0.000000,4.000000,4.000000,4.000000,4.000000,4.000000,43.000000,0.000000,0.339135,0.177734,0.867920,0.316406,0.542489,-0.589853,0.599619,-2.164988,-48.944359,59.299309,,,,,,,,,,,,,,,,,,,,,,,,,
1577742212.094504,87.000000,0.000000,4213.333496,4346.666504,4168.205078,4120.512695,4151.794922,16208.000000,4.000000,,,,0.000000,4.000000,4.000000,4.000000,4.000000,4.000000,,,,,,,,,,,,,,,,,,,,,,,,,,,,,,,,,,,,,
1577742212.102301,88.000000,0.000000,4222.051270,4349.230957,4180.000000,4137.948730,4170.769043,450.000000,4.000000,,,,0.000000,4.000000,4.000000,4.000000,4.000000,4.000000,44.000000,0.000000,0.339135,0.177734,0.867920,0.316406,0.539559,-0.585458,0.594736,-4.999073,-48.894966,59.291100,,,,,,,,,,,,,,,,,,,,,,,,,
1577742212.110098,89.000000,0.000000,4222.051270,4365.128418,4186.666504,4141.025879,4171.794922,450.000000,4.000000,,,,0.000000,4.000000,4.000000,4.000000,4.000000,4.000000,,,,,,,,,,,,,,,,,,,,,,,,,,,,,,,,,,,,,
1577742212.117796,90.000000,0.000000,4191.794922,4355.897461,4164.615234,4110.769043,4142.563965,450.000000,4.000000,,,,0.000000,4.000000,4.000000,4.000000,4.000000,4.000000,45.000000,0.000000,0.339135,0.177734,0.867920,0.316406,0.533700,-0.587411,0.599130,-4.618796,-48.910328,59.463158,,,,,,,,,,,,,,,,,,,,,,,,,
1577742212.125593,91.000000,0.000000,4168.205078,4347.179688,4156.922852,4108.205078,4131.794922,16208.000000,4.000000,,,,0.000000,4.000000,4.000000,4.000000,4.000000,4.000000,,,,,,,,,,,,,5.050168,2.327138,11.342642,2.366189,5.960079,0.871780,1.386094,3.025416,1.646134,3.606448,0.576505,3.878869,10.480713,2.245251,4.746743,1.911959,2.846405,17.221487,3.869947,7.300314,3.022393,3.536680,11.729019,2.542683,6.448482
1577742212.133290,92.000000,0.000000,4191.282227,4354.358887,4192.307617,4149.230957,4157.436035,450.000000,4.000000,,,,0.000000,4.000000,4.000000,4.000000,4.000000,4.000000,46.000000,0.000000,0.339135,0.177734,0.867920,0.316406,0.551766,-0.588876,0.583017,-0.448364,-48.924156,59.558193,,,,,,,,,,,,,,,,,,,,,,,,,
1577742212.141088,93.000000,0.000000,4218.461426,4347.179688,4217.948730,4170.769043,4180.512695,450.000000,4.000000,,,,0.000000,4.000000,4.000000,4.000000,4.000000,4.000000,,,,,,,,,,,,,,,,,,,,,,,,,,,,,,,,,,,,,
1577742212.148785,94.000000,0.000000,4206.666504,4344.615234,4205.641113,4151.794922,4171.794922,450.000000,4.000000,,,,0.000000,4.000000,4.000000,4.000000,4.000000,4.000000,47.000000,0.000000,0.339007,0.177979,0.867920,0.316406,0.542489,-0.587411,0.583017,0.314257,-48.996418,59.583912,,,,,,,,,,,,,,,,,,,,,,,,,
1577742212.156582,95.000000,0.000000,4177.948730,4333.846191,4185.641113,4132.307617,4147.692383,16208.000000,4.000000,,,,0.000000,4.000000,4.000000,4.000000,4.000000,4.000000,,,,,,,,,,,,,,,,,,,,,,,,,,,,,,,,,,,,,
1577742212.164280,96.000000,0.000000,4162.563965,4308.717773,4174.871582,4124.102539,4132.820313,450.000000,4.000000,,,,0.000000,4.000000,4.000000,4.000000,4.000000,4.000000,48.000000,0.000000,0.339135,0.177734,0.867920,0.316406,0.533700,-0.587411,0.599130,-2.767752,-49.061451,59.726688,,,,,,,,,,,,,,,,,,,,,,,,,
1577742212.172077,97.000000,0.000000,4156.410156,4332.307617,4167.179688,4118.974121,4129.743652,450.000000,4.000000,,,,0.000000,4.000000,4.000000,4.000000,4.000000,4.000000,,,,,,,,,,,,,,,,,,,,,,,,,,,,,,,,,,,,,
1577742212.179774,98.000000,0.000000,4166.666504,4371.282227,4170.256348,4126.666504,4143.589844,450.000000,4.000000,,,,0.000000,4.000000,4.000000,4.000000,4.000000,4.000000,49.000000,0.000000,0.339007,0.177979,0.867920,0.316406,0.542489,-0.587411,0.583017,-1.773193,-49.119980,59.735554,,,,,,,,,,,,,,,,,,,,,,,,,
1577742212.187571,99.000000,0.000000,4166.153809,4337.436035,4167.179688,4121.538574,4140.000000,16208.000000,4.000000,,,,0.000000,4.000000,4.000000,4.000000,4.000000,4.000000,,,,,,,,,,,,,,,,,,,,,,,,,,,,,,,,,,,,,
1577742212.195269,100.000000,0.000000,4149.230957,4309.230957,4157.436035,4110.769043,4122.563965,450.000000,4.000000,,,,0.000000,4.000000,4.000000,4.000000,4.000000,4.000000,50.000000,0.000000,0.339363,0.177734,0.867920,0.316162,0.539559,-0.583017,0.601083,-1.775319,-49.172657,59.803352,,,,,,,,,,,,,,,,,,,,,,,,,
1577742212.203166,101.000000,0.000000,4171.282227,4358.461426,4177.436035,4142.563965,4152.820313,450.000000,4.000000,,,,0.000000,4.000000,4.000000,4.000000,4.000000,4.000000,,,,,,,,,,,,,,,,,,,,,,,,,,,,,,,,,,,,,
1577742212.210963,102.000000,0.000000,4209.230957,4393.333496,4204.615234,4177.948730,4193.846191,450.000000,4.000000,,,,0.000000,4.000000,4.000000,4.000000,4.000000,4.000000,51.000000,0.000000,0.339007,0.177979,0.867920,0.316406,0.530770,-0.584482,0.597665,-0.999634,-49.160252,59.924183,,,,,,,,,,,,,,,,,,,,,,,,,
1577742212.218860,103.000000,0.000000,4203.589844,4360.000000,4194.871582,4162.563965,4186.153809,16208.000000,4.000000,,,,0.000000,4.000000,4.000000,4.000000,4.000000,4.000000,,,,,,,,,,,,,,,,,,,,,,,,,,,,,,,,,,,,,
1577742212.226657,104.000000,0.000000,4169.743652,4314.358887,4161.538574,4124.615234,4153.333496,450.000000,4.000000,,,,0.000000,4.000000,4.000000,4.000000,4.000000,4.000000,52.000000,0.000000,0.339007,0.177979,0.867920,0.316406,0.538582,-0.590341,0.589364,-0.181886,-49.208900,59.913303,,,,,,,,,,,,,,,,,,,,,,,,,
1577742212.234555,105.000000,0.000000,4147.692383,4319.487305,4148.717773,4107.179688,4136.410156,450.000000,4.000000,,,,0.000000,4.000000,4.000000,4.000000,4.000000,4.000000,,,,,,,,,,,,,,,,,,,,,,,,,,,,,,,,,,,,,
1577742212.242352,106.000000,0.000000,4165.128418,4352.820313,4177.436035,4127.692383,4158.974121,450.000000,4.000000,,,,0.000000,4.000000,4.000000,4.000000,4.000000,4.000000,53.000000,0.000000,0.338609,0.177979,0.868164,0.316162,0.532723,-0.581064,0.590341,-3.274096,-49.133057,60.023140,,,,,,,,,,,,,,,,,,,,,,,,,
1577742212.250249,107.000000,0.000000,4193.846191,4354.358887,4199.487305,4148.205078,4190.256348,16208.000000,4.000000,,,,0.000000,4.000000,4.000000,4.000000,4.000000,4.000000,,,,,,,,,,,,,10.292892,3.216165,10.877157,2.203288,5.864056,0.799509,1.444097,3.372238,1.755422,3.397769,0.440974,3.284703,8.996832,2.189787,4.747531,1.715866,2.296566,15.834615,3.706886,7.270595,4.700307,3.557089,10.726955,2.414785,6.309466
1577742212.258046,108.000000,0.000000,4170.769043,4333.846191,4163.589844,4118.461426,4164.615234,450.000000,4.000000,,,,0.000000,4.000000,4.000000,4.000000,4.000000,4.000000,54.000000,0.000000,0.338609,0.177979,0.868164,0.316162,0.546395,-0.576181,0.604501,-3.006502,-49.184425,59.942547,,,,,,,,,,,,,,,,,,,,,,,,,
1577742212.265943,109.000000,0.000000,4134.358887,4335.897461,4130.769043,4088.205078,4123.589844,450.000000,4.000000,,,,0.000000,4.000000,4.000000,4.000000,4.000000,4.000000,,,,,,,,,,,,,,,,,,,,,,,,,,,,,,,,,,,,,
1577742212.273741,110.000000,0.000000,4163.077148,4340.000000,4169.230957,4129.230957,4154.358887,450.000000,4.000000,,,,0.000000,4.000000,4.000000,4.000000,4.000000,4.000000,55.000000,0.000000,0.338381,0.177979,0.868164,0.316406,0.547372,-0.580087,0.588388,-5.696620,-49.111027,59.989643,,,,,,,,,,,,,,,,,,,,,,,,,
1577742212.281438,111.000000,0.000000,4205.128418,4330.769043,4210.769043,4177.948730,4202.563965,16208.000000,4.000000,,,,0.000000,4.000000,4.000000,4.000000,4.000000,4.000000,,,,,,,,,,,,,,,,,,,,,,,,,,,,,,,,,,,,,
1577742212.289235,112.000000,0.000000,4194.871582,4332.820313,4192.307617,4169.743652,4194.358887,450.000000,4.000000,,,,0.000000,4.000000,4.000000,4.000000,4.000000,4.000000,56.000000,0.000000,0.338381,0.177979,0.868164,0.316406,0.544442,-0.585946,0.596689,-5.366220,-49.044971,60.091846,,,,,,,,,,,,,,,,,,,,,,,,,
1577742212.296933,113.000000,0.000000,4157.436035,4337.436035,4151.794922,4130.256348,4155.897461,450.000000,4.000000,,,,0.000000,4.000000,4.000000,4.000000,4.000000,4.000000,,,,,,,,,,,,,,,,,,,,,,,,,,,,,,,,,,,,,
1577742212.304730,114.000000,0.000000,4154.871582,4330.769043,4149.743652,4119.487305,4154.358887,450.000000,4.000000,,,,0.000000,4.000000,4.000000,4.000000,4.000000,4.000000,57.000000,0.000000,0.338381,0.177979,0.868164,0.316406,0.550790,-0.582528,0.592294,-8.059628,-49.045334,60.303459,,,,,,,,,,,,,,,,,,,,,,,,,
1577742212.312427,115.000000,0.000000,4181.538574,4324.615234,4170.256348,4147.179688,4183.077148,16208.000000,4.000000,,,,0.000000,4.000000,4.000000,4.000000,4.000000,4.000000,,,,,,,,,,,,,,,,,,,,,,,,,,,,,,,,,,,,,
1577742212.320224,116.000000,0.000000,4189.230957,4334.871582,4174.358887,4163.589844,4192.820313,450.000000,4.000000,,,,0.000000,4.000000,4.000000,4.000000,4.000000,4.000000,58.000000,0.000000,0.338381,0.177979,0.868164,0.316406,0.537118,-0.594736,0.592294,-6.535881,-49.225105,58.520004,,,,,,,,,,,,,,,,,,,,,,,,,
1577742212.327922,117.000000,0.000000,4151.794922,4339.487305,4149.743652,4135.897461,4157.436035,450.000000,4.000000,,,,0.000000,4.000000,4.000000,4.000000,4.000000,4.000000,,,,,,,,,,,,,,,,,,,,,,,,,,,,,,,,,,,,,
1577742212.335819,118.000000,0.000000,4130.256348,4328.205078,4132.307617,4116.410156,4134.871582,450.000000,4.000000,,,,0.000000,4.000000,4.000000,4.000000,4.000000,4.000000,59.000000,0.000000,0.338510,0.177734,0.868164,0.316406,0.550790,-0.591806,0.595712,-9.112322,-49.207455,58.769173,,,,,,,,,,,,,,,,,,,,,,,,,
1577742212.343616,119.000000,0.000000,4158.974121,4326.666504,4148.205078,4145.128418,4162.051270,16208.000000,4.000000,,,,0.000000,4.000000,4.000000,4.000000,4.000000,4.000000,,,,,,,,,,,,,,,,,,,,,,,,,,,,,,,,,,,,,
1577742212.351513,120.000000,0.000000,4176.410156,4337.436035,4167.179688,4168.205078,4186.666504,450.000000,4.000000,,,,0.000000,4.000000,4.000000,4.000000,4.000000,4.000000,60.000000,0.000000,0.338866,0.177490,0.868164,0.316162,0.550301,-0.583993,0.597177,-4.612168,-49.311199,58.813976,,,,,,,,,,,,,,,,,,,,,,,,,
1577742212.359310,121.000000,0.000000,4170.256348,4344.615234,4165.641113,4159.487305,4183.077148,450.000000,4.000000,,,,0.000000,4.000000,4.000000,4.000000,4.000000,4.000000,,,,,,,,,,,,,,,,,,,,,,,,,,,,,,,,,,,,,
1577742212.367208,122.000000,0.000000,4166.153809,4337.948730,4148.205078,4143.077148,4172.307617,450.000000,4.000000,,,,0.000000,4.000000,4.000000,4.000000,4.000000,4.000000,61.000000,0.000000,0.338993,0.177246,0.868164,0.316162,0.542000,-0.587411,0.589853,-3.373351,-49.404572,57.000023,,,,,,,,,,,,,,,,,,,,,,,,,
1577742212.375005,123.000000,0.000000,4161.538574,4327.692383,4143.589844,4134.358887,4169.743652,16208.000000,4.000000,,,,0.000000,4.000000,4.000000,4.000000,4.000000,4.000000,,,,,,,,,,,,,23.899185,5.230692,10.704324,2.182827,5.571399,0.692140,1.430455,3.731772,1.804155,3.185667,0.338046,2.814518,7.395071,2.183368,4.576330,1.711414,1.980894,14.300856,3.540784,6.925126,9.511445,4.040695,9.848807,2.416148,5.922286
1577742212.382902,124.000000,0.000000,4152.307617,4322.051270,4157.436035,4138.461426,4167.179688,450.000000,4.000000,,,,0.000000,4.000000,4.000000,4.000000,4.000000,4.000000,62.000000,0.000000,0.338367,0.177246,0.868408,0.316162,0.540536,-0.583993,0.604501,-6.266046,-49.249344,57.401188,,,,,,,,,,,,,,,,,,,,,,,,,
1577742212.390699,125.000000,0.000000,4154.871582,4334.871582,4161.025879,4152.820313,4164.102539,450.000000,4.000000,,,,0.000000,4.000000,4.000000,4.000000,4.000000,4.000000,,,,,,,,,,,,,,,,,,,,,,,,,,,,,,,,,,,,,
1577742212.398596,126.000000,0.000000,4165.128418,4354.358887,4149.230957,4154.871582,4163.589844,450.000000,4.000000,,,,0.000000,4.000000,4.000000,4.000000,4.000000,4.000000,63.000000,0.000000,0.338851,0.176758,0.868408,0.315918,0.544930,-0.588876,0.606943,-1.990704,-49.229267,57.762238,,,,,,,,,,,,,,,,,,,,,,,,,
1577742212.406394,127.000000,0.000000,4167.179688,4355.384766,4154.358887,4148.717773,4165.128418,236.000000,4.000000,,,,0.000000,4.000000,4.000000,4.000000,4.000000,4.000000,,,,,,,,,,,,,,,,,,,,,,,,,,,,,,,,,,,,,
1577742212.414291,0.000000,0.000000,4190.769043,4348.205078,4188.717773,4172.820313,4192.820313,450.000000,4.000000,,,,0.000000,4.000000,4.000000,4.000000,4.000000,4.000000,0.000000,0.000000,0.339205,0.176514,0.868408,0.315674,0.530770,-0.599130,0.587900,-1.073849,-49.211201,58.027367,,,,,,,,,,,,,,,,,,,,,,,,,
1577742212.422088,1.000000,0.000000,4207.179688,4337.948730,4196.410156,4182.563965,4205.128418,450.000000,4.000000,,,,0.000000,4.000000,4.000000,4.000000,4.000000,4.000000,,,,,,,,,,,,,,,,,,,,,,,,,,,,,,,,,,,,,
1577742212.429985,2.000000,0.000000,4175.384766,4323.077148,4158.461426,4138.974121,4168.205078,16208.000000,4.000000,,,,0.000000,4.000000,4.000000,4.000000,4.000000,4.000000,1.000000,0.000000,0.338934,0.176270,0.868652,0.315430,0.546883,-0.587900,0.605478,-0.129049,-49.314571,58.325794,,,,,,,,,,,,,,,,,,,,,,,,,
1577742212.437782,3.000000,0.000000,4146.666504,4325.641113,4137.948730,4108.717773,4142.051270,450.000000,4.000000,,,,0.000000,4.000000,4.000000,4.000000,4.000000,4.000000,,,,,,,,,,,,,,,,,,,,,,,,,,,,,,,,,,,,,
1577742212.445580,4.000000,0.000000,4165.641113,4344.615234,4155.384766,4137.436035,4164.102539,16240.000000,4.000000,,,,0.000000,4.000000,4.000000,4.000000,4.000000,4.000000,2.000000,0.000000,0.339288,0.176025,0.868652,0.315186,0.549813,-0.588876,0.596689,3.412962,-49.347790,56.680290,,,,,,,,,,,,,,,,,,,,,,,,,
1577742212.453277,5.000000,0.000000,4158.974121,4332.307617,4138.974121,4133.846191,4152.307617,450.000000,4.000000,,,,0.000000,4.000000,4.000000,4.000000,4.000000,4.000000,,,,,,,,,,,,,,,,,,,,,,,,,,,,,,,,,,,,,
1577742212.460974,6.000000,0.000000,4123.589844,4317.436035,4105.641113,4089.743652,4112.307617,16147.000000,4.000000,,,,0.000000,4.000000,4.000000,4.000000,4.000000,4.000000,3.000000,0.000000,0.338889,0.176025,0.868896,0.314941,0.542977,-0.581552,0.598154,6.720403,-49.138424,57.053616,,,,,,,,,,,,,,,,,,,,,,,,,
1577742212.468771,7.000000,0.000000,4161.025879,4347.179688,4140.000000,4117.436035,4148.205078,450.000000,4.000000,,,,0.000000,4.000000,4.000000,4.000000,4.000000,4.000000,,,,,,,,,,,,,,,,,,,,,,,,,,,,,,,,,,,,,
1577742212.476469,8.000000,0.000000,4215.384766,4361.025879,4184.615234,4171.794922,4204.102539,450.000000,4.000000,,,,0.000000,4.000000,4.000000,4.000000,4.000000,4.000000,4.000000,0.000000,0.338889,0.176025,0.868896,0.314941,0.544930,-0.582040,0.592294,6.825963,-49.189259,57.449421,,,,,,,,,,,,,,,,,,,,,,,,,
