title:004, start timestamp:2019-12-31T00:43:51.279314+03:00, stop timestamp:2019-12-31T00:44:07.030294+03:00, headset type:INSIGHT, headset serial:A2D200FB, headset firmware:930, subject name:Qasim, channels:56, sampling rate:eeg_128;mot_64;pow_8, samples:2024      , version:2.0
Timestamp,EEG.Counter,EEG.Interpolated,EEG.AF3,EEG.T7,EEG.Pz,EEG.T8,EEG.AF4,EEG.RawCq,EEG.Battery,MarkerIndex,MarkerType,MarkerValueInt,EEG.MarkerHardware,CQ.AF3,CQ.T7,CQ.Pz,CQ.T8,CQ.AF4,MOT.CounterMems,MOT.InterpolatedMems,MOT.Q0,MOT.Q1,MOT.Q2,MOT.Q3,MOT.AccX,MOT.AccY,MOT.AccZ,MOT.MagX,MOT.MagY,MOT.MagZ,POW.AF3.Theta,POW.AF3.Alpha,POW.AF3.BetaL,POW.AF3.BetaH,POW.AF3.Gamma,POW.T7.Theta,POW.T7.Alpha,POW.T7.BetaL,POW.T7.BetaH,POW.T7.Gamma,POW.Pz.Theta,POW.Pz.Alpha,POW.Pz.BetaL,POW.Pz.BetaH,POW.Pz.Gamma,POW.T8.Theta,POW.T8.Alpha,POW.T8.BetaL,POW.T8.BetaH,POW.T8.Gamma,POW.AF4.Theta,POW.AF4.Alpha,POW.AF4.BetaL,POW.AF4.BetaH,POW.AF4.Gamma
1577742231.279314,118.000000,0.000000,4230.256348,4330.256348,4177.948730,4164.102539,4193.846191,450.000000,4.000000,,,,0.000000,4.000000,4.000000,4.000000,4.000000,4.000000,59.000000,0.000000,0.331080,0.142334,0.876709,0.318604,0.555184,-0.585946,0.592294,0.589713,-49.292782,59.583183,,,,,,,,,,,,,,,,,,,,,,,,,
1577742231.287211,119.000000,0.000000,4252.307617,4339.487305,4195.897461,4187.179688,4220.000000,16209.000000,4.000000,,,,0.000000,4.000000,4.000000,4.000000,4.000000,4.000000,,,,,,,,,,,,,,,,,,,,,,,,,,,,,,,,,,,,,
1577742231.295008,120.000000,0.000000,4242.563965,4345.128418,4186.666504,4163.589844,4216.922852,450.000000,4.000000,,,,0.000000,4.000000,4.000000,4.000000,4.000000,4.000000,60.000000,0.000000,0.330975,0.142578,0.876709,0.318604,0.558114,-0.583505,0.589853,4.000033,-49.328178,57.752129,,,,,,,,,,,,,,,,,,,,,,,,,
1577742231.302805,121.000000,0.000000,4206.666504,4344.615234,4153.333496,4124.102539,4179.487305,450.000000,4.000000,,,,0.000000,4.000000,4.000000,4.000000,4.000000,4.000000,,,,,,,,,,,,,,,,,,,,,,,,,,,,,,,,,,,,,
1577742231.310701,122.000000,0.000000,4215.384766,4332.307617,4154.358887,4138.461426,4181.538574,450.000000,4.000000,,,,0.000000,4.000000,4.000000,4.000000,4.000000,4.000000,61.000000,0.000000,0.330975,0.142578,0.876709,0.318604,0.547860,-0.587411,0.589853,4.257999,-49.419853,58.078083,,,,,,,,,,,,,,,,,,,,,,,,,
1577742231.318598,123.000000,0.000000,4256.410156,4326.153809,4184.102539,4178.974121,4220.512695,16209.000000,4.000000,,,,0.000000,4.000000,4.000000,4.000000,4.000000,4.000000,,,,,,,,,,,,,5.396245,1.816295,5.546964,4.773221,4.223219,0.675825,0.556404,1.565070,1.766146,2.810364,3.746853,2.780757,4.312028,3.402839,3.683509,5.562326,2.847613,4.093744,5.314768,4.711249,5.752741,2.930144,4.758145,5.109415,4.725088
1577742231.326495,124.000000,0.000000,4268.717773,4337.948730,4203.077148,4185.641113,4234.358887,450.000000,4.000000,,,,0.000000,4.000000,4.000000,4.000000,4.000000,4.000000,62.000000,0.000000,0.331210,0.142578,0.876709,0.318359,0.547860,-0.584482,0.595224,0.781615,-49.442543,56.397533,,,,,,,,,,,,,,,,,,,,,,,,,
1577742231.334293,125.000000,0.000000,4236.410156,4328.205078,4181.025879,4147.692383,4203.589844,450.000000,4.000000,,,,0.000000,4.000000,4.000000,4.000000,4.000000,4.000000,,,,,,,,,,,,,,,,,,,,,,,,,,,,,,,,,,,,,
1577742231.342190,126.000000,0.000000,4208.717773,4322.563965,4152.307617,4120.000000,4177.948730,450.000000,4.000000,,,,0.000000,4.000000,4.000000,4.000000,4.000000,4.000000,63.000000,0.000000,0.331210,0.142578,0.876709,0.318359,0.546883,-0.578134,0.604990,-2.466761,-49.462963,56.858948,,,,,,,,,,,,,,,,,,,,,,,,,
1577742231.349987,127.000000,0.000000,4240.512695,4356.410156,4173.846191,4150.256348,4207.179688,236.000000,4.000000,,,,0.000000,4.000000,4.000000,4.000000,4.000000,4.000000,,,,,,,,,,,,,,,,,,,,,,,,,,,,,,,,,,,,,
1577742231.357884,0.000000,1.000000,4240.284668,4352.592773,4175.555664,4150.256348,4207.863281,450.000000,4.000000,,,,0.000000,4.000000,4.000000,4.000000,4.000000,4.000000,0.000000,1.000000,0.000000,0.142627,0.876758,0.318164,0.546688,-0.576474,0.000000,0.000000,0.000000,0.000000,,,,,,,,,,,,,,,,,,,,,,,,,
1577742231.365682,1.000000,1.000000,4240.057129,4348.774902,4177.265137,4150.256348,4208.546875,450.000000,4.000000,,,,0.000000,4.000000,4.000000,4.000000,4.000000,4.000000,,,,,,,,,,,,,,,,,,,,,,,,,,,,,,,,,,,,,
1577742231.373479,2.000000,1.000000,4239.829102,4344.957031,4178.974121,4150.256348,4209.230957,16204.000000,4.000000,,,,0.000000,4.000000,4.000000,4.000000,4.000000,4.000000,1.000000,1.000000,0.000000,0.142676,0.876807,0.317969,0.546493,-0.574813,0.000000,0.000000,0.000000,0.000000,,,,,,,,,,,,,,,,,,,,,,,,,
1577742231.381277,3.000000,1.000000,4239.601074,4341.139648,4180.683594,4150.256348,4209.914551,450.000000,4.000000,,,,0.000000,4.000000,4.000000,4.000000,4.000000,4.000000,,,,,,,,,,,,,,,,,,,,,,,,,,,,,,,,,,,,,
1577742231.389074,4.000000,1.000000,4239.373047,4337.321777,4182.393066,4150.256348,4210.598145,16243.000000,4.000000,,,,0.000000,4.000000,4.000000,4.000000,4.000000,4.000000,2.000000,1.000000,0.000000,0.142725,0.876855,0.317773,0.546297,-0.573153,0.000000,0.000000,0.000000,0.000000,,,,,,,,,,,,,,,,,,,,,,,,,
1577742231.396872,5.000000,1.000000,4239.145508,4333.504395,4184.102539,4150.256348,4211.282227,450.000000,4.000000,,,,0.000000,4.000000,4.000000,4.000000,4.000000,4.000000,,,,,,,,,,,,,,,,,,,,,,,,,,,,,,,,,,,,,
1577742231.404669,6.000000,1.000000,4238.917480,4329.686523,4185.812012,4150.256348,4211.965820,16142.000000,4.000000,,,,0.000000,4.000000,4.000000,4.000000,4.000000,4.000000,3.000000,1.000000,0.000000,0.142773,0.876904,0.317578,0.546102,-0.571493,0.000000,0.000000,0.000000,0.000000,,,,,,,,,,,,,,,,,,,,,,,,,
1577742231.412467,7.000000,1.000000,4238.689453,4325.869141,4187.521484,4150.256348,4212.649414,450.000000,4.000000,,,,0.000000,4.000000,4.000000,4.000000,4.000000,4.000000,,,,,,,,,,,,,,,,,,,,,,,,,,,,,,,,,,,,,
1577742231.420264,8.000000,0.000000,4238.461426,4322.051270,4189.230957,4150.256348,4213.333496,450.000000,4.000000,,,,0.000000,4.000000,4.000000,4.000000,4.000000,4.000000,4.000000,0.000000,0.331396,0.142822,0.876953,0.317383,0.545907,-0.569833,0.602548,-5.450114,-49.481342,57.453667,,,,,,,,,,,,,,,,,,,,,,,,,
1577742231.427961,9.000000,0.000000,4260.512695,4341.025879,4211.282227,4183.589844,4237.436035,16193.000000,4.000000,,,,0.000000,4.000000,4.000000,4.000000,4.000000,4.000000,,,,,,,,,,,,,,,,,,,,,,,,,,,,,,,,,,,,,
1577742231.435757,10.000000,0.000000,4232.820313,4339.487305,4187.692383,4162.051270,4209.743652,450.000000,4.000000,,,,0.000000,4.000000,4.000000,4.000000,4.000000,4.000000,5.000000,0.000000,0.331524,0.143066,0.876953,0.317139,0.556649,-0.554208,0.604013,-1.316181,-49.438068,57.809467,,,,,,,,,,,,,,,,,,,,,,,,,
1577742231.443554,11.000000,0.000000,4206.666504,4328.717773,4170.769043,4130.769043,4190.769043,16213.000000,4.000000,,,,0.000000,4.000000,4.000000,4.000000,4.000000,4.000000,,,,,,,,,,,,,6.854803,1.636353,6.178653,4.485548,4.003281,0.623117,0.545604,1.656008,1.797871,2.554657,4.216880,2.829848,4.778955,3.104893,3.358907,8.105663,2.528812,4.009247,4.912756,4.354534,7.747510,2.785822,5.382757,4.727704,4.350867
1577742231.451251,12.000000,0.000000,4222.051270,4334.871582,4185.128418,4145.128418,4207.179688,450.000000,4.000000,,,,0.000000,4.000000,4.000000,4.000000,4.000000,4.000000,6.000000,0.000000,0.331524,0.143066,0.876953,0.317139,0.551766,-0.562997,0.615732,-0.466778,-49.518753,58.189503,,,,,,,,,,,,,,,,,,,,,,,,,
1577742231.459047,13.000000,0.000000,4228.205078,4322.563965,4183.589844,4151.794922,4202.563965,450.000000,4.000000,,,,0.000000,4.000000,4.000000,4.000000,4.000000,4.000000,,,,,,,,,,,,,,,,,,,,,,,,,,,,,,,,,,,,,
1577742231.466744,14.000000,0.000000,4200.000000,4300.512695,4156.922852,4121.538574,4169.230957,450.000000,4.000000,,,,0.000000,4.000000,4.000000,4.000000,4.000000,4.000000,7.000000,0.000000,0.331111,0.143066,0.877197,0.316895,0.554208,-0.578134,0.603037,0.357499,-49.651184,58.411903,,,,,,,,,,,,,,,,,,,,,,,,,
1577742231.474540,15.000000,0.000000,4178.974121,4314.358887,4145.128418,4102.051270,4154.358887,16213.000000,4.000000,,,,0.000000,4.000000,4.000000,4.000000,4.000000,4.000000,,,,,,,,,,,,,,,,,,,,,,,,,,,,,,,,,,,,,
1577742231.482237,16.000000,0.000000,4210.256348,4360.000000,4176.922852,4140.512695,4186.153809,0.000000,4.000000,,,,0.000000,4.000000,4.000000,4.000000,4.000000,4.000000,8.000000,0.000000,0.331006,0.143311,0.877197,0.316895,0.566903,-0.561044,0.594247,1.099349,-49.770370,58.612064,,,,,,,,,,,,,,,,,,,,,,,,,
1577742231.490033,17.000000,0.000000,4272.820313,4384.102539,4228.205078,4210.769043,4243.589844,0.000000,4.000000,,,,0.000000,4.000000,4.000000,4.000000,4.000000,4.000000,,,,,,,,,,,,,,,,,,,,,,,,,,,,,,,,,,,,,
1577742231.497729,18.000000,0.000000,4264.615234,4340.512695,4215.897461,4202.051270,4240.512695,0.000000,4.000000,,,,0.000000,4.000000,4.000000,4.000000,4.000000,4.000000,9.000000,0.000000,0.331345,0.143066,0.877197,0.316650,0.559579,-0.561532,0.592782,1.767014,-49.758007,58.911842,,,,,,,,,,,,,,,,,,,,,,,,,
1577742231.505526,19.000000,0.000000,4205.128418,4304.615234,4164.102539,4140.000000,4185.128418,0.000000,4.000000,,,,0.000000,4.000000,4.000000,4.000000,4.000000,4.000000,,,,,,,,,,,,,,,,,,,,,,,,,,,,,,,,,,,,,
1577742231.513222,20.000000,0.000000,4207.179688,4343.589844,4173.333496,4142.563965,4182.563965,0.000000,4.000000,,,,0.000000,4.000000,4.000000,4.000000,4.000000,4.000000,10.000000,0.000000,0.331345,0.143066,0.877197,0.316650,0.564950,-0.559579,0.604013,2.188466,-49.746883,59.121826,,,,,,,,,,,,,,,,,,,,,,,,,
1577742231.521018,21.000000,0.000000,4249.230957,4379.487305,4214.871582,4182.051270,4222.563965,0.000000,4.000000,,,,0.000000,4.000000,4.000000,4.000000,4.000000,4.000000,,,,,,,,,,,,,,,,,,,,,,,,,,,,,,,,,,,,,
1577742231.528715,22.000000,0.000000,4244.102539,4351.282227,4207.179688,4176.922852,4216.410156,0.000000,4.000000,,,,0.000000,4.000000,4.000000,4.000000,4.000000,4.000000,11.000000,0.000000,0.331450,0.142822,0.877197,0.316650,0.557137,-0.551278,0.598154,-1.200595,-49.677055,59.310810,,,,,,,,,,,,,,,,,,,,,,,,,
1577742231.536511,23.000000,0.000000,4197.948730,4327.692383,4164.102539,4128.717773,4167.692383,0.000000,4.000000,,,,0.000000,4.000000,4.000000,4.000000,4.000000,4.000000,,,,,,,,,,,,,,,,,,,,,,,,,,,,,,,,,,,,,
1577742231.544207,24.000000,0.000000,4185.128418,4328.717773,4151.794922,4108.717773,4156.922852,0.000000,4.000000,,,,0.000000,4.000000,4.000000,4.000000,4.000000,4.000000,12.000000,0.000000,0.331450,0.142822,0.877197,0.316650,0.572763,-0.561532,0.606943,2.508387,-49.434765,57.506989,,,,,,,,,,,,,,,,,,,,,,,,,
1577742231.551904,25.000000,0.000000,4198.974121,4316.922852,4159.487305,4132.307617,4173.846191,0.000000,4.000000,,,,0.000000,4.000000,4.000000,4.000000,4.000000,4.000000,,,,,,,,,,,,,,,,,,,,,,,,,,,,,,,,,,,,,
1577742231.559701,26.000000,0.000000,4222.051270,4343.077148,4170.769043,4164.615234,4198.461426,0.000000,4.000000,,,,0.000000,4.000000,4.000000,4.000000,4.000000,4.000000,13.000000,0.000000,0.331683,0.142822,0.877197,0.316406,0.548837,-0.558602,0.606943,2.855702,-49.455963,57.857456,,,,,,,,,,,,,,,,,,,,,,,,,
1577742231.567397,27.000000,0.000000,4252.307617,4388.205078,4192.820313,4183.589844,4227.692383,0.000000,4.000000,,,,0.000000,4.000000,4.000000,4.000000,4.000000,4.000000,,,,,,,,,,,,,8.033694,1.822282,6.943365,4.111804,4.036903,0.571304,0.595048,1.746379,1.764014,2.356237,4.887284,3.049340,5.452875,2.725179,3.215715,10.594004,2.569883,4.357310,4.374771,4.220696,9.472931,2.772612,6.139908,4.175606,4.210209
1577742231.575194,28.000000,0.000000,4249.743652,4362.563965,4197.948730,4178.974121,4226.666504,0.000000,4.000000,,,,0.000000,4.000000,4.000000,4.000000,4.000000,4.000000,14.000000,0.000000,0.331037,0.142822,0.877441,0.316406,0.557626,-0.565438,0.603037,3.467362,-49.355412,58.172878,,,,,,,,,,,,,,,,,,,,,,,,,
1577742231.582890,29.000000,0.000000,4232.307617,4318.461426,4188.205078,4173.846191,4210.769043,0.000000,4.000000,,,,0.000000,4.000000,4.000000,4.000000,4.000000,4.000000,,,,,,,,,,,,,,,,,,,,,,,,,,,,,,,,,,,,,
1577742231.590687,30.000000,0.000000,4230.769043,4342.051270,4186.153809,4177.436035,4210.256348,0.000000,4.000000,,,,0.000000,4.000000,4.000000,4.000000,4.000000,4.000000,15.000000,0.000000,0.331270,0.142822,0.877441,0.316162,0.562020,-0.574228,0.602548,3.838410,-49.444359,56.602482,,,,,,,,,,,,,,,,,,,,,,,,,
1577742231.598383,31.000000,0.000000,4226.153809,4367.179688,4186.153809,4179.487305,4210.769043,0.000000,4.000000,,,,0.000000,4.000000,4.000000,4.000000,4.000000,4.000000,,,,,,,,,,,,,,,,,,,,,,,,,,,,,,,,,,,,,
1577742231.606180,32.000000,0.000000,4204.102539,4334.358887,4165.641113,4151.794922,4190.769043,0.000000,4.000000,,,,0.000000,4.000000,4.000000,4.000000,4.000000,4.000000,16.000000,0.000000,0.331165,0.143066,0.877441,0.316162,0.562020,-0.575692,0.614267,4.112538,-49.404785,55.129311,,,,,,,,,,,,,,,,,,,,,,,,,
1577742231.613877,33.000000,0.000000,4185.641113,4324.102539,4155.384766,4127.692383,4175.897461,0.000000,4.000000,,,,0.000000,4.000000,4.000000,4.000000,4.000000,4.000000,,,,,,,,,,,,,,,,,,,,,,,,,,,,,,,,,,,,,
1577742231.621673,34.000000,0.000000,4185.128418,4361.538574,4170.769043,4141.538574,4183.077148,0.000000,4.000000,,,,0.000000,4.000000,4.000000,4.000000,4.000000,4.000000,17.000000,0.000000,0.331398,0.143066,0.877441,0.315918,0.553231,-0.553231,0.608896,0.710516,-49.428982,55.896992,,,,,,,,,,,,,,,,,,,,,,,,,
1577742231.629370,35.000000,0.000000,4186.153809,4369.743652,4159.487305,4138.461426,4172.820313,0.000000,4.000000,,,,0.000000,4.000000,4.000000,4.000000,4.000000,4.000000,,,,,,,,,,,,,,,,,,,,,,,,,,,,,,,,,,,,,
1577742231.637166,36.000000,0.000000,4195.384766,4339.487305,4134.358887,4120.512695,4162.051270,0.000000,4.000000,,,,0.000000,4.000000,4.000000,4.000000,4.000000,4.000000,18.000000,0.000000,0.331270,0.142822,0.877441,0.316162,0.562020,-0.574228,0.602548,4.168571,-49.450760,54.613998,,,,,,,,,,,,,,,,,,,,,,,,,
1577742231.644963,37.000000,0.000000,4231.282227,4345.128418,4148.717773,4142.563965,4192.307617,0.000000,4.000000,,,,0.000000,4.000000,4.000000,4.000000,4.000000,4.000000,,,,,,,,,,,,,,,,,,,,,,,,,,,,,,,,,,,,,
1577742231.652659,38.000000,0.000000,4261.538574,4365.128418,4163.589844,4165.641113,4218.461426,0.000000,4.000000,,,,0.000000,4.000000,4.000000,4.000000,4.000000,4.000000,19.000000,0.000000,0.331398,0.143066,0.877441,0.315918,0.553231,-0.553231,0.608896,0.760946,-49.470360,55.433212,,,,,,,,,,,,,,,,,,,,,,,,,
1577742231.660356,39.000000,0.000000,4254.871582,4345.641113,4148.205078,4152.307617,4207.692383,0.000000,4.000000,,,,0.000000,4.000000,4.000000,4.000000,4.000000,4.000000,,,,,,,,,,,,,,,,,,,,,,,,,,,,,,,,,,,,,
1577742231.668153,40.000000,0.000000,4250.256348,4337.436035,4157.436035,4161.025879,4216.410156,0.000000,4.000000,,,,0.000000,4.000000,4.000000,4.000000,4.000000,4.000000,20.000000,0.000000,0.331398,0.143066,0.877441,0.315918,0.559091,-0.565438,0.619150,0.505405,-49.487999,56.050873,,,,,,,,,,,,,,,,,,,,,,,,,
1577742231.675950,41.000000,0.000000,4249.230957,4357.436035,4166.666504,4170.769043,4224.102539,0.000000,4.000000,,,,0.000000,4.000000,4.000000,4.000000,4.000000,4.000000,,,,,,,,,,,,,,,,,,,,,,,,,,,,,,,,,,,,,
1577742231.683747,42.000000,0.000000,4233.333496,4364.102539,4145.128418,4138.461426,4198.974121,0.000000,4.000000,,,,0.000000,4.000000,4.000000,4.000000,4.000000,4.000000,21.000000,0.000000,0.331292,0.143311,0.877441,0.315918,0.567391,-0.542977,0.602060,-2.655535,-49.444057,56.546955,,,,,,,,,,,,,,,,,,,,,,,,,
1577742231.691443,43.000000,0.000000,4225.128418,4355.897461,4139.487305,4123.589844,4190.769043,0.000000,4.000000,,,,0.000000,4.000000,4.000000,4.000000,4.000000,4.000000,,,,,,,,,,,,,8.545010,2.104036,7.573940,3.825981,4.305815,0.558034,0.687741,1.820655,1.674368,2.238497,5.386077,3.299690,6.162225,2.394185,3.250344,12.217845,2.809285,4.985941,3.920402,4.313884,10.315463,2.724930,6.782048,3.680878,4.304717
1577742231.699140,44.000000,0.000000,4224.615234,4344.102539,4151.794922,4140.000000,4202.051270,0.000000,4.000000,,,,0.000000,4.000000,4.000000,4.000000,4.000000,4.000000,22.000000,0.000000,0.331186,0.143555,0.877441,0.315918,0.555673,-0.555673,0.605966,1.079310,-49.404510,56.993427,,,,,,,,,,,,,,,,,,,,,,,,,
1577742231.706936,45.000000,0.000000,4208.717773,4334.358887,4138.461426,4141.538574,4190.256348,0.000000,4.000000,,,,0.000000,4.000000,4.000000,4.000000,4.000000,4.000000,,,,,,,,,,,,,,,,,,,,,,,,,,,,,,,,,,,,,
1577742231.714633,46.000000,0.000000,4185.641113,4331.794922,4111.282227,4109.743652,4158.974121,0.000000,4.000000,,,,0.000000,4.000000,4.000000,4.000000,4.000000,4.000000,23.000000,0.000000,0.331727,0.143799,0.877197,0.315918,0.573251,-0.556649,0.620127,4.620116,-49.368919,57.455067,,,,,,,,,,,,,,,,,,,,,,,,,
1577742231.722429,47.000000,0.000000,4196.410156,4356.922852,4127.692383,4111.794922,4170.256348,0.000000,4.000000,,,,0.000000,4.000000,4.000000,4.000000,4.000000,4.000000,,,,,,,,,,,,,,,,,,,,,,,,,,,,,,,,,,,,,
1577742231.730126,48.000000,0.000000,4249.743652,4376.922852,4174.358887,4172.307617,4230.256348,0.000000,4.000000,,,,0.000000,4.000000,4.000000,4.000000,4.000000,4.000000,24.000000,0.000000,0.331515,0.144287,0.877197,0.315918,0.559579,-0.562509,0.601572,7.806842,-49.336887,57.810726,,,,,,,,,,,,,,,,,,,,,,,,,
1577742231.737922,49.000000,0.000000,4280.512695,4358.974121,4185.641113,4198.461426,4252.307617,0.000000,4.000000,,,,0.000000,4.000000,4.000000,4.000000,4.000000,4.000000,,,,,,,,,,,,,,,,,,,,,,,,,,,,,,,,,,,,,
1577742231.745719,50.000000,0.000000,4261.025879,4350.256348,4172.307617,4170.769043,4225.641113,0.000000,4.000000,,,,0.000000,4.000000,4.000000,4.000000,4.000000,4.000000,25.000000,0.000000,0.331408,0.144531,0.877197,0.315918,0.562509,-0.570321,0.607919,7.504681,-49.308060,58.250454,,,,,,,,,,,,,,,,,,,,,,,,,
1577742231.753415,51.000000,0.000000,4234.871582,4374.358887,4163.077148,4149.230957,4206.153809,0.000000,4.000000,,,,0.000000,4.000000,4.000000,4.000000,4.000000,4.000000,,,,,,,,,,,,,,,,,,,,,,,,,,,,,,,,,,,,,
1577742231.761112,52.000000,0.000000,4232.307617,4376.922852,4161.025879,4151.282227,4212.307617,0.000000,4.000000,,,,0.000000,4.000000,4.000000,4.000000,4.000000,4.000000,26.000000,0.000000,0.331069,0.144775,0.877197,0.316162,0.560555,-0.576669,0.602548,7.591628,-49.521374,58.586391,,,,,,,,,,,,,,,,,,,,,,,,,
1577742231.768909,53.000000,0.000000,4245.128418,4354.358887,4172.307617,4170.256348,4228.717773,0.000000,4.000000,,,,0.000000,4.000000,4.000000,4.000000,4.000000,4.000000,,,,,,,,,,,,,,,,,,,,,,,,,,,,,,,,,,,,,
1577742231.776705,54.000000,0.000000,4241.538574,4353.846191,4166.153809,4167.179688,4224.102539,0.000000,4.000000,,,,0.000000,4.000000,4.000000,4.000000,4.000000,4.000000,27.000000,0.000000,0.330962,0.145020,0.877197,0.316162,0.547372,-0.578622,0.599130,3.722066,-49.474098,58.769104,,,,,,,,,,,,,,,,,,,,,,,,,
1577742231.784401,55.000000,0.000000,4227.179688,4374.871582,4144.615234,4138.974121,4207.692383,0.000000,4.000000,,,,0.000000,4.000000,4.000000,4.000000,4.000000,4.000000,,,,,,,,,,,,,,,,,,,,,,,,,,,,,,,,,,,,,
1577742231.792098,56.000000,0.000000,4226.666504,4366.666504,4140.000000,4138.461426,4209.230957,0.000000,4.000000,,,,0.000000,4.000000,4.000000,4.000000,4.000000,4.000000,28.000000,0.000000,0.331088,0.145264,0.877197,0.315918,0.549813,-0.592782,0.594736,6.998597,-49.670811,58.933544,,,,,,,,,,,,,,,,,,,,,,,,,
1577742231.799895,57.000000,0.000000,4224.102539,4347.179688,4131.794922,4143.077148,4214.358887,0.000000,4.000000,,,,0.000000,4.000000,4.000000,4.000000,4.000000,4.000000,,,,,,,,,,,,,,,,,,,,,,,,,,,,,,,,,,,,,
1577742231.807591,58.000000,0.000000,4236.922852,4363.589844,4136.922852,4153.333496,4228.717773,0.000000,4.000000,,,,0.000000,4.000000,4.000000,4.000000,4.000000,4.000000,29.000000,0.000000,0.331321,0.145264,0.877197,0.315674,0.560555,-0.569833,0.589853,7.076337,-49.548775,59.201172,,,,,,,,,,,,,,,,,,,,,,,,,
1577742231.815388,59.000000,0.000000,4284.102539,4387.179688,4180.000000,4201.538574,4268.205078,0.000000,4.000000,,,,0.000000,4.000000,4.000000,4.000000,4.000000,4.000000,,,,,,,,,,,,,8.177291,2.268838,7.980678,3.713077,4.731336,0.602061,0.791406,1.895905,1.592940,2.222374,5.384752,3.463703,6.750908,2.203828,3.418139,12.414301,3.111100,5.798840,3.677065,4.598221,9.932626,2.590285,7.215816,3.395998,4.578117
1577742231.823084,60.000000,0.000000,4306.153809,4384.615234,4190.256348,4224.615234,4286.666504,0.000000,4.000000,,,,0.000000,4.000000,4.000000,4.000000,4.000000,4.000000,30.000000,0.000000,0.331214,0.145508,0.877197,0.315674,0.562509,-0.565927,0.604990,3.258304,-49.498756,59.322407,,,,,,,,,,,,,,,,,,,,,,,,,
1577742231.830881,61.000000,0.000000,4263.589844,4371.282227,4143.589844,4170.769043,4243.077148,0.000000,4.000000,,,,0.000000,4.000000,4.000000,4.000000,4.000000,4.000000,,,,,,,,,,,,,,,,,,,,,,,,,,,,,,,,,,,,,
1577742231.838578,62.000000,0.000000,4238.974121,4364.615234,4123.077148,4142.563965,4212.820313,0.000000,4.000000,,,,0.000000,4.000000,4.000000,4.000000,4.000000,4.000000,31.000000,0.000000,0.331339,0.145752,0.877197,0.315430,0.559579,-0.561532,0.589853,3.769889,-49.513557,57.577244,,,,,,,,,,,,,,,,,,,,,,,,,
1577742231.846274,63.000000,0.000000,4271.282227,4372.820313,4140.000000,4178.461426,4238.974121,0.000000,4.000000,,,,0.000000,4.000000,4.000000,4.000000,4.000000,4.000000,,,,,,,,,,,,,,,,,,,,,,,,,,,,,,,,,,,,,
1577742231.854071,64.000000,0.000000,4273.333496,4381.538574,4139.487305,4184.102539,4238.974121,450.000000,4.000000,,,,0.000000,4.000000,4.000000,4.000000,4.000000,4.000000,32.000000,0.000000,0.331231,0.145996,0.877197,0.315430,0.556161,-0.565927,0.604013,0.282501,-49.586689,57.920685,,,,,,,,,,,,,,,,,,,,,,,,,
1577742231.861867,65.000000,0.000000,4239.487305,4375.897461,4131.794922,4160.512695,4205.641113,450.000000,4.000000,,,,0.000000,4.000000,4.000000,4.000000,4.000000,4.000000,,,,,,,,,,,,,,,,,,,,,,,,,,,,,,,,,,,,,
1577742231.869564,66.000000,0.000000,4224.615234,4368.717773,4118.974121,4146.153809,4187.692383,16211.000000,4.000000,,,,0.000000,4.000000,4.000000,4.000000,4.000000,4.000000,33.000000,0.000000,0.330709,0.146240,0.877441,0.315186,0.550301,-0.568368,0.604990,3.962804,-49.473068,58.349415,,,,,,,,,,,,,,,,,,,,,,,,,
1577742231.877360,67.000000,0.000000,4205.641113,4350.256348,4077.435791,4119.487305,4162.563965,450.000000,4.000000,,,,0.000000,4.000000,4.000000,4.000000,4.000000,4.000000,,,,,,,,,,,,,,,,,,,,,,,,,,,,,,,,,,,,,
1577742231.885057,68.000000,0.000000,4185.128418,4326.153809,4062.051270,4105.128418,4141.538574,16248.000000,4.000000,,,,0.000000,4.000000,4.000000,4.000000,4.000000,4.000000,34.000000,0.000000,0.330941,0.146240,0.877441,0.314941,0.552254,-0.579110,0.603037,7.035814,-49.370804,58.735271,,,,,,,,,,,,,,,,,,,,,,,,,
1577742231.892853,69.000000,0.000000,4217.436035,4360.000000,4102.563965,4138.974121,4173.846191,450.000000,4.000000,,,,0.000000,4.000000,4.000000,4.000000,4.000000,4.000000,,,,,,,,,,,,,,,,,,,,,,,,,,,,,,,,,,,,,
1577742231.900549,70.000000,0.000000,4258.974121,4411.794922,4132.307617,4176.922852,4216.410156,16144.000000,4.000000,,,,0.000000,4.000000,4.000000,4.000000,4.000000,4.000000,35.000000,0.000000,0.330418,0.146484,0.877686,0.314697,0.551278,-0.583993,0.602060,7.109833,-49.458214,58.843281,,,,,,,,,,,,,,,,,,,,,,,,,
1577742231.908346,71.000000,0.000000,4247.692383,4377.948730,4120.512695,4174.358887,4210.256348,450.000000,4.000000,,,,0.000000,4.000000,4.000000,4.000000,4.000000,4.000000,,,,,,,,,,,,,,,,,,,,,,,,,,,,,,,,,,,,,
1577742231.916042,72.000000,0.000000,4225.128418,4337.948730,4106.153809,4153.846191,4190.769043,450.000000,4.000000,,,,0.000000,4.000000,4.000000,4.000000,4.000000,4.000000,36.000000,0.000000,0.330542,0.146729,0.877686,0.314453,0.547372,-0.580575,0.596689,7.116634,-49.357437,59.119934,,,,,,,,,,,,,,,,,,,,,,,,,
1577742231.923838,73.000000,0.000000,4224.615234,4376.410156,4108.717773,4146.153809,4191.794922,16195.000000,4.000000,,,,0.000000,4.000000,4.000000,4.000000,4.000000,4.000000,,,,,,,,,,,,,,,,,,,,,,,,,,,,,,,,,,,,,
1577742231.931535,74.000000,0.000000,4227.179688,4389.230957,4115.897461,4156.922852,4195.897461,450.000000,4.000000,,,,0.000000,4.000000,4.000000,4.000000,4.000000,4.000000,37.000000,0.000000,0.330126,0.146729,0.877930,0.314209,0.551278,-0.575204,0.603037,6.105894,-49.266739,59.309109,,,,,,,,,,,,,,,,,,,,,,,,,
1577742231.939331,75.000000,0.000000,4220.000000,4356.922852,4103.589844,4151.794922,4191.282227,16208.000000,4.000000,,,,0.000000,4.000000,4.000000,4.000000,4.000000,4.000000,,,,,,,,,,,,,7.067627,2.411401,8.361747,3.770462,5.163377,0.699326,0.868363,2.007765,1.602768,2.317864,4.841102,3.512723,7.177348,2.189388,3.630250,11.021780,3.467315,6.829170,3.649913,4.976406,8.405523,2.500447,7.582561,3.362771,4.904548
1577742231.947027,76.000000,0.000000,4200.000000,4370.769043,4073.846191,4118.974121,4176.922852,450.000000,4.000000,,,,0.000000,4.000000,4.000000,4.000000,4.000000,4.000000,38.000000,0.000000,0.330249,0.146973,0.877930,0.313965,0.543954,-0.582528,0.598154,8.964596,-49.005665,57.565273,,,,,,,,,,,,,,,,,,,,,,,,,
1577742231.954824,77.000000,0.000000,4191.282227,4390.769043,4066.153809,4116.410156,4168.717773,450.000000,4.000000,,,,0.000000,4.000000,4.000000,4.000000,4.000000,4.000000,,,,,,,,,,,,,,,,,,,,,,,,,,,,,,,,,,,,,
1577742231.962520,78.000000,0.000000,4216.410156,4367.179688,4089.230713,4150.256348,4185.641113,450.000000,4.000000,,,,0.000000,4.000000,4.000000,4.000000,4.000000,4.000000,39.000000,0.000000,0.330481,0.146973,0.877930,0.313721,0.552254,-0.568368,0.609384,8.845736,-48.890327,57.909912,,,,,,,,,,,,,,,,,,,,,,,,,
1577742231.970217,79.000000,0.000000,4214.358887,4355.897461,4083.076904,4140.000000,4174.358887,16208.000000,4.000000,,,,0.000000,4.000000,4.000000,4.000000,4.000000,4.000000,,,,,,,,,,,,,,,,,,,,,,,,,,,,,,,,,,,,,
1577742231.978013,80.000000,0.000000,4184.102539,4385.641113,4060.512939,4105.641113,4141.538574,450.000000,4.000000,,,,0.000000,4.000000,4.000000,4.000000,4.000000,4.000000,40.000000,0.000000,0.330064,0.146973,0.878174,0.313477,0.542977,-0.579599,0.596689,11.609900,-48.846340,58.279903,,,,,,,,,,,,,,,,,,,,,,,,,
1577742231.985710,81.000000,0.000000,4230.769043,4412.820313,4106.666504,4150.769043,4184.102539,450.000000,4.000000,,,,0.000000,4.000000,4.000000,4.000000,4.000000,4.000000,,,,,,,,,,,,,,,,,,,,,,,,,,,,,,,,,,,,,
1577742231.993506,82.000000,0.000000,4283.077148,4393.846191,4154.871582,4198.461426,4237.948730,450.000000,4.000000,,,,0.000000,4.000000,4.000000,4.000000,4.000000,4.000000,41.000000,0.000000,0.330296,0.146973,0.878174,0.313232,0.548837,-0.566415,0.604990,11.226509,-48.866566,58.553082,,,,,,,,,,,,,,,,,,,,,,,,,
1577742232.001203,83.000000,0.000000,4240.512695,4364.102539,4116.922852,4153.333496,4204.102539,16208.000000,4.000000,,,,0.000000,4.000000,4.000000,4.000000,4.000000,4.000000,,,,,,,,,,,,,,,,,,,,,,,,,,,,,,,,,,,,,
1577742232.009000,84.000000,0.000000,4203.589844,4378.461426,4081.538574,4118.974121,4164.102539,450.000000,4.000000,,,,0.000000,4.000000,4.000000,4.000000,4.000000,4.000000,42.000000,0.000000,0.329986,0.146729,0.878418,0.312988,0.555673,-0.564462,0.604013,13.752596,-48.884769,56.884850,,,,,,,,,,,,,,,,,,,,,,,,,
1577742232.016696,85.000000,0.000000,4223.589844,4391.794922,4096.922852,4131.282227,4174.871582,450.000000,4.000000,,,,0.000000,4.000000,4.000000,4.000000,4.000000,4.000000,,,,,,,,,,,,,,,,,,,,,,,,,,,,,,,,,,,,,
1577742232.024493,86.000000,0.000000,4233.846191,4381.025879,4100.512695,4126.153809,4186.666504,450.000000,4.000000,,,,0.000000,4.000000,4.000000,4.000000,4.000000,4.000000,43.000000,0.000000,0.329986,0.146729,0.878418,0.312988,0.572274,-0.556161,0.608896,16.026073,-48.841335,57.357346,,,,,,,,,,,,,,,,,,,,,,,,,
1577742232.032189,87.000000,0.000000,4241.538574,4391.282227,4095.897461,4135.384766,4190.256348,16208.000000,4.000000,,,,0.000000,4.000000,4.000000,4.000000,4.000000,4.000000,,,,,,,,,,,,,,,,,,,,,,,,,,,,,,,,,,,,,
1577742232.039986,88.000000,0.000000,4244.102539,4386.153809,4098.974121,4151.282227,4183.589844,450.000000,4.000000,,,,0.000000,4.000000,4.000000,4.000000,4.000000,4.000000,44.000000,0.000000,0.330095,0.146484,0.878418,0.312988,0.552254,-0.559579,0.607919,15.081435,-48.802246,57.722778,,,,,,,,,,,,,,,,,,,,,,,,,
1577742232.047683,89.000000,0.000000,4213.333496,4360.512695,4078.974365,4121.538574,4155.384766,450.000000,4.000000,,,,0.000000,4.000000,4.000000,4.000000,4.000000,4.000000,,,,,,,,,,,,,,,,,,,,,,,,,,,,,,,,,,,,,
1577742232.055479,90.000000,0.000000,4206.153809,4378.974121,4066.153809,4098.974121,4149.743652,450.000000,4.000000,,,,0.000000,4.000000,4.000000,4.000000,4.000000,4.000000,45.000000,0.000000,0.330095,0.146484,0.878418,0.312988,0.550790,-0.555184,0.624033,14.291076,-48.826881,58.111485,,,,,,,,,,,,,,,,,,,,,,,,,
1577742232.063176,91.000000,0.000000,4238.974121,4396.410156,4092.307617,4127.692383,4177.436035,16208.000000,4.000000,,,,0.000000,4.000000,4.000000,4.000000,4.000000,4.000000,,,,,,,,,,,,,5.590434,2.878193,9.004591,3.902551,5.423218,0.830509,0.908374,2.159579,1.751274,2.498359,3.976685,3.557640,7.476671,2.311060,3.773749,8.526896,4.003431,8.123960,3.736923,5.306691,6.280219,2.706570,8.102181,3.497647,5.120588
1577742232.070972,92.000000,0.000000,4252.820313,4380.000000,4117.948730,4152.820313,4194.871582,450.000000,4.000000,,,,0.000000,4.000000,4.000000,4.000000,4.000000,4.000000,46.000000,0.000000,0.330095,0.146484,0.878418,0.312988,0.564462,-0.564462,0.607919,11.904922,-48.789238,58.341686,,,,,,,,,,,,,,,,,,,,,,,,,
1577742232.078669,93.000000,0.000000,4269.743652,4398.461426,4134.871582,4164.615234,4215.384766,450.000000,4.000000,,,,0.000000,4.000000,4.000000,4.000000,4.000000,4.000000,,,,,,,,,,,,,,,,,,,,,,,,,,,,,,,,,,,,,
1577742232.086465,94.000000,0.000000,4311.282227,4426.666504,4161.025879,4190.256348,4250.769043,450.000000,4.000000,,,,0.000000,4.000000,4.000000,4.000000,4.000000,4.000000,47.000000,0.000000,0.330095,0.146484,0.878418,0.312988,0.552254,-0.559579,0.607919,11.432215,-48.815174,56.754410,,,,,,,,,,,,,,,,,,,,,,,,,
1577742232.094161,95.000000,0.000000,4287.692383,4396.922852,4157.436035,4180.000000,4235.384766,16208.000000,4.000000,,,,0.000000,4.000000,4.000000,4.000000,4.000000,4.000000,,,,,,,,,,,,,,,,,,,,,,,,,,,,,,,,,,,,,
1577742232.101858,96.000000,0.000000,4241.025879,4367.692383,4137.948730,4155.897461,4206.153809,450.000000,4.000000,,,,0.000000,4.000000,4.000000,4.000000,4.000000,4.000000,48.000000,0.000000,0.330095,0.146484,0.878418,0.312988,0.564462,-0.564462,0.607919,9.331947,-48.778702,57.120319,,,,,,,,,,,,,,,,,,,,,,,,,
1577742232.109654,97.000000,0.000000,4274.358887,4374.358887,4154.871582,4185.128418,4239.487305,450.000000,4.000000,,,,0.000000,4.000000,4.000000,4.000000,4.000000,4.000000,,,,,,,,,,,,,,,,,,,,,,,,,,,,,,,,,,,,,
1577742232.117351,98.000000,0.000000,4290.256348,4367.692383,4148.717773,4190.256348,4245.641113,450.000000,4.000000,,,,0.000000,4.000000,4.000000,4.000000,4.000000,4.000000,49.000000,0.000000,0.329553,0.146240,0.878662,0.312988,0.559091,-0.543954,0.612802,9.116537,-48.805691,55.655178,,,,,,,,,,,,,,,,,,,,,,,,,
1577742232.125148,99.000000,0.000000,4235.897461,4365.641113,4103.077148,4137.948730,4192.820313,16208.000000,4.000000,,,,0.000000,4.000000,4.000000,4.000000,4.000000,4.000000,,,,,,,,,,,,,,,,,,,,,,,,,,,,,,,,,,,,,
1577742232.132844,100.000000,0.000000,4227.692383,4394.871582,4108.205078,4145.128418,4196.922852,450.000000,4.000000,,,,0.000000,4.000000,4.000000,4.000000,4.000000,4.000000,50.000000,0.000000,0.329553,0.146240,0.878662,0.312988,0.550790,-0.547860,0.617197,11.733990,-48.829983,54.396370,,,,,,,,,,,,,,,,,,,,,,,,,
1577742232.140641,101.000000,0.000000,4258.974121,4400.512695,4145.641113,4191.794922,4231.794922,450.000000,4.000000,,,,0.000000,4.000000,4.000000,4.000000,4.000000,4.000000,,,,,,,,,,,,,,,,,,,,,,,,,,,,,,,,,,,,,
1577742232.148337,102.000000,0.000000,4243.589844,4364.615234,4136.922852,4169.230957,4207.179688,450.000000,4.000000,,,,0.000000,4.000000,4.000000,4.000000,4.000000,4.000000,51.000000,0.000000,0.329444,0.146484,0.878662,0.312988,0.558602,-0.560067,0.612314,10.321329,-48.911659,55.117714,,,,,,,,,,,,,,,,,,,,,,,,,
1577742232.156134,103.000000,0.000000,4249.230957,4368.717773,4131.794922,4158.974121,4207.179688,16208.000000,4.000000,,,,0.000000,4.000000,4.000000,4.000000,4.000000,4.000000,,,,,,,,,,,,,,,,,,,,,,,,,,,,,,,,,,,,,
1577742232.163831,104.000000,0.000000,4294.358887,4404.615234,4162.563965,4214.871582,4257.948730,450.000000,4.000000,,,,0.000000,4.000000,4.000000,4.000000,4.000000,4.000000,52.000000,0.000000,0.329444,0.146484,0.878662,0.312988,0.560555,-0.557626,0.623056,9.947165,-48.925354,55.826740,,,,,,,,,,,,,,,,,,,,,,,,,
1577742232.171627,105.000000,0.000000,4278.974121,4383.589844,4153.333496,4216.922852,4247.692383,450.000000,4.000000,,,,0.000000,4.000000,4.000000,4.000000,4.000000,4.000000,,,,,,,,,,,,,,,,,,,,,,,,,,,,,,,,,,,,,
1577742232.179324,106.000000,0.000000,4254.358887,4371.794922,4140.000000,4185.128418,4223.077148,450.000000,4.000000,,,,0.000000,4.000000,4.000000,4.000000,4.000000,4.000000,53.000000,0.000000,0.329444,0.146484,0.878662,0.312988,0.554208,-0.579599,0.614267,9.670234,-48.997494,54.490959,,,,,,,,,,,,,,,,,,,,,,,,,
1577742232.187120,107.000000,0.000000,4272.307617,4414.358887,4153.846191,4196.410156,4237.436035,16208.000000,4.000000,,,,0.000000,4.000000,4.000000,4.000000,4.000000,4.000000,,,,,,,,,,,,,4.272914,4.117379,10.074115,4.028510,5.385997,0.972267,0.922389,2.308079,2.027795,2.713827,3.091224,3.834871,7.731335,2.526679,3.765717,5.761357,4.934139,9.616069,3.842226,5.463490,4.353989,3.556702,8.917877,3.696260,5.098715
1577742232.194817,108.000000,0.000000,4241.538574,4391.282227,4120.000000,4171.282227,4200.512695,450.000000,4.000000,,,,0.000000,4.000000,4.000000,4.000000,4.000000,4.000000,54.000000,0.000000,0.329568,0.146729,0.878662,0.312744,0.552743,-0.574228,0.615244,9.420995,-48.882973,53.169121,,,,,,,,,,,,,,,,,,,,,,,,,
1577742232.202613,109.000000,0.000000,4209.230957,4330.769043,4098.461426,4134.871582,4166.153809,450.000000,4.000000,,,,0.000000,4.000000,4.000000,4.000000,4.000000,4.000000,,,,,,,,,,,,,,,,,,,,,,,,,,,,,,,,,,,,,
1577742232.210410,110.000000,0.000000,4261.538574,4368.717773,4154.871582,4179.487305,4225.128418,450.000000,4.000000,,,,0.000000,4.000000,4.000000,4.000000,4.000000,4.000000,55.000000,0.000000,0.329568,0.146729,0.878662,0.312744,0.554696,-0.562997,0.618173,9.316310,-48.899536,52.218731,,,,,,,,,,,,,,,,,,,,,,,,,
1577742232.218106,111.000000,0.000000,4305.128418,4428.205078,4193.846191,4232.307617,4278.461426,16208.000000,4.000000,,,,0.000000,4.000000,4.000000,4.000000,4.000000,4.000000,,,,,,,,,,,,,,,,,,,,,,,,,,,,,,,,,,,,,
1577742232.225803,112.000000,0.000000,4273.846191,4388.205078,4168.717773,4212.820313,4253.333496,450.000000,4.000000,,,,0.000000,4.000000,4.000000,4.000000,4.000000,4.000000,56.000000,0.000000,0.329568,0.146729,0.878662,0.312744,0.549813,-0.553231,0.615732,8.982833,-48.974258,53.098026,,,,,,,,,,,,,,,,,,,,,,,,,
1577742232.233599,113.000000,0.000000,4235.384766,4342.051270,4137.948730,4168.205078,4214.871582,450.000000,4.000000,,,,0.000000,4.000000,4.000000,4.000000,4.000000,4.000000,,,,,,,,,,,,,,,,,,,,,,,,,,,,,,,,,,,,,
1577742232.241296,114.000000,0.000000,4240.000000,4376.410156,4132.307617,4166.666504,4217.948730,450.000000,4.000000,,,,0.000000,4.000000,4.000000,4.000000,4.000000,4.000000,57.000000,0.000000,0.329799,0.146729,0.878662,0.312500,0.549813,-0.557626,0.609873,8.981780,-49.041508,53.709946,,,,,,,,,,,,,,,,,,,,,,,,,
1577742232.248993,115.000000,0.000000,4252.307617,4408.717773,4134.358887,4185.641113,4232.820313,16208.000000,4.000000,,,,0.000000,4.000000,4.000000,4.000000,4.000000,4.000000,,,,,,,,,,,,,,,,,,,,,,,,,,,,,,,,,,,,,
1577742232.256789,116.000000,0.000000,4233.846191,4380.512695,4121.025879,4168.205078,4213.846191,450.000000,4.000000,,,,0.000000,4.000000,4.000000,4.000000,4.000000,4.000000,58.000000,0.000000,0.329148,0.146729,0.878906,0.312500,0.551766,-0.545907,0.617685,4.913388,-49.042217,54.440117,,,,,,,,,,,,,,,,,,,,,,,,,
1577742232.264486,117.000000,0.000000,4196.410156,4351.794922,4091.281982,4117.436035,4170.769043,450.000000,4.000000,,,,0.000000,4.000000,4.000000,4.000000,4.000000,4.000000,,,,,,,,,,,,,,,,,,,,,,,,,,,,,,,,,,,,,
1577742232.272282,118.000000,0.000000,4204.102539,4372.820313,4102.051270,4115.897461,4181.538574,450.000000,4.000000,,,,0.000000,4.000000,4.000000,4.000000,4.000000,4.000000,59.000000,0.000000,0.329257,0.146484,0.878906,0.312500,0.554208,-0.556161,0.597177,5.199648,-48.983040,55.037457,,,,,,,,,,,,,,,,,,,,,,,,,
1577742232.279979,119.000000,0.000000,4250.256348,4395.897461,4145.128418,4168.205078,4230.769043,16208.000000,4.000000,,,,0.000000,4.000000,4.000000,4.000000,4.000000,4.000000,,,,,,,,,,,,,,,,,,,,,,,,,,,,,,,,,,,,,
1577742232.287776,120.000000,0.000000,4266.666504,4385.128418,4154.871582,4189.743652,4242.051270,450.000000,4.000000,,,,0.000000,4.000000,4.000000,4.000000,4.000000,4.000000,60.000000,0.000000,0.329676,0.146484,0.878662,0.312744,0.551766,-0.557626,0.605966,5.337653,-48.989597,55.754509,,,,,,,,,,,,,,,,,,,,,,,,,
1577742232.295572,121.000000,0.000000,4269.743652,4376.922852,4155.384766,4181.538574,4238.461426,450.000000,4.000000,,,,0.000000,4.000000,4.000000,4.000000,4.000000,4.000000,,,,,,,,,,,,,,,,,,,,,,,,,,,,,,,,,,,,,
1577742232.303268,122.000000,0.000000,4274.358887,4374.358887,4160.000000,4178.974121,4242.563965,450.000000,4.000000,,,,0.000000,4.000000,4.000000,4.000000,4.000000,4.000000,61.000000,0.000000,0.329025,0.146484,0.878906,0.312744,0.554208,-0.561044,0.612802,5.521672,-49.055313,56.340042,,,,,,,,,,,,,,,,,,,,,,,,,
1577742232.311065,123.000000,0.000000,4266.153809,4369.230957,4150.256348,4176.922852,4236.410156,16208.000000,4.000000,,,,0.000000,4.000000,4.000000,4.000000,4.000000,4.000000,,,,,,,,,,,,,3.440521,6.339836,11.417867,4.147436,5.041113,1.095784,0.943677,2.389078,2.369547,2.911219,2.494447,4.575217,7.952912,2.823183,3.589275,3.493628,6.370997,11.029156,3.952845,5.389153,3.236874,5.247626,9.898794,3.918773,4.809780
1577742232.318761,124.000000,0.000000,4267.179688,4383.589844,4152.307617,4183.589844,4240.512695,450.000000,4.000000,,,,0.000000,4.000000,4.000000,4.000000,4.000000,4.000000,62.000000,0.000000,0.329444,0.146484,0.878662,0.312988,0.557626,-0.555184,0.608896,1.799290,-48.994823,56.926834,,,,,,,,,,,,,,,,,,,,,,,,,
1577742232.326557,125.000000,0.000000,4265.128418,4371.282227,4152.307617,4173.846191,4232.820313,450.000000,4.000000,,,,0.000000,4.000000,4.000000,4.000000,4.000000,4.000000,,,,,,,,,,,,,,,,,,,,,,,,,,,,,,,,,,,,,
1577742232.334254,126.000000,0.000000,4236.410156,4334.358887,4120.512695,4126.153809,4188.205078,450.000000,4.000000,,,,0.000000,4.000000,4.000000,4.000000,4.000000,4.000000,63.000000,0.000000,0.329444,0.146484,0.878662,0.312988,0.557137,-0.566903,0.600595,2.396961,-49.060017,57.275505,,,,,,,,,,,,,,,,,,,,,,,,,
1577742232.342050,127.000000,0.000000,4231.282227,4371.794922,4110.769043,4120.000000,4175.897461,236.000000,4.000000,,,,0.000000,4.000000,4.000000,4.000000,4.000000,4.000000,,,,,,,,,,,,,,,,,,,,,,,,,,,,,,,,,,,,,
1577742232.349747,0.000000,0.000000,4270.256348,4420.512695,4149.743652,4177.436035,4222.563965,450.000000,4.000000,,,,0.000000,4.000000,4.000000,4.000000,4.000000,4.000000,0.000000,0.000000,0.329321,0.146240,0.878662,0.313232,0.552254,-0.561532,0.612802,1.977819,-48.999062,57.649120,,,,,,,,,,,,,,,,,,,,,,,,,
1577742232.357443,1.000000,0.000000,4296.922852,4378.461426,4180.000000,4209.230957,4262.051270,450.000000,4.000000,,,,0.000000,4.000000,4.000000,4.000000,4.000000,4.000000,,,,,,,,,,,,,,,,,,,,,,,,,,,,,,,,,,,,,
1577742232.365240,2.000000,0.000000,4287.179688,4352.820313,4167.179688,4189.230957,4253.846191,16205.000000,4.000000,,,,0.000000,4.000000,4.000000,4.000000,4.000000,4.000000,1.000000,0.000000,0.329321,0.146240,0.878662,0.313232,0.541024,-0.563973,0.606455,2.557637,-48.884384,58.045193,,,,,,,,,,,,,,,,,,,,,,,,,
1577742232.372936,3.000000,0.000000,4269.743652,4386.666504,4140.000000,4162.563965,4229.743652,450.000000,4.000000,,,,0.000000,4.000000,4.000000,4.000000,4.000000,4.000000,,,,,,,,,,,,,,,,,,,,,,,,,,,,,,,,,,,,,
1577742232.380733,4.000000,0.000000,4264.615234,4372.307617,4130.256348,4157.436035,4221.538574,16244.000000,4.000000,,,,0.000000,4.000000,4.000000,4.000000,4.000000,4.000000,2.000000,0.000000,0.329088,0.146240,0.878662,0.313477,0.553719,-0.569345,0.608896,-0.868341,-48.840992,56.308117,,,,,,,,,,,,,,,,,,,,,,,,,
1577742232.388429,5.000000,0.000000,4258.974121,4342.051270,4134.358887,4155.384766,4216.410156,450.000000,4.000000,,,,0.000000,4.000000,4.000000,4.000000,4.000000,4.000000,,,,,,,,,,,,,,,,,,,,,,,,,,,,,,,,,,,,,
1577742232.396126,6.000000,0.000000,4238.974121,4370.256348,4121.538574,4131.282227,4196.410156,16143.000000,4.000000,,,,0.000000,4.000000,4.000000,4.000000,4.000000,4.000000,3.000000,0.000000,0.329088,0.146240,0.878662,0.313477,0.549325,-0.579599,0.607919,-0.243169,-49.041199,56.838287,,,,,,,,,,,,,,,,,,,,,,,,,
1577742232.403923,7.000000,0.000000,4228.717773,4392.820313,4106.666504,4121.538574,4187.692383,450.000000,4.000000,,,,0.000000,4.000000,4.000000,4.000000,4.000000,4.000000,,,,,,,,,,,,,,,,,,,,,,,,,,,,,,,,,,,,,
1577742232.411719,8.000000,0.000000,4251.794922,4362.051270,4118.974121,4153.846191,4208.205078,450.000000,4.000000,,,,0.000000,4.000000,4.000000,4.000000,4.000000,4.000000,4.000000,0.000000,0.328856,0.146240,0.878662,0.313721,0.554208,-0.564462,0.615732,3.310255,-49.041939,55.341534,,,,,,,,,,,,,,,,,,,,,,,,,
1577742232.419416,9.000000,0.000000,4266.666504,4351.282227,4128.717773,4162.051270,4215.897461,16197.000000,4.000000,,,,0.000000,4.000000,4.000000,4.000000,4.000000,4.000000,,,,,,,,,,,,,,,,,,,,,,,,,,,,,,,,,,,,,
1577742232.427212,10.000000,0.000000,4264.615234,4376.922852,4129.743652,4146.153809,4212.820313,450.000000,4.000000,,,,0.000000,4.000000,4.000000,4.000000,4.000000,4.000000,5.000000,0.000000,0.328856,0.146240,0.878662,0.313721,0.535653,-0.567391,0.617685,3.756829,-49.042603,55.968365,,,,,,,,,,,,,,,,,,,,,,,,,
1577742232.434909,11.000000,0.000000,4274.358887,4382.563965,4134.358887,4156.410156,4223.077148,16206.000000,4.000000,,,,0.000000,4.000000,4.000000,4.000000,4.000000,4.000000,,,,,,,,,,,,,3.164478,9.181639,12.704559,4.332488,4.513151,1.175569,1.011541,2.357725,2.692642,3.070261,2.269023,5.732963,8.154157,3.197986,3.309632,2.184278,8.067137,12.063438,4.125801,5.131013,3.165757,7.507129,10.802966,4.200103,4.351886
1577742232.442705,12.000000,0.000000,4270.256348,4371.282227,4122.563965,4157.436035,4215.897461,450.000000,4.000000,,,,0.000000,4.000000,4.000000,4.000000,4.000000,4.000000,6.000000,0.000000,0.329507,0.146240,0.878418,0.313721,0.547860,-0.566903,0.611337,0.629639,-49.103020,56.412880,,,,,,,,,,,,,,,,,,,,,,,,,
1577742232.450402,13.000000,0.000000,4262.563965,4374.358887,4109.230957,4150.769043,4211.282227,450.000000,4.000000,,,,0.000000,4.000000,4.000000,4.000000,4.000000,4.000000,,,,,,,,,,,,,,,,,,,,,,,,,,,,,,,,,,,,,
1577742232.458199,14.000000,0.000000,4283.589844,4376.922852,4121.538574,4171.794922,4232.307617,450.000000,4.000000,,,,0.000000,4.000000,4.000000,4.000000,4.000000,4.000000,7.000000,0.000000,0.328623,0.146240,0.878662,0.313965,0.545419,-0.545907,0.619638,1.045198,-48.977947,54.958668,,,,,,,,,,,,,,,,,,,,,,,,,
1577742232.465895,15.000000,0.000000,4279.487305,4357.436035,4120.000000,4176.922852,4224.102539,16206.000000,4.000000,,,,0.000000,4.000000,4.000000,4.000000,4.000000,4.000000,,,,,,,,,,,,,,,,,,,,,,,,,,,,,,,,,,,,,
1577742232.473691,16.000000,0.000000,4233.333496,4339.487305,4087.179443,4137.948730,4178.974121,0.000000,4.000000,,,,0.000000,4.000000,4.000000,4.000000,4.000000,4.000000,8.000000,0.000000,0.329042,0.146240,0.878418,0.314209,0.552743,-0.562020,0.604501,4.589416,-48.985012,53.649876,,,,,,,,,,,,,,,,,,,,,,,,,
1577742232.481388,17.000000,0.000000,4236.922852,4347.692383,4089.743652,4130.256348,4184.615234,0.000000,4.000000,,,,0.000000,4.000000,4.000000,4.000000,4.000000,4.000000,,,,,,,,,,,,,,,,,,,,,,,,,,,,,,,,,,,,,
1577742232.489184,18.000000,0.000000,4285.128418,4371.282227,4123.077148,4169.230957,4232.307617,0.000000,4.000000,,,,0.000000,4.000000,4.000000,4.000000,4.000000,4.000000,9.000000,0.000000,0.329042,0.146240,0.878418,0.314209,0.553719,-0.570809,0.613291,3.891213,-48.991371,52.471966,,,,,,,,,,,,,,,,,,,,,,,,,
1577742232.496880,19.000000,0.000000,4292.307617,4388.205078,4126.666504,4182.563965,4245.128418,0.000000,4.000000,,,,0.000000,4.000000,4.000000,4.000000,4.000000,4.000000,,,,,,,,,,,,,,,,,,,,,,,,,,,,,,,,,,,,,
1577742232.504677,20.000000,0.000000,4271.282227,4383.077148,4111.282227,4167.179688,4233.846191,0.000000,4.000000,,,,0.000000,4.000000,4.000000,4.000000,4.000000,4.000000,10.000000,0.000000,0.329042,0.146240,0.878418,0.314209,0.556161,-0.562509,0.605478,4.100245,-48.877464,53.325935,,,,,,,,,,,,,,,,,,,,,,,,,
1577742232.512373,21.000000,0.000000,4260.512695,4358.974121,4102.563965,4156.922852,4220.000000,0.000000,4.000000,,,,0.000000,4.000000,4.000000,4.000000,4.000000,4.000000,,,,,,,,,,,,,,,,,,,,,,,,,,,,,,,,,,,,,
1577742232.520169,22.000000,0.000000,4247.692383,4350.256348,4090.769287,4145.128418,4201.538574,0.000000,4.000000,,,,0.000000,4.000000,4.000000,4.000000,4.000000,4.000000,11.000000,0.000000,0.329042,0.146240,0.878418,0.314209,0.552743,-0.562020,0.604501,7.338958,-48.894577,52.180416,,,,,,,,,,,,,,,,,,,,,,,,,
1577742232.527866,23.000000,0.000000,4251.794922,4377.436035,4090.256348,4145.641113,4207.179688,0.000000,4.000000,,,,0.000000,4.000000,4.000000,4.000000,4.000000,4.000000,,,,,,,,,,,,,,,,,,,,,,,,,,,,,,,,,,,,,
1577742232.535562,24.000000,0.000000,4268.205078,4388.717773,4103.589844,4161.538574,4225.128418,0.000000,4.000000,,,,0.000000,4.000000,4.000000,4.000000,4.000000,4.000000,12.000000,0.000000,0.329042,0.146240,0.878418,0.314209,0.556161,-0.562509,0.605478,7.203216,-48.790348,53.063541,,,,,,,,,,,,,,,,,,,,,,,,,
1577742232.543359,25.000000,0.000000,4249.230957,4365.641113,4094.871826,4150.769043,4212.307617,0.000000,4.000000,,,,0.000000,4.000000,4.000000,4.000000,4.000000,4.000000,,,,,,,,,,,,,,,,,,,,,,,,,,,,,,,,,,,,,
1577742232.551055,26.000000,0.000000,4234.358887,4365.128418,4086.666748,4128.717773,4201.025879,0.000000,4.000000,,,,0.000000,4.000000,4.000000,4.000000,4.000000,4.000000,13.000000,0.000000,0.328700,0.146484,0.878418,0.314453,0.557626,-0.569833,0.603037,7.200678,-48.875988,53.798542,,,,,,,,,,,,,,,,,,,,,,,,,
1577742232.558852,27.000000,0.000000,4265.641113,4387.179688,4116.922852,4149.230957,4235.897461,0.000000,4.000000,,,,0.000000,4.000000,4.000000,4.000000,4.000000,4.000000,,,,,,,,,,,,,3.327188,11.958035,13.644479,4.581349,3.998019,1.192813,1.140168,2.207735,2.922604,3.230743,2.324839,7.145280,8.470413,3.580455,3.033617,1.737757,9.610512,12.643440,4.357753,4.817663,3.868516,9.811980,11.528740,4.516351,3.904233
1577742232.566549,28.000000,0.000000,4277.948730,4385.641113,4136.410156,4172.820313,4254.871582,0.000000,4.000000,,,,0.000000,4.000000,4.000000,4.000000,4.000000,4.000000,14.000000,0.000000,0.328700,0.146484,0.878418,0.314453,0.540536,-0.571298,0.609384,7.138580,-48.833435,52.605762,,,,,,,,,,,,,,,,,,,,,,,,,
1577742232.574345,29.000000,0.000000,4257.948730,4369.230957,4125.128418,4163.589844,4235.897461,0.000000,4.000000,,,,0.000000,4.000000,4.000000,4.000000,4.000000,4.000000,,,,,,,,,,,,,,,,,,,,,,,,,,,,,,,,,,,,,
1577742232.582042,30.000000,0.000000,4252.307617,4352.820313,4123.077148,4153.846191,4223.077148,0.000000,4.000000,,,,0.000000,4.000000,4.000000,4.000000,4.000000,4.000000,15.000000,0.000000,0.328700,0.146484,0.878418,0.314453,0.548348,-0.547860,0.611337,7.202322,-48.735321,53.625801,,,,,,,,,,,,,,,,,,,,,,,,,
1577742232.589838,31.000000,0.000000,4247.692383,4352.307617,4127.692383,4150.769043,4219.487305,0.000000,4.000000,,,,0.000000,4.000000,4.000000,4.000000,4.000000,4.000000,,,,,,,,,,,,,,,,,,,,,,,,,,,,,,,,,,,,,
1577742232.597535,32.000000,0.000000,4258.461426,4387.179688,4134.871582,4164.615234,4232.820313,0.000000,4.000000,,,,0.000000,4.000000,4.000000,4.000000,4.000000,4.000000,16.000000,0.000000,0.328700,0.146484,0.878418,0.314453,0.559579,-0.577646,0.613779,3.311875,-48.706833,54.424202,,,,,,,,,,,,,,,,,,,,,,,,,
1577742232.605331,33.000000,0.000000,4289.743652,4394.358887,4143.589844,4185.641113,4256.410156,0.000000,4.000000,,,,0.000000,4.000000,4.000000,4.000000,4.000000,4.000000,,,,,,,,,,,,,,,,,,,,,,,,,,,,,,,,,,,,,
1577742232.613028,34.000000,0.000000,4263.589844,4349.230957,4119.487305,4160.512695,4234.871582,0.000000,4.000000,,,,0.000000,4.000000,4.000000,4.000000,4.000000,4.000000,17.000000,0.000000,0.328466,0.146484,0.878418,0.314697,0.538094,-0.565438,0.600595,3.638656,-48.681194,53.168858,,,,,,,,,,,,,,,,,,,,,,,,,
1577742232.620825,35.000000,0.000000,4211.794922,4349.743652,4087.692383,4115.897461,4194.871582,0.000000,4.000000,,,,0.000000,4.000000,4.000000,4.000000,4.000000,4.000000,,,,,,,,,,,,,,,,,,,,,,,,,,,,,,,,,,,,,
1577742232.628521,36.000000,0.000000,4223.589844,4381.025879,4096.410156,4120.000000,4205.641113,0.000000,4.000000,,,,0.000000,4.000000,4.000000,4.000000,4.000000,4.000000,18.000000,0.000000,0.328466,0.146484,0.878418,0.314697,0.552254,-0.561044,0.610361,4.052391,-48.777752,54.132584,,,,,,,,,,,,,,,,,,,,,,,,,
1577742232.636318,37.000000,0.000000,4261.025879,4374.358887,4121.025879,4161.538574,4238.461426,0.000000,4.000000,,,,0.000000,4.000000,4.000000,4.000000,4.000000,4.000000,,,,,,,,,,,,,,,,,,,,,,,,,,,,,,,,,,,,,
1577742232.644014,38.000000,0.000000,4261.538574,4361.538574,4121.025879,4175.384766,4238.461426,0.000000,4.000000,,,,0.000000,4.000000,4.000000,4.000000,4.000000,4.000000,19.000000,0.000000,0.329227,0.146240,0.878174,0.314697,0.564950,-0.563485,0.604990,4.245305,-48.804836,54.880310,,,,,,,,,,,,,,,,,,,,,,,,,
1577742232.651811,39.000000,0.000000,4249.743652,4374.358887,4116.410156,4162.051270,4228.717773,0.000000,4.000000,,,,0.000000,4.000000,4.000000,4.000000,4.000000,4.000000,,,,,,,,,,,,,,,,,,,,,,,,,,,,,,,,,,,,,
1577742232.659507,40.000000,0.000000,4261.538574,4376.410156,4130.769043,4167.179688,4240.512695,0.000000,4.000000,,,,0.000000,4.000000,4.000000,4.000000,4.000000,4.000000,20.000000,0.000000,0.328993,0.146240,0.878174,0.314941,0.563485,-0.567880,0.601572,7.290066,-48.769398,55.613075,,,,,,,,,,,,,,,,,,,,,,,,,
1577742232.667204,41.000000,0.000000,4264.102539,4356.922852,4131.282227,4172.307617,4239.487305,0.000000,4.000000,,,,0.000000,4.000000,4.000000,4.000000,4.000000,4.000000,,,,,,,,,,,,,,,,,,,,,,,,,,,,,,,,,,,,,
1577742232.675000,42.000000,0.000000,4225.128418,4344.102539,4099.487305,4132.820313,4199.487305,0.000000,4.000000,,,,0.000000,4.000000,4.000000,4.000000,4.000000,4.000000,21.000000,0.000000,0.329101,0.145996,0.878174,0.314941,0.547860,-0.562997,0.606943,7.338659,-48.857132,56.332382,,,,,,,,,,,,,,,,,,,,,,,,,
1577742232.682697,43.000000,0.000000,4196.922852,4355.897461,4083.589844,4095.897461,4170.769043,0.000000,4.000000,,,,0.000000,4.000000,4.000000,4.000000,4.000000,4.000000,,,,,,,,,,,,,3.620555,13.875449,14.108519,4.810616,3.667259,1.126143,1.310485,1.978046,3.008431,3.457127,2.479972,8.503936,9.066219,3.857913,2.860549,1.777058,10.582433,12.918555,4.587573,4.594930,4.739733,11.528255,12.158323,4.787348,3.635945
1577742232.690494,44.000000,0.000000,4234.871582,4387.179688,4124.615234,4142.563965,4215.384766,0.000000,4.000000,,,,0.000000,4.000000,4.000000,4.000000,4.000000,4.000000,22.000000,0.000000,0.328868,0.145996,0.878174,0.315186,0.547860,-0.568856,0.604013,7.382393,-48.876278,56.919941,,,,,,,,,,,,,,,,,,,,,,,,,
1577742232.698190,45.000000,0.000000,4254.871582,4372.820313,4142.051270,4186.153809,4246.153809,0.000000,4.000000,,,,0.000000,4.000000,4.000000,4.000000,4.000000,4.000000,,,,,,,,,,,,,,,,,,,,,,,,,,,,,,,,,,,,,
1577742232.705987,46.000000,0.000000,4191.282227,4335.897461,4086.666748,4128.205078,4183.077148,0.000000,4.000000,,,,0.000000,4.000000,4.000000,4.000000,4.000000,4.000000,23.000000,0.000000,0.328634,0.145996,0.878174,0.315430,0.548348,-0.562020,0.606455,3.473939,-48.953327,57.388931,,,,,,,,,,,,,,,,,,,,,,,,,
1577742232.713683,47.000000,0.000000,4175.384766,4364.615234,4080.512939,4105.128418,4158.974121,0.000000,4.000000,,,,0.000000,4.000000,4.000000,4.000000,4.000000,4.000000,,,,,,,,,,,,,,,,,,,,,,,,,,,,,,,,,,,,,
1577742232.721480,48.000000,0.000000,4234.358887,4392.820313,4133.333496,4161.538574,4219.487305,0.000000,4.000000,,,,0.000000,4.000000,4.000000,4.000000,4.000000,4.000000,24.000000,0.000000,0.328742,0.145752,0.878174,0.315430,0.545907,-0.556649,0.606943,3.844330,-48.903038,57.870834,,,,,,,,,,,,,,,,,,,,,,,,,
1577742232.729276,49.000000,0.000000,4247.179688,4369.230957,4132.307617,4173.846191,4241.538574,0.000000,4.000000,,,,0.000000,4.000000,4.000000,4.000000,4.000000,4.000000,,,,,,,,,,,,,,,,,,,,,,,,,,,,,,,,,,,,,
1577742232.736973,50.000000,0.000000,4233.846191,4359.487305,4108.717773,4158.974121,4225.128418,0.000000,4.000000,,,,0.000000,4.000000,4.000000,4.000000,4.000000,4.000000,25.000000,0.000000,0.328507,0.145752,0.878174,0.315674,0.557137,-0.562997,0.606455,3.220635,-48.977409,58.184917,,,,,,,,,,,,,,,,,,,,,,,,,
1577742232.744669,51.000000,0.000000,4234.358887,4370.256348,4111.282227,4155.897461,4222.051270,0.000000,4.000000,,,,0.000000,4.000000,4.000000,4.000000,4.000000,4.000000,,,,,,,,,,,,,,,,,,,,,,,,,,,,,,,,,,,,,
1577742232.752466,52.000000,0.000000,4227.179688,4368.205078,4106.666504,4143.077148,4217.436035,0.000000,4.000000,,,,0.000000,4.000000,4.000000,4.000000,4.000000,4.000000,26.000000,0.000000,0.329051,0.145996,0.877930,0.315674,0.534188,-0.561044,0.610849,6.547309,-48.924713,58.407780,,,,,,,,,,,,,,,,,,,,,,,,,
1577742232.760163,53.000000,0.000000,4207.692383,4364.615234,4088.205078,4135.897461,4196.922852,0.000000,4.000000,,,,0.000000,4.000000,4.000000,4.000000,4.000000,4.000000,,,,,,,,,,,,,,,,,,,,,,,,,,,,,,,,,,,,,
1577742232.767959,54.000000,0.000000,4217.948730,4364.615234,4104.615234,4156.410156,4200.000000,0.000000,4.000000,,,,0.000000,4.000000,4.000000,4.000000,4.000000,4.000000,27.000000,0.000000,0.329051,0.145996,0.877930,0.315674,0.556161,-0.566415,0.603037,6.670178,-48.996918,58.608353,,,,,,,,,,,,,,,,,,,,,,,,,
1577742232.775656,55.000000,0.000000,4243.589844,4363.589844,4137.948730,4171.282227,4220.000000,0.000000,4.000000,,,,0.000000,4.000000,4.000000,4.000000,4.000000,4.000000,,,,,,,,,,,,,,,,,,,,,,,,,,,,,,,,,,,,,
1577742232.783452,56.000000,0.000000,4230.769043,4365.641113,4129.230957,4151.794922,4208.717773,0.000000,4.000000,,,,0.000000,4.000000,4.000000,4.000000,4.000000,4.000000,28.000000,0.000000,0.328817,0.145996,0.877930,0.315918,0.552743,-0.575204,0.617685,6.661129,-48.942272,58.788872,,,,,,,,,,,,,,,,,,,,,,,,,
1577742232.791249,57.000000,0.000000,4215.897461,4351.282227,4108.717773,4137.948730,4194.358887,0.000000,4.000000,,,,0.000000,4.000000,4.000000,4.000000,4.000000,4.000000,,,,,,,,,,,,,,,,,,,,,,,,,,,,,,,,,,,,,
1577742232.798945,58.000000,0.000000,4246.666504,4347.692383,4120.512695,4163.077148,4219.487305,0.000000,4.000000,,,,0.000000,4.000000,4.000000,4.000000,4.000000,4.000000,29.000000,0.000000,0.328817,0.145996,0.877930,0.315918,0.551278,-0.580087,0.619150,2.944432,-49.012718,58.951336,,,,,,,,,,,,,,,,,,,,,,,,,
1577742232.806742,59.000000,0.000000,4251.794922,4361.538574,4113.846191,4157.436035,4218.461426,0.000000,4.000000,,,,0.000000,4.000000,4.000000,4.000000,4.000000,4.000000,,,,,,,,,,,,,3.901294,14.344906,14.173477,4.884953,3.579440,0.994840,1.468963,1.743783,2.949533,3.775168,2.648623,9.447745,10.001557,3.911592,2.822094,2.016341,10.648096,13.089323,4.713641,4.534424,5.325443,12.101155,12.845097,4.898081,3.608855
1577742232.814438,60.000000,0.000000,4197.436035,4341.538574,4077.435791,4099.487305,4163.589844,0.000000,4.000000,,,,0.000000,4.000000,4.000000,4.000000,4.000000,4.000000,30.000000,0.000000,0.328708,0.146240,0.877930,0.315918,0.548837,-0.582040,0.622568,6.298727,-48.956490,57.303093,,,,,,,,,,,,,,,,,,,,,,,,,
1577742232.822135,61.000000,0.000000,4208.717773,4339.487305,4104.615234,4125.128418,4179.487305,0.000000,4.000000,,,,0.000000,4.000000,4.000000,4.000000,4.000000,4.000000,,,,,,,,,,,,,,,,,,,,,,,,,,,,,,,,,,,,,
1577742232.829831,62.000000,0.000000,4276.922852,4366.666504,4158.461426,4203.077148,4246.153809,0.000000,4.000000,,,,0.000000,4.000000,4.000000,4.000000,4.000000,4.000000,31.000000,0.000000,0.328708,0.146240,0.877930,0.315918,0.557626,-0.581552,0.606455,9.317592,-48.965702,57.733765,,,,,,,,,,,,,,,,,,,,,,,,,
1577742232.837628,63.000000,0.000000,4244.102539,4350.769043,4122.563965,4162.051270,4211.282227,0.000000,4.000000,,,,0.000000,4.000000,4.000000,4.000000,4.000000,4.000000,,,,,,,,,,,,,,,,,,,,,,,,,,,,,,,,,,,,,
1577742232.845424,64.000000,0.000000,4188.205078,4342.563965,4076.410156,4104.102539,4154.871582,450.000000,4.000000,,,,0.000000,4.000000,4.000000,4.000000,4.000000,4.000000,32.000000,0.000000,0.328599,0.146484,0.877930,0.315918,0.542489,-0.581552,0.613291,9.043801,-48.973991,58.061558,,,,,,,,,,,,,,,,,,,,,,,,,
1577742232.853121,65.000000,0.000000,4222.051270,4367.692383,4098.461426,4142.563965,4187.692383,450.000000,4.000000,,,,0.000000,4.000000,4.000000,4.000000,4.000000,4.000000,,,,,,,,,,,,,,,,,,,,,,,,,,,,,,,,,,,,,
1577742232.860917,66.000000,0.000000,4261.025879,4349.743652,4122.563965,4174.871582,4230.256348,16213.000000,4.000000,,,,0.000000,4.000000,4.000000,4.000000,4.000000,4.000000,33.000000,0.000000,0.328834,0.146484,0.877930,0.315674,0.552743,-0.574228,0.599130,5.148653,-49.160900,58.416382,,,,,,,,,,,,,,,,,,,,,,,,,
1577742232.868613,67.000000,0.000000,4255.897461,4329.743652,4121.025879,4160.000000,4233.333496,450.000000,4.000000,,,,0.000000,4.000000,4.000000,4.000000,4.000000,4.000000,,,,,,,,,,,,,,,,,,,,,,,,,,,,,,,,,,,,,
1577742232.876410,68.000000,0.000000,4257.436035,4369.230957,4126.153809,4157.436035,4232.307617,16251.000000,4.000000,,,,0.000000,4.000000,4.000000,4.000000,4.000000,4.000000,34.000000,0.000000,0.328834,0.146484,0.877930,0.315674,0.547860,-0.561532,0.600595,8.282525,-49.149670,58.735729,,,,,,,,,,,,,,,,,,,,,,,,,
1577742232.884106,69.000000,0.000000,4249.743652,4384.615234,4122.563965,4148.717773,4211.794922,450.000000,4.000000,,,,0.000000,4.000000,4.000000,4.000000,4.000000,4.000000,,,,,,,,,,,,,,,,,,,,,,,,,,,,,,,,,,,,,
1577742232.891902,70.000000,0.000000,4233.846191,4346.153809,4116.410156,4135.897461,4195.897461,16144.000000,4.000000,,,,0.000000,4.000000,4.000000,4.000000,4.000000,4.000000,35.000000,0.000000,0.328834,0.146484,0.877930,0.315674,0.553231,-0.569345,0.593759,11.043194,-48.900299,59.142769,,,,,,,,,,,,,,,,,,,,,,,,,
1577742232.899599,71.000000,0.000000,4233.333496,4327.692383,4118.461426,4140.512695,4201.025879,450.000000,4.000000,,,,0.000000,4.000000,4.000000,4.000000,4.000000,4.000000,,,,,,,,,,,,,,,,,,,,,,,,,,,,,,,,,,,,,
1577742232.907295,72.000000,0.000000,4217.436035,4351.794922,4105.641113,4126.153809,4183.077148,450.000000,4.000000,,,,0.000000,4.000000,4.000000,4.000000,4.000000,4.000000,36.000000,0.000000,0.328834,0.146484,0.877930,0.315674,0.551766,-0.565438,0.604990,6.948107,-48.915131,59.329659,,,,,,,,,,,,,,,,,,,,,,,,,
1577742232.915092,73.000000,0.000000,4220.512695,4376.410156,4117.436035,4124.615234,4184.102539,16201.000000,4.000000,,,,0.000000,4.000000,4.000000,4.000000,4.000000,4.000000,,,,,,,,,,,,,,,,,,,,,,,,,,,,,,,,,,,,,
1577742232.922888,74.000000,0.000000,4262.051270,4362.051270,4154.358887,4162.563965,4225.641113,450.000000,4.000000,,,,0.000000,4.000000,4.000000,4.000000,4.000000,4.000000,37.000000,0.000000,0.328834,0.146484,0.877930,0.315674,0.557137,-0.568368,0.612314,6.971080,-48.808846,59.617493,,,,,,,,,,,,,,,,,,,,,,,,,
1577742232.930585,75.000000,0.000000,4246.666504,4344.615234,4125.128418,4142.563965,4207.179688,16216.000000,4.000000,,,,0.000000,4.000000,4.000000,4.000000,4.000000,4.000000,,,,,,,,,,,,,4.097727,13.200031,13.977804,4.715269,3.674580,0.820632,1.545111,1.559554,2.785220,4.142516,2.883384,9.614947,11.081833,3.699379,2.873566,2.357209,9.674859,13.249081,4.676005,4.605221,5.431527,11.297351,13.626068,4.789586,3.764843
1577742232.938381,76.000000,0.000000,4207.179688,4356.922852,4081.538574,4101.025879,4170.256348,450.000000,4.000000,,,,0.000000,4.000000,4.000000,4.000000,4.000000,4.000000,38.000000,0.000000,0.328599,0.146484,0.877930,0.315918,0.554208,-0.578134,0.611826,7.051572,-48.832821,59.936356,,,,,,,,,,,,,,,,,,,,,,,,,
1577742232.946077,77.000000,0.000000,4229.230957,4361.025879,4100.000000,4129.743652,4196.410156,450.000000,4.000000,,,,0.000000,4.000000,4.000000,4.000000,4.000000,4.000000,,,,,,,,,,,,,,,,,,,,,,,,,,,,,,,,,,,,,
1577742232.953874,78.000000,0.000000,4240.512695,4350.256348,4098.974121,4138.974121,4198.974121,450.000000,4.000000,,,,0.000000,4.000000,4.000000,4.000000,4.000000,4.000000,39.000000,0.000000,0.328599,0.146484,0.877930,0.315918,0.552743,-0.590829,0.608408,9.995152,-48.854401,59.924255,,,,,,,,,,,,,,,,,,,,,,,,,
1577742232.961570,79.000000,0.000000,4225.641113,4358.461426,4079.487061,4112.307617,4178.461426,16216.000000,4.000000,,,,0.000000,4.000000,4.000000,4.000000,4.000000,4.000000,,,,,,,,,,,,,,,,,,,,,,,,,,,,,,,,,,,,,
1577742232.969267,80.000000,0.000000,4253.846191,4359.487305,4111.282227,4141.538574,4215.897461,450.000000,4.000000,,,,0.000000,4.000000,4.000000,4.000000,4.000000,4.000000,40.000000,0.000000,0.328834,0.146484,0.877930,0.315674,0.557137,-0.568368,0.612314,12.644374,-48.993450,59.913368,,,,,,,,,,,,,,,,,,,,,,,,,
1577742232.977063,81.000000,0.000000,4248.717773,4324.102539,4114.358887,4150.256348,4214.358887,450.000000,4.000000,,,,0.000000,4.000000,4.000000,4.000000,4.000000,4.000000,,,,,,,,,,,,,,,,,,,,,,,,,,,,,,,,,,,,,
1577742232.984760,82.000000,0.000000,4193.846191,4308.717773,4072.820557,4094.871826,4152.307617,450.000000,4.000000,,,,0.000000,4.000000,4.000000,4.000000,4.000000,4.000000,41.000000,0.000000,0.328599,0.146484,0.877930,0.315918,0.552743,-0.590829,0.608408,15.028674,-48.998966,59.903568,,,,,,,,,,,,,,,,,,,,,,,,,
1577742232.992556,83.000000,0.000000,4218.461426,4355.897461,4096.410156,4110.256348,4171.282227,16216.000000,4.000000,,,,0.000000,4.000000,4.000000,4.000000,4.000000,4.000000,,,,,,,,,,,,,,,,,,,,,,,,,,,,,,,,,,,,,
1577742233.000253,84.000000,0.000000,4249.743652,4376.922852,4116.922852,4144.615234,4202.051270,450.000000,4.000000,,,,0.000000,4.000000,4.000000,4.000000,4.000000,4.000000,42.000000,0.000000,0.328491,0.146729,0.877930,0.315918,0.544930,-0.580087,0.605478,17.174543,-49.123558,59.894749,,,,,,,,,,,,,,,,,,,,,,,,,
1577742233.008050,85.000000,0.000000,4215.897461,4350.256348,4082.564209,4115.897461,4167.692383,450.000000,4.000000,,,,0.000000,4.000000,4.000000,4.000000,4.000000,4.000000,,,,,,,,,,,,,,,,,,,,,,,,,,,,,,,,,,,,,
1577742233.015746,86.000000,0.000000,4235.897461,4356.922852,4100.000000,4129.743652,4186.153809,450.000000,4.000000,,,,0.000000,4.000000,4.000000,4.000000,4.000000,4.000000,43.000000,0.000000,0.328725,0.146729,0.877930,0.315674,0.557626,-0.580575,0.596201,16.294504,-48.996433,60.185886,,,,,,,,,,,,,,,,,,,,,,,,,
1577742233.023543,87.000000,0.000000,4284.615234,4369.230957,4135.897461,4173.846191,4235.897461,16216.000000,4.000000,,,,0.000000,4.000000,4.000000,4.000000,4.000000,4.000000,,,,,,,,,,,,,,,,,,,,,,,,,,,,,,,,,,,,,
1577742233.031239,88.000000,0.000000,4258.974121,4345.128418,4109.230957,4149.230957,4215.384766,450.000000,4.000000,,,,0.000000,4.000000,4.000000,4.000000,4.000000,4.000000,44.000000,0.000000,0.328725,0.146729,0.877930,0.315674,0.546395,-0.575204,0.600595,18.253977,-49.061466,60.268463,,,,,,,,,,,,,,,,,,,,,,,,,
1577742233.039036,89.000000,0.000000,4236.410156,4347.692383,4092.820557,4117.948730,4187.179688,450.000000,4.000000,,,,0.000000,4.000000,4.000000,4.000000,4.000000,4.000000,,,,,,,,,,,,,,,,,,,,,,,,,,,,,,,,,,,,,
1577742233.046732,90.000000,0.000000,4270.769043,4374.871582,4123.077148,4145.641113,4207.692383,450.000000,4.000000,,,,0.000000,4.000000,4.000000,4.000000,4.000000,4.000000,45.000000,0.000000,0.328725,0.146729,0.877930,0.315674,0.545419,-0.573251,0.609384,13.377995,-49.000362,60.462418,,,,,,,,,,,,,,,,,,,,,,,,,
1577742233.054529,91.000000,0.000000,4281.538574,4370.256348,4133.333496,4165.128418,4217.948730,16216.000000,4.000000,,,,0.000000,4.000000,4.000000,4.000000,4.000000,4.000000,,,,,,,,,,,,,4.217385,10.810208,13.571651,4.334610,3.857134,0.648085,1.499949,1.427713,2.564483,4.463746,3.111992,8.918469,11.922177,3.296388,2.948403,2.690916,7.905257,13.294001,4.496152,4.737648,5.053700,9.365523,14.296353,4.506368,4.003736
1577742233.062225,92.000000,0.000000,4264.102539,4361.025879,4127.692383,4158.461426,4207.692383,450.000000,4.000000,,,,0.000000,4.000000,4.000000,4.000000,4.000000,4.000000,46.000000,0.000000,0.328725,0.146729,0.877930,0.315674,0.550790,-0.560555,0.594736,12.638350,-48.825741,58.603249,,,,,,,,,,,,,,,,,,,,,,,,,
1577742233.069922,93.000000,0.000000,4257.948730,4357.948730,4123.077148,4157.948730,4205.641113,450.000000,4.000000,,,,0.000000,4.000000,4.000000,4.000000,4.000000,4.000000,,,,,,,,,,,,,,,,,,,,,,,,,,,,,,,,,,,,,
1577742233.077718,94.000000,0.000000,4266.153809,4352.820313,4110.769043,4162.051270,4206.153809,450.000000,4.000000,,,,0.000000,4.000000,4.000000,4.000000,4.000000,4.000000,47.000000,0.000000,0.328834,0.146484,0.877930,0.315674,0.551766,-0.555184,0.612802,11.912852,-48.848026,58.784279,,,,,,,,,,,,,,,,,,,,,,,,,
1577742233.085415,95.000000,0.000000,4235.897461,4340.000000,4070.256348,4127.179688,4168.717773,16216.000000,4.000000,,,,0.000000,4.000000,4.000000,4.000000,4.000000,4.000000,,,,,,,,,,,,,,,,,,,,,,,,,,,,,,,,,,,,,
1577742233.093211,96.000000,0.000000,4174.358887,4329.230957,4034.871826,4071.794922,4117.436035,450.000000,4.000000,,,,0.000000,4.000000,4.000000,4.000000,4.000000,4.000000,48.000000,0.000000,0.328834,0.146484,0.877930,0.315674,0.558602,-0.564950,0.604013,14.190859,-48.808270,59.126648,,,,,,,,,,,,,,,,,,,,,,,,,
1577742233.100908,97.000000,0.000000,4200.512695,4352.820313,4089.743652,4104.102539,4158.461426,450.000000,4.000000,,,,0.000000,4.000000,4.000000,4.000000,4.000000,4.000000,,,,,,,,,,,,,,,,,,,,,,,,,,,,,,,,,,,,,
1577742233.108704,98.000000,0.000000,4263.077148,4370.256348,4150.769043,4164.615234,4217.436035,450.000000,4.000000,,,,0.000000,4.000000,4.000000,4.000000,4.000000,4.000000,49.000000,0.000000,0.328708,0.146240,0.877930,0.315918,0.562509,-0.563973,0.604990,13.549373,-48.892117,59.255333,,,,,,,,,,,,,,,,,,,,,,,,,
1577742233.116401,99.000000,0.000000,4248.717773,4356.922852,4128.717773,4151.282227,4193.846191,16216.000000,4.000000,,,,0.000000,4.000000,4.000000,4.000000,4.000000,4.000000,,,,,,,,,,,,,,,,,,,,,,,,,,,,,,,,,,,,,
1577742233.124198,100.000000,0.000000,4225.128418,4358.461426,4111.282227,4128.717773,4178.974121,450.000000,4.000000,,,,0.000000,4.000000,4.000000,4.000000,4.000000,4.000000,50.000000,0.000000,0.328708,0.146240,0.877930,0.315918,0.542489,-0.566903,0.613291,15.723541,-48.847950,57.696323,,,,,,,,,,,,,,,,,,,,,,,,,
1577742233.131894,101.000000,0.000000,4255.897461,4361.025879,4145.128418,4158.461426,4222.563965,450.000000,4.000000,,,,0.000000,4.000000,4.000000,4.000000,4.000000,4.000000,,,,,,,,,,,,,,,,,,,,,,,,,,,,,,,,,,,,,
1577742233.139691,102.000000,0.000000,4256.410156,4335.897461,4140.512695,4166.153809,4224.615234,450.000000,4.000000,,,,0.000000,4.000000,4.000000,4.000000,4.000000,4.000000,51.000000,0.000000,0.328817,0.145996,0.877930,0.315918,0.550301,-0.569345,0.602548,17.740110,-48.868015,56.173580,,,,,,,,,,,,,,,,,,,,,,,,,
1577742233.147387,103.000000,0.000000,4202.051270,4332.820313,4090.256348,4112.307617,4172.307617,16216.000000,4.000000,,,,0.000000,4.000000,4.000000,4.000000,4.000000,4.000000,,,,,,,,,,,,,,,,,,,,,,,,,,,,,,,,,,,,,
1577742233.155184,104.000000,0.000000,4196.410156,4356.922852,4095.384521,4093.333252,4169.743652,450.000000,4.000000,,,,0.000000,4.000000,4.000000,4.000000,4.000000,4.000000,52.000000,0.000000,0.328817,0.145996,0.877930,0.315918,0.548837,-0.573251,0.597177,19.435390,-48.886074,56.537762,,,,,,,,,,,,,,,,,,,,,,,,,
1577742233.162880,105.000000,0.000000,4264.615234,4363.077148,4152.820313,4153.333496,4230.256348,450.000000,4.000000,,,,0.000000,4.000000,4.000000,4.000000,4.000000,4.000000,,,,,,,,,,,,,,,,,,,,,,,,,,,,,,,,,,,,,
1577742233.170677,106.000000,0.000000,4312.307617,4357.436035,4174.871582,4203.589844,4266.666504,450.000000,4.000000,,,,0.000000,4.000000,4.000000,4.000000,4.000000,4.000000,53.000000,0.000000,0.328817,0.145996,0.877930,0.315918,0.558602,-0.562997,0.609873,18.209635,-48.842510,57.044968,,,,,,,,,,,,,,,,,,,,,,,,,
1577742233.178374,107.000000,0.000000,4268.205078,4351.794922,4130.256348,4158.974121,4226.153809,16216.000000,4.000000,,,,0.000000,4.000000,4.000000,4.000000,4.000000,4.000000,,,,,,,,,,,,,4.188426,7.914687,12.882087,3.875094,4.054996,0.525352,1.342252,1.316506,2.331749,4.633057,3.402220,7.530533,12.085493,2.860356,3.003687,2.898257,5.807045,12.954764,4.253379,4.876268,4.379636,6.909764,14.478642,4.170146,4.243721
1577742233.186170,108.000000,0.000000,4214.871582,4343.589844,4093.846191,4100.000000,4177.436035,450.000000,4.000000,,,,0.000000,4.000000,4.000000,4.000000,4.000000,4.000000,54.000000,0.000000,0.328817,0.145996,0.877930,0.315918,0.551766,-0.562509,0.607431,13.338088,-48.863121,55.527546,,,,,,,,,,,,,,,,,,,,,,,,,
1577742233.193867,109.000000,0.000000,4241.025879,4346.153809,4118.461426,4129.230957,4196.410156,450.000000,4.000000,,,,0.000000,4.000000,4.000000,4.000000,4.000000,4.000000,,,,,,,,,,,,,,,,,,,,,,,,,,,,,,,,,,,,,
1577742233.201663,110.000000,0.000000,4262.051270,4351.794922,4137.948730,4157.436035,4218.461426,450.000000,4.000000,,,,0.000000,4.000000,4.000000,4.000000,4.000000,4.000000,55.000000,0.000000,0.328925,0.145752,0.877930,0.315918,0.552254,-0.552743,0.605966,12.662249,-48.941483,56.135773,,,,,,,,,,,,,,,,,,,,,,,,,
1577742233.209360,111.000000,0.000000,4229.743652,4352.307617,4120.512695,4129.743652,4194.871582,16216.000000,4.000000,,,,0.000000,4.000000,4.000000,4.000000,4.000000,4.000000,,,,,,,,,,,,,,,,,,,,,,,,,,,,,,,,,,,,,
1577742233.217156,112.000000,0.000000,4227.179688,4351.794922,4123.077148,4140.512695,4193.333496,450.000000,4.000000,,,,0.000000,4.000000,4.000000,4.000000,4.000000,4.000000,56.000000,0.000000,0.328690,0.145752,0.877930,0.316162,0.546395,-0.553231,0.598642,8.165994,-49.071827,56.623363,,,,,,,,,,,,,,,,,,,,,,,,,
1577742233.224853,113.000000,0.000000,4260.000000,4346.153809,4148.205078,4183.077148,4224.615234,450.000000,4.000000,,,,0.000000,4.000000,4.000000,4.000000,4.000000,4.000000,,,,,,,,,,,,,,,,,,,,,,,,,,,,,,,,,,,,,
1577742233.232550,114.000000,0.000000,4246.666504,4344.102539,4141.025879,4158.974121,4217.948730,450.000000,4.000000,,,,0.000000,4.000000,4.000000,4.000000,4.000000,4.000000,57.000000,0.000000,0.328690,0.145752,0.877930,0.316162,0.549325,-0.587900,0.618662,4.119365,-49.129318,57.062195,,,,,,,,,,,,,,,,,,,,,,,,,
1577742233.240346,115.000000,0.000000,4211.794922,4343.077148,4117.948730,4115.897461,4183.077148,16216.000000,4.000000,,,,0.000000,4.000000,4.000000,4.000000,4.000000,4.000000,,,,,,,,,,,,,,,,,,,,,,,,,,,,,,,,,,,,,
1577742233.248143,116.000000,0.000000,4238.461426,4348.717773,4136.410156,4146.666504,4203.589844,450.000000,4.000000,,,,0.000000,4.000000,4.000000,4.000000,4.000000,4.000000,58.000000,0.000000,0.328925,0.145752,0.877930,0.315918,0.554208,-0.568368,0.627451,4.425212,-49.001617,57.516956,,,,,,,,,,,,,,,,,,,,,,,,,
1577742233.255839,117.000000,0.000000,4264.102539,4355.384766,4153.333496,4167.179688,4234.358887,450.000000,4.000000,,,,0.000000,4.000000,4.000000,4.000000,4.000000,4.000000,,,,,,,,,,,,,,,,,,,,,,,,,,,,,,,,,,,,,
1577742233.263536,118.000000,0.000000,4223.589844,4334.358887,4126.153809,4125.641113,4198.974121,450.000000,4.000000,,,,0.000000,4.000000,4.000000,4.000000,4.000000,4.000000,59.000000,0.000000,0.328925,0.145752,0.877930,0.315918,0.555184,-0.563485,0.612802,4.760291,-48.946499,56.012154,,,,,,,,,,,,,,,,,,,,,,,,,
1577742233.271332,119.000000,0.000000,4200.000000,4325.641113,4114.358887,4111.794922,4168.717773,16216.000000,4.000000,,,,0.000000,4.000000,4.000000,4.000000,4.000000,4.000000,,,,,,,,,,,,,,,,,,,,,,,,,,,,,,,,,,,,,
1577742233.279129,120.000000,0.000000,4231.282227,4349.230957,4143.077148,4144.615234,4195.897461,450.000000,4.000000,,,,0.000000,4.000000,4.000000,4.000000,4.000000,4.000000,60.000000,0.000000,0.328925,0.145752,0.877930,0.315918,0.550301,-0.568368,0.607431,1.353309,-48.837078,56.512104,,,,,,,,,,,,,,,,,,,,,,,,,
1577742233.286825,121.000000,0.000000,4248.205078,4362.563965,4162.563965,4155.897461,4217.948730,450.000000,4.000000,,,,0.000000,4.000000,4.000000,4.000000,4.000000,4.000000,,,,,,,,,,,,,,,,,,,,,,,,,,,,,,,,,,,,,
1577742233.294522,122.000000,0.000000,4220.512695,4355.897461,4142.563965,4131.282227,4190.769043,450.000000,4.000000,,,,0.000000,4.000000,4.000000,4.000000,4.000000,4.000000,61.000000,0.000000,0.328925,0.145752,0.877930,0.315918,0.553231,-0.557137,0.607919,1.875947,-48.738598,57.021877,,,,,,,,,,,,,,,,,,,,,,,,,
1577742233.302318,123.000000,0.000000,4207.692383,4351.794922,4125.641113,4118.974121,4170.769043,16216.000000,4.000000,,,,0.000000,4.000000,4.000000,4.000000,4.000000,4.000000,,,,,,,,,,,,,4.063377,5.257222,11.792974,3.483421,4.253912,0.499295,1.126825,1.185969,2.121742,4.584702,3.517244,5.793514,11.295451,2.554800,3.047181,2.892266,3.866915,11.935420,4.031322,5.009609,3.622438,4.603322,13.834188,3.908995,4.459682
1577742233.310115,124.000000,0.000000,4231.282227,4347.179688,4145.128418,4133.846191,4196.922852,450.000000,4.000000,,,,0.000000,4.000000,4.000000,4.000000,4.000000,4.000000,62.000000,0.000000,0.328925,0.145752,0.877930,0.315918,0.549813,-0.563973,0.601572,2.286506,-48.769600,57.420856,,,,,,,,,,,,,,,,,,,,,,,,,
1577742233.317811,125.000000,0.000000,4241.025879,4345.641113,4158.974121,4150.769043,4215.384766,450.000000,4.000000,,,,0.000000,4.000000,4.000000,4.000000,4.000000,4.000000,,,,,,,,,,,,,,,,,,,,,,,,,,,,,,,,,,,,,
1577742233.325608,126.000000,0.000000,4225.128418,4345.128418,4139.487305,4148.205078,4198.461426,450.000000,4.000000,,,,0.000000,4.000000,4.000000,4.000000,4.000000,4.000000,63.000000,0.000000,0.329033,0.145508,0.877930,0.315918,0.556161,-0.559091,0.610361,-0.992728,-48.797501,57.720123,,,,,,,,,,,,,,,,,,,,,,,,,
1577742233.333304,127.000000,0.000000,4223.077148,4345.128418,4124.102539,4130.769043,4186.666504,236.000000,4.000000,,,,0.000000,4.000000,4.000000,4.000000,4.000000,4.000000,,,,,,,,,,,,,,,,,,,,,,,,,,,,,,,,,,,,,
1577742233.341001,0.000000,0.000000,4231.282227,4352.307617,4130.256348,4123.077148,4193.846191,450.000000,4.000000,,,,0.000000,4.000000,4.000000,4.000000,4.000000,4.000000,0.000000,0.000000,0.329033,0.145508,0.877930,0.315918,0.550790,-0.559091,0.615244,-0.115856,-48.702980,58.049278,,,,,,,,,,,,,,,,,,,,,,,,,
1577742233.348797,1.000000,0.000000,4229.743652,4348.717773,4131.282227,4132.307617,4195.384766,450.000000,4.000000,,,,0.000000,4.000000,4.000000,4.000000,4.000000,4.000000,,,,,,,,,,,,,,,,,,,,,,,,,,,,,,,,,,,,,
1577742233.356494,2.000000,0.000000,4231.282227,4325.641113,4127.692383,4132.820313,4193.333496,16213.000000,4.000000,,,,0.000000,4.000000,4.000000,4.000000,4.000000,4.000000,1.000000,0.000000,0.328925,0.145752,0.877930,0.315918,0.555673,-0.576181,0.606455,3.484652,-48.677727,58.345516,,,,,,,,,,,,,,,,,,,,,,,,,
1577742233.364290,3.000000,0.000000,4234.871582,4336.410156,4129.230957,4121.538574,4198.461426,450.000000,4.000000,,,,0.000000,4.000000,4.000000,4.000000,4.000000,4.000000,,,,,,,,,,,,,,,,,,,,,,,,,,,,,,,,,,,,,
1577742233.371987,4.000000,0.000000,4247.692383,4378.461426,4141.025879,4148.717773,4215.897461,16245.000000,4.000000,,,,0.000000,4.000000,4.000000,4.000000,4.000000,4.000000,2.000000,0.000000,0.328690,0.145752,0.877930,0.316162,0.553719,-0.567880,0.616220,3.973602,-48.714813,58.731766,,,,,,,,,,,,,,,,,,,,,,,,,
1577742233.379783,5.000000,0.000000,4259.487305,4365.641113,4148.205078,4177.436035,4223.589844,450.000000,4.000000,,,,0.000000,4.000000,4.000000,4.000000,4.000000,4.000000,,,,,,,,,,,,,,,,,,,,,,,,,,,,,,,,,,,,,
1577742233.387480,6.000000,0.000000,4249.743652,4323.077148,4138.974121,4155.897461,4211.794922,16150.000000,4.000000,,,,0.000000,4.000000,4.000000,4.000000,4.000000,4.000000,3.000000,0.000000,0.328690,0.145752,0.877930,0.316162,0.547860,-0.577157,0.600595,4.353841,-48.748192,58.959755,,,,,,,,,,,,,,,,,,,,,,,,,
1577742233.395277,7.000000,0.000000,4235.384766,4334.871582,4127.692383,4135.384766,4203.077148,450.000000,4.000000,,,,0.000000,4.000000,4.000000,4.000000,4.000000,4.000000,,,,,,,,,,,,,,,,,,,,,,,,,,,,,,,,,,,,,
1577742233.402973,8.000000,0.000000,4224.615234,4364.102539,4118.974121,4129.230957,4193.846191,450.000000,4.000000,,,,0.000000,4.000000,4.000000,4.000000,4.000000,4.000000,4.000000,0.000000,0.328925,0.145752,0.877930,0.315918,0.555673,-0.576181,0.606455,4.516611,-48.778233,57.250854,,,,,,,,,,,,,,,,,,,,,,,,,
1577742233.410770,9.000000,0.000000,4230.256348,4355.384766,4130.769043,4126.666504,4198.974121,16194.000000,4.000000,,,,0.000000,4.000000,4.000000,4.000000,4.000000,4.000000,,,,,,,,,,,,,,,,,,,,,,,,,,,,,,,,,,,,,
1577742233.418466,10.000000,0.000000,4242.563965,4337.948730,4142.051270,4140.512695,4210.256348,450.000000,4.000000,,,,0.000000,4.000000,4.000000,4.000000,4.000000,4.000000,5.000000,0.000000,0.328690,0.145752,0.877930,0.316162,0.547860,-0.577157,0.600595,4.842549,-48.805271,57.626938,,,,,,,,,,,,,,,,,,,,,,,,,
1577742233.426263,11.000000,0.000000,4228.205078,4347.692383,4123.077148,4140.000000,4190.769043,16211.000000,4.000000,,,,0.000000,4.000000,4.000000,4.000000,4.000000,4.000000,,,,,,,,,,,,,3.940247,3.327570,10.269408,3.323657,4.489408,0.565429,0.926771,1.022119,1.970647,4.309060,3.533850,4.157917,9.697033,2.540606,3.130007,2.747776,2.450388,10.198473,3.953562,5.174240,3.043619,2.982303,12.279366,3.846851,4.681673
1577742233.433960,12.000000,0.000000,4236.922852,4371.794922,4131.794922,4141.025879,4198.974121,450.000000,4.000000,,,,0.000000,4.000000,4.000000,4.000000,4.000000,4.000000,6.000000,0.000000,0.328799,0.145508,0.877930,0.316162,0.550790,-0.571298,0.605966,5.135894,-48.829601,57.965412,,,,,,,,,,,,,,,,,,,,,,,,,
1577742233.441756,13.000000,0.000000,4285.128418,4359.487305,4175.897461,4174.358887,4255.384766,450.000000,4.000000,,,,0.000000,4.000000,4.000000,4.000000,4.000000,4.000000,,,,,,,,,,,,,,,,,,,,,,,,,,,,,,,,,,,,,
1577742233.449452,14.000000,0.000000,4277.436035,4320.000000,4166.666504,4167.692383,4250.256348,450.000000,4.000000,,,,0.000000,4.000000,4.000000,4.000000,4.000000,4.000000,7.000000,0.000000,0.328799,0.145508,0.877930,0.316162,0.547372,-0.569833,0.613779,8.091597,-48.731873,58.270035,,,,,,,,,,,,,,,,,,,,,,,,,
1577742233.457249,15.000000,0.000000,4226.153809,4334.358887,4130.256348,4121.025879,4201.538574,16211.000000,4.000000,,,,0.000000,4.000000,4.000000,4.000000,4.000000,4.000000,,,,,,,,,,,,,,,,,,,,,,,,,,,,,,,,,,,,,
1577742233.464945,16.000000,0.000000,4232.820313,4366.666504,4140.512695,4120.512695,4215.384766,0.000000,4.000000,,,,0.000000,4.000000,4.000000,4.000000,4.000000,4.000000,8.000000,0.000000,0.328799,0.145508,0.877930,0.316162,0.555184,-0.570321,0.605478,8.060037,-48.763546,58.544201,,,,,,,,,,,,,,,,,,,,,,,,,
1577742233.472741,17.000000,0.000000,4236.410156,4327.692383,4132.307617,4123.589844,4221.025879,0.000000,4.000000,,,,0.000000,4.000000,4.000000,4.000000,4.000000,4.000000,,,,,,,,,,,,,,,,,,,,,,,,,,,,,,,,,,,,,
1577742233.480438,18.000000,0.000000,4215.384766,4315.897461,4115.384766,4108.717773,4197.948730,0.000000,4.000000,,,,0.000000,4.000000,4.000000,4.000000,4.000000,4.000000,9.000000,0.000000,0.328564,0.145508,0.877930,0.316406,0.548837,-0.560555,0.619150,4.083818,-48.732235,58.970394,,,,,,,,,,,,,,,,,,,,,,,,,
1577742233.488234,19.000000,0.000000,4252.820313,4374.871582,4155.897461,4144.102539,4238.461426,0.000000,4.000000,,,,0.000000,4.000000,4.000000,4.000000,4.000000,4.000000,,,,,,,,,,,,,,,,,,,,,,,,,,,,,,,,,,,,,
1577742233.495930,20.000000,0.000000,4278.974121,4363.589844,4167.692383,4163.589844,4264.615234,0.000000,4.000000,,,,0.000000,4.000000,4.000000,4.000000,4.000000,4.000000,10.000000,0.000000,0.328564,0.145508,0.877930,0.316406,0.561532,-0.569345,0.614267,4.512852,-48.823685,59.174522,,,,,,,,,,,,,,,,,,,,,,,,,
1577742233.503727,21.000000,0.000000,4232.307617,4312.307617,4119.487305,4113.846191,4210.256348,0.000000,4.000000,,,,0.000000,4.000000,4.000000,4.000000,4.000000,4.000000,,,,,,,,,,,,,,,,,,,,,,,,,,,,,,,,,,,,,
1577742233.511423,22.000000,0.000000,4209.743652,4345.128418,4114.358887,4103.077148,4191.794922,0.000000,4.000000,,,,0.000000,4.000000,4.000000,4.000000,4.000000,4.000000,11.000000,0.000000,0.328564,0.145508,0.877930,0.316406,0.542000,-0.575692,0.616709,0.951167,-48.786362,57.324512,,,,,,,,,,,,,,,,,,,,,,,,,
1577742233.519120,23.000000,0.000000,4255.897461,4396.922852,4168.205078,4156.922852,4247.179688,0.000000,4.000000,,,,0.000000,4.000000,4.000000,4.000000,4.000000,4.000000,,,,,,,,,,,,,,,,,,,,,,,,,,,,,,,,,,,,,
1577742233.526916,24.000000,0.000000,4287.692383,4365.641113,4185.128418,4177.948730,4276.410156,0.000000,4.000000,,,,0.000000,4.000000,4.000000,4.000000,4.000000,4.000000,12.000000,0.000000,0.328564,0.145508,0.877930,0.316406,0.561532,-0.569833,0.603525,4.385157,-48.872402,57.812862,,,,,,,,,,,,,,,,,,,,,,,,,
1577742233.534613,25.000000,0.000000,4268.205078,4320.000000,4147.692383,4151.794922,4251.282227,0.000000,4.000000,,,,0.000000,4.000000,4.000000,4.000000,4.000000,4.000000,,,,,,,,,,,,,,,,,,,,,,,,,,,,,,,,,,,,,
1577742233.542409,26.000000,0.000000,4246.153809,4346.153809,4130.256348,4137.948730,4237.436035,0.000000,4.000000,,,,0.000000,4.000000,4.000000,4.000000,4.000000,4.000000,13.000000,0.000000,0.328564,0.145508,0.877930,0.316406,0.547860,-0.580087,0.600107,4.664426,-49.009651,58.072926,,,,,,,,,,,,,,,,,,,,,,,,,
1577742233.550106,27.000000,0.000000,4242.051270,4386.666504,4148.205078,4138.461426,4249.743652,0.000000,4.000000,,,,0.000000,4.000000,4.000000,4.000000,4.000000,4.000000,,,,,,,,,,,,,3.930719,2.267407,8.422036,3.464796,4.803965,0.703111,0.791824,0.838651,1.907745,3.855194,3.353450,2.985878,7.702001,2.862260,3.303003,2.561444,1.667802,7.945051,4.079530,5.414271,2.794127,2.260792,10.027500,4.007291,4.953017
1577742233.557903,28.000000,0.000000,4225.128418,4351.282227,4135.384766,4118.461426,4236.410156,0.000000,4.000000,,,,0.000000,4.000000,4.000000,4.000000,4.000000,4.000000,14.000000,0.000000,0.328564,0.145508,0.877930,0.316406,0.542977,-0.577646,0.605478,4.915768,-49.013546,58.306988,,,,,,,,,,,,,,,,,,,,,,,,,
1577742233.565599,29.000000,0.000000,4189.743652,4288.717773,4087.692383,4085.641113,4198.461426,0.000000,4.000000,,,,0.000000,4.000000,4.000000,4.000000,4.000000,4.000000,,,,,,,,,,,,,,,,,,,,,,,,,,,,,,,,,,,,,
1577742233.573396,30.000000,0.000000,4191.794922,4322.051270,4091.281982,4093.846191,4203.589844,0.000000,4.000000,,,,0.000000,4.000000,4.000000,4.000000,4.000000,4.000000,15.000000,0.000000,0.328564,0.145508,0.877930,0.316406,0.541512,-0.568856,0.605478,5.141975,-48.957237,58.637272,,,,,,,,,,,,,,,,,,,,,,,,,
1577742233.581092,31.000000,0.000000,4233.846191,4389.230957,4138.461426,4139.487305,4249.743652,0.000000,4.000000,,,,0.000000,4.000000,4.000000,4.000000,4.000000,4.000000,,,,,,,,,,,,,,,,,,,,,,,,,,,,,,,,,,,,,
1577742233.588889,32.000000,0.000000,4255.384766,4364.615234,4154.358887,4163.589844,4262.563965,0.000000,4.000000,,,,0.000000,4.000000,4.000000,4.000000,4.000000,4.000000,16.000000,0.000000,0.328328,0.145508,0.877930,0.316650,0.550301,-0.561044,0.610849,1.637010,-49.026188,58.934525,,,,,,,,,,,,,,,,,,,,,,,,,
1577742233.596586,33.000000,0.000000,4234.358887,4321.538574,4140.000000,4152.820313,4234.358887,0.000000,4.000000,,,,0.000000,4.000000,4.000000,4.000000,4.000000,4.000000,,,,,,,,,,,,,,,,,,,,,,,,,,,,,,,,,,,,,
1577742233.604382,34.000000,0.000000,4213.846191,4337.436035,4129.743652,4140.512695,4221.538574,0.000000,4.000000,,,,0.000000,4.000000,4.000000,4.000000,4.000000,4.000000,17.000000,0.000000,0.328328,0.145508,0.877930,0.316650,0.546395,-0.573739,0.608896,5.062231,-49.088245,59.142242,,,,,,,,,,,,,,,,,,,,,,,,,
1577742233.612079,35.000000,0.000000,4205.641113,4347.179688,4113.846191,4124.615234,4218.974121,0.000000,4.000000,,,,0.000000,4.000000,4.000000,4.000000,4.000000,4.000000,,,,,,,,,,,,,,,,,,,,,,,,,,,,,,,,,,,,,
1577742233.619875,36.000000,0.000000,4184.615234,4327.179688,4089.743652,4099.487305,4200.000000,0.000000,4.000000,,,,0.000000,4.000000,4.000000,4.000000,4.000000,4.000000,18.000000,0.000000,0.328328,0.145508,0.877930,0.316650,0.556649,-0.577646,0.615732,8.085114,-48.845020,59.209553,,,,,,,,,,,,,,,,,,,,,,,,,
1577742233.627572,37.000000,0.000000,4173.846191,4329.230957,4091.281982,4095.384521,4187.692383,0.000000,4.000000,,,,0.000000,4.000000,4.000000,4.000000,4.000000,4.000000,,,,,,,,,,,,,,,,,,,,,,,,,,,,,,,,,,,,,
1577742233.635368,38.000000,0.000000,4198.461426,4346.666504,4114.871582,4115.384766,4201.538574,0.000000,4.000000,,,,0.000000,4.000000,4.000000,4.000000,4.000000,4.000000,19.000000,0.000000,0.328328,0.145508,0.877930,0.316650,0.548837,-0.572274,0.600595,10.865524,-48.865376,59.449581,,,,,,,,,,,,,,,,,,,,,,,,,
1577742233.643065,39.000000,0.000000,4227.179688,4352.820313,4133.333496,4134.358887,4223.077148,0.000000,4.000000,,,,0.000000,4.000000,4.000000,4.000000,4.000000,4.000000,,,,,,,,,,,,,,,,,,,,,,,,,,,,,,,,,,,,,
1577742233.650861,40.000000,0.000000,4231.282227,4352.820313,4138.461426,4146.153809,4232.820313,0.000000,4.000000,,,,0.000000,4.000000,4.000000,4.000000,4.000000,4.000000,20.000000,0.000000,0.328637,0.145752,0.877686,0.316895,0.552254,-0.554208,0.598154,6.728388,-48.704254,59.725422,,,,,,,,,,,,,,,,,,,,,,,,,
1577742233.658557,41.000000,0.000000,4229.230957,4333.846191,4138.461426,4156.410156,4231.794922,0.000000,4.000000,,,,0.000000,4.000000,4.000000,4.000000,4.000000,4.000000,,,,,,,,,,,,,,,,,,,,,,,,,,,,,,,,,,,,,
1577742233.666254,42.000000,0.000000,4237.436035,4316.410156,4143.589844,4156.922852,4236.922852,0.000000,4.000000,,,,0.000000,4.000000,4.000000,4.000000,4.000000,4.000000,21.000000,0.000000,0.328637,0.145752,0.877686,0.316895,0.539559,-0.568368,0.605478,9.584656,-48.678871,59.913860,,,,,,,,,,,,,,,,,,,,,,,,,
1577742233.674051,43.000000,0.000000,4235.384766,4331.282227,4140.512695,4137.948730,4234.358887,0.000000,4.000000,,,,0.000000,4.000000,4.000000,4.000000,4.000000,4.000000,,,,,,,,,,,,,4.067976,1.918483,6.571025,3.857221,5.189692,0.857357,0.736915,0.676889,1.946386,3.333712,3.077665,2.388046,5.842491,3.424659,3.573834,2.421243,1.395120,5.663357,4.393089,5.729374,2.861438,2.286267,7.589757,4.307172,5.279964
1577742233.681747,44.000000,0.000000,4223.077148,4353.333496,4130.769043,4123.589844,4218.974121,0.000000,4.000000,,,,0.000000,4.000000,4.000000,4.000000,4.000000,4.000000,22.000000,0.000000,0.328637,0.145752,0.877686,0.316895,0.547372,-0.577157,0.607431,12.274928,-48.775661,60.023643,,,,,,,,,,,,,,,,,,,,,,,,,
1577742233.689544,45.000000,0.000000,4220.000000,4345.641113,4132.820313,4127.692383,4213.846191,0.000000,4.000000,,,,0.000000,4.000000,4.000000,4.000000,4.000000,4.000000,,,,,,,,,,,,,,,,,,,,,,,,,,,,,,,,,,,,,
1577742233.697240,46.000000,0.000000,4212.307617,4315.897461,4135.384766,4124.102539,4209.230957,0.000000,4.000000,,,,0.000000,4.000000,4.000000,4.000000,4.000000,4.000000,23.000000,0.000000,0.328510,0.145508,0.877686,0.317139,0.549813,-0.567880,0.606455,7.996851,-48.623508,60.242077,,,,,,,,,,,,,,,,,,,,,,,,,
1577742233.705037,47.000000,0.000000,4202.563965,4322.563965,4131.282227,4113.333496,4203.589844,0.000000,4.000000,,,,0.000000,4.000000,4.000000,4.000000,4.000000,4.000000,,,,,,,,,,,,,,,,,,,,,,,,,,,,,,,,,,,,,
1577742233.712734,48.000000,0.000000,4218.974121,4363.077148,4144.102539,4133.846191,4221.538574,0.000000,4.000000,,,,0.000000,4.000000,4.000000,4.000000,4.000000,4.000000,24.000000,0.000000,0.328510,0.145508,0.877686,0.317139,0.558114,-0.574228,0.602548,8.034581,-48.486572,58.404945,,,,,,,,,,,,,,,,,,,,,,,,,
1577742233.720530,49.000000,0.000000,4222.051270,4364.615234,4152.820313,4156.410156,4226.153809,0.000000,4.000000,,,,0.000000,4.000000,4.000000,4.000000,4.000000,4.000000,,,,,,,,,,,,,,,,,,,,,,,,,,,,,,,,,,,,,
1577742233.728227,50.000000,0.000000,4187.179688,4331.282227,4134.358887,4131.282227,4192.307617,0.000000,4.000000,,,,0.000000,4.000000,4.000000,4.000000,4.000000,4.000000,25.000000,0.000000,0.328510,0.145508,0.877686,0.317139,0.545907,-0.575692,0.606455,7.948908,-48.602589,58.725433,,,,,,,,,,,,,,,,,,,,,,,,,
1577742233.736023,51.000000,0.000000,4174.358887,4325.128418,4124.102539,4101.538574,4174.358887,0.000000,4.000000,,,,0.000000,4.000000,4.000000,4.000000,4.000000,4.000000,,,,,,,,,,,,,,,,,,,,,,,,,,,,,,,,,,,,,
1577742233.743820,52.000000,0.000000,4178.461426,4331.282227,4131.794922,4104.615234,4178.974121,0.000000,4.000000,,,,0.000000,4.000000,4.000000,4.000000,4.000000,4.000000,26.000000,0.000000,0.328093,0.145508,0.877930,0.316895,0.553231,-0.575204,0.605478,10.802754,-48.766823,58.894241,,,,,,,,,,,,,,,,,,,,,,,,,
1577742233.751516,53.000000,0.000000,4169.230957,4333.333496,4132.820313,4114.358887,4173.846191,0.000000,4.000000,,,,0.000000,4.000000,4.000000,4.000000,4.000000,4.000000,,,,,,,,,,,,,,,,,,,,,,,,,,,,,,,,,,,,,
1577742233.759213,54.000000,0.000000,4172.820313,4352.820313,4130.256348,4113.333496,4176.922852,0.000000,4.000000,,,,0.000000,4.000000,4.000000,4.000000,4.000000,4.000000,27.000000,0.000000,0.328093,0.145508,0.877930,0.316895,0.549813,-0.572274,0.609873,9.543033,-48.794998,59.105984,,,,,,,,,,,,,,,,,,,,,,,,,
1577742233.766909,55.000000,0.000000,4184.102539,4365.128418,4137.436035,4114.871582,4192.820313,0.000000,4.000000,,,,0.000000,4.000000,4.000000,4.000000,4.000000,4.000000,,,,,,,,,,,,,,,,,,,,,,,,,,,,,,,,,,,,,
1577742233.774706,56.000000,0.000000,4168.205078,4345.641113,4138.974121,4112.820313,4183.077148,0.000000,4.000000,,,,0.000000,4.000000,4.000000,4.000000,4.000000,4.000000,28.000000,0.000000,0.328093,0.145508,0.877930,0.316895,0.555184,-0.555184,0.606943,12.177651,-48.820358,59.416183,,,,,,,,,,,,,,,,,,,,,,,,,
1577742233.782502,57.000000,0.000000,4153.333496,4329.743652,4125.128418,4100.000000,4161.538574,0.000000,4.000000,,,,0.000000,4.000000,4.000000,4.000000,4.000000,4.000000,,,,,,,,,,,,,,,,,,,,,,,,,,,,,,,,,,,,,
1577742233.790299,58.000000,0.000000,4189.230957,4344.102539,4138.974121,4113.333496,4185.128418,0.000000,4.000000,,,,0.000000,4.000000,4.000000,4.000000,4.000000,4.000000,29.000000,0.000000,0.328328,0.145508,0.877930,0.316650,0.546395,-0.572763,0.604501,11.737486,-48.783367,59.695362,,,,,,,,,,,,,,,,,,,,,,,,,
1577742233.797995,59.000000,0.000000,4230.256348,4363.077148,4173.846191,4142.051270,4224.615234,0.000000,4.000000,,,,0.000000,4.000000,4.000000,4.000000,4.000000,4.000000,,,,,,,,,,,,,4.335328,2.012016,5.102034,4.383884,5.559850,0.967768,0.753246,0.561867,2.044064,2.903444,2.769963,2.249563,4.538239,4.034685,3.890491,2.352265,1.430740,3.909267,4.816222,6.037680,3.111146,2.701583,5.519737,4.617671,5.603505
1577742233.805692,60.000000,0.000000,4213.846191,4350.769043,4161.025879,4126.153809,4207.179688,0.000000,4.000000,,,,0.000000,4.000000,4.000000,4.000000,4.000000,4.000000,30.000000,0.000000,0.328328,0.145508,0.877930,0.316650,0.554208,-0.568856,0.606943,10.264661,-48.809891,60.006439,,,,,,,,,,,,,,,,,,,,,,,,,
1577742233.813389,61.000000,0.000000,4186.153809,4316.410156,4129.230957,4100.512695,4178.974121,0.000000,4.000000,,,,0.000000,4.000000,4.000000,4.000000,4.000000,4.000000,,,,,,,,,,,,,,,,,,,,,,,,,,,,,,,,,,,,,
1577742233.821185,62.000000,0.000000,4186.666504,4310.256348,4127.179688,4103.589844,4180.000000,0.000000,4.000000,,,,0.000000,4.000000,4.000000,4.000000,4.000000,4.000000,31.000000,0.000000,0.328328,0.145508,0.877930,0.316650,0.542489,-0.561532,0.621592,10.195240,-48.833763,58.192871,,,,,,,,,,,,,,,,,,,,,,,,,
1577742233.828982,63.000000,0.000000,4175.897461,4344.102539,4125.641113,4096.410156,4166.666504,0.000000,4.000000,,,,0.000000,4.000000,4.000000,4.000000,4.000000,4.000000,,,,,,,,,,,,,,,,,,,,,,,,,,,,,,,,,,,,,
1577742233.836678,64.000000,0.000000,4170.256348,4360.000000,4130.769043,4103.077148,4160.512695,450.000000,4.000000,,,,0.000000,4.000000,4.000000,4.000000,4.000000,4.000000,32.000000,0.000000,0.328328,0.145508,0.877930,0.316650,0.546395,-0.572763,0.604501,12.944084,-48.915062,56.560661,,,,,,,,,,,,,,,,,,,,,,,,,
1577742233.844474,65.000000,0.000000,4184.102539,4322.563965,4140.512695,4130.256348,4180.000000,450.000000,4.000000,,,,0.000000,4.000000,4.000000,4.000000,4.000000,4.000000,,,,,,,,,,,,,,,,,,,,,,,,,,,,,,,,,,,,,
1577742233.852171,66.000000,0.000000,4169.743652,4304.102539,4127.692383,4110.769043,4166.666504,16222.000000,4.000000,,,,0.000000,4.000000,4.000000,4.000000,4.000000,4.000000,33.000000,0.000000,0.328328,0.145508,0.877930,0.316650,0.542489,-0.561532,0.621592,12.606722,-48.928413,55.091671,,,,,,,,,,,,,,,,,,,,,,,,,
1577742233.859967,67.000000,0.000000,4167.179688,4355.897461,4133.333496,4093.846191,4157.948730,450.000000,4.000000,,,,0.000000,4.000000,4.000000,4.000000,4.000000,4.000000,,,,,,,,,,,,,,,,,,,,,,,,,,,,,,,,,,,,,
1577742233.867663,68.000000,0.000000,4211.794922,4378.974121,4165.641113,4132.820313,4199.487305,16258.000000,4.000000,,,,0.000000,4.000000,4.000000,4.000000,4.000000,4.000000,34.000000,0.000000,0.328564,0.145508,0.877930,0.316406,0.559091,-0.569345,0.611337,14.994787,-49.000248,55.683670,,,,,,,,,,,,,,,,,,,,,,,,,
1577742233.875460,69.000000,0.000000,4207.692383,4317.948730,4143.589844,4125.641113,4196.922852,450.000000,4.000000,,,,0.000000,4.000000,4.000000,4.000000,4.000000,4.000000,,,,,,,,,,,,,,,,,,,,,,,,,,,,,,,,,,,,,
1577742233.883156,70.000000,0.000000,4160.000000,4296.410156,4102.563965,4070.769287,4150.769043,16156.000000,4.000000,,,,0.000000,4.000000,4.000000,4.000000,4.000000,4.000000,35.000000,0.000000,0.328019,0.145264,0.878174,0.316406,0.538094,-0.558602,0.620127,10.265279,-48.945271,56.336102,,,,,,,,,,,,,,,,,,,,,,,,,
1577742233.890952,71.000000,0.000000,4172.820313,4355.897461,4124.102539,4085.128174,4162.051270,450.000000,4.000000,,,,0.000000,4.000000,4.000000,4.000000,4.000000,4.000000,,,,,,,,,,,,,,,,,,,,,,,,,,,,,,,,,,,,,
1577742233.898649,72.000000,0.000000,4213.846191,4373.333496,4162.051270,4136.922852,4203.589844,450.000000,4.000000,,,,0.000000,4.000000,4.000000,4.000000,4.000000,4.000000,36.000000,0.000000,0.328019,0.145264,0.878174,0.316406,0.553719,-0.568368,0.608896,9.956535,-48.895786,56.863476,,,,,,,,,,,,,,,,,,,,,,,,,
1577742233.906445,73.000000,0.000000,4226.153809,4344.615234,4171.794922,4150.256348,4224.615234,16205.000000,4.000000,,,,0.000000,4.000000,4.000000,4.000000,4.000000,4.000000,,,,,,,,,,,,,,,,,,,,,,,,,,,,,,,,,,,,,
1577742233.914141,74.000000,0.000000,4220.000000,4347.692383,4165.128418,4133.846191,4222.563965,450.000000,4.000000,,,,0.000000,4.000000,4.000000,4.000000,4.000000,4.000000,37.000000,0.000000,0.328019,0.145264,0.878174,0.316406,0.559091,-0.562997,0.602548,12.549804,-48.791435,57.278294,,,,,,,,,,,,,,,,,,,,,,,,,
1577742233.921938,75.000000,0.000000,4225.641113,4362.563965,4162.563965,4129.230957,4224.615234,16217.000000,4.000000,,,,0.000000,4.000000,4.000000,4.000000,4.000000,4.000000,,,,,,,,,,,,,4.703210,2.254919,4.265012,4.883475,5.781040,0.996481,0.812365,0.503608,2.140831,2.723349,2.582840,2.312052,3.943158,4.482918,4.160803,2.332139,1.559682,3.057446,5.231007,6.202031,3.389202,3.112199,4.159465,4.812132,5.818085
1577742233.929634,76.000000,0.000000,4235.897461,4351.794922,4164.615234,4132.307617,4235.384766,450.000000,4.000000,,,,0.000000,4.000000,4.000000,4.000000,4.000000,4.000000,38.000000,0.000000,0.328019,0.145264,0.878174,0.316406,0.544442,-0.577646,0.617197,12.072423,-48.876968,57.651630,,,,,,,,,,,,,,,,,,,,,,,,,
1577742233.937331,77.000000,0.000000,4218.974121,4341.538574,4151.794922,4116.922852,4229.743652,450.000000,4.000000,,,,0.000000,4.000000,4.000000,4.000000,4.000000,4.000000,,,,,,,,,,,,,,,,,,,,,,,,,,,,,,,,,,,,,
1577742233.945127,78.000000,0.000000,4198.461426,4331.794922,4137.948730,4111.282227,4215.384766,450.000000,4.000000,,,,0.000000,4.000000,4.000000,4.000000,4.000000,4.000000,39.000000,0.000000,0.328127,0.145020,0.878174,0.316406,0.538094,-0.574228,0.604501,11.762411,-48.894131,57.868004,,,,,,,,,,,,,,,,,,,,,,,,,
1577742233.952824,79.000000,0.000000,4202.563965,4326.153809,4144.615234,4127.179688,4211.282227,16217.000000,4.000000,,,,0.000000,4.000000,4.000000,4.000000,4.000000,4.000000,,,,,,,,,,,,,,,,,,,,,,,,,,,,,,,,,,,,,
1577742233.960620,80.000000,0.000000,4200.000000,4349.230957,4148.205078,4129.743652,4207.179688,450.000000,4.000000,,,,0.000000,4.000000,4.000000,4.000000,4.000000,4.000000,40.000000,0.000000,0.328127,0.145020,0.878174,0.316406,0.546395,-0.577157,0.605966,11.303954,-48.909580,58.182373,,,,,,,,,,,,,,,,,,,,,,,,,
1577742233.968317,81.000000,0.000000,4186.153809,4356.410156,4137.948730,4122.563965,4194.358887,450.000000,4.000000,,,,0.000000,4.000000,4.000000,4.000000,4.000000,4.000000,,,,,,,,,,,,,,,,,,,,,,,,,,,,,,,,,,,,,
1577742233.976114,82.000000,0.000000,4205.641113,4343.077148,4149.743652,4146.153809,4211.282227,450.000000,4.000000,,,,0.000000,4.000000,4.000000,4.000000,4.000000,4.000000,41.000000,0.000000,0.328127,0.145020,0.878174,0.316406,0.542977,-0.561532,0.598154,6.943529,-48.803848,58.465302,,,,,,,,,,,,,,,,,,,,,,,,,
1577742233.983810,83.000000,0.000000,4231.282227,4350.769043,4166.153809,4163.077148,4234.871582,16217.000000,4.000000,,,,0.000000,4.000000,4.000000,4.000000,4.000000,4.000000,,,,,,,,,,,,,,,,,,,,,,,,,,,,,,,,,,,,,
1577742233.991607,84.000000,0.000000,4220.512695,4353.333496,4157.436035,4138.974121,4222.563965,450.000000,4.000000,,,,0.000000,4.000000,4.000000,4.000000,4.000000,4.000000,42.000000,0.000000,0.328127,0.145020,0.878174,0.316406,0.556649,-0.570809,0.609384,9.838099,-48.947956,58.839569,,,,,,,,,,,,,,,,,,,,,,,,,
1577742233.999303,85.000000,0.000000,4210.256348,4342.563965,4150.769043,4132.307617,4211.794922,450.000000,4.000000,,,,0.000000,4.000000,4.000000,4.000000,4.000000,4.000000,,,,,,,,,,,,,,,,,,,,,,,,,,,,,,,,,,,,,
1577742234.007100,86.000000,0.000000,4222.051270,4344.102539,4156.410156,4153.333496,4223.589844,450.000000,4.000000,,,,0.000000,4.000000,4.000000,4.000000,4.000000,4.000000,43.000000,0.000000,0.328235,0.144775,0.878174,0.316406,0.562509,-0.573739,0.603525,5.743889,-48.838390,59.176411,,,,,,,,,,,,,,,,,,,,,,,,,
1577742234.014797,87.000000,0.000000,4213.846191,4341.538574,4150.256348,4148.717773,4215.384766,16217.000000,4.000000,,,,0.000000,4.000000,4.000000,4.000000,4.000000,4.000000,,,,,,,,,,,,,,,,,,,,,,,,,,,,,,,,,,,,,
1577742234.022593,88.000000,0.000000,4163.077148,4331.794922,4116.410156,4105.641113,4166.666504,450.000000,4.000000,,,,0.000000,4.000000,4.000000,4.000000,4.000000,4.000000,44.000000,0.000000,0.328235,0.144775,0.878174,0.316406,0.530770,-0.561044,0.608896,8.818237,-48.799595,57.266399,,,,,,,,,,,,,,,,,,,,,,,,,
1577742234.030290,89.000000,0.000000,4137.436035,4335.384766,4100.512695,4083.589844,4140.000000,450.000000,4.000000,,,,0.000000,4.000000,4.000000,4.000000,4.000000,4.000000,,,,,,,,,,,,,,,,,,,,,,,,,,,,,,,,,,,,,
1577742234.038086,90.000000,0.000000,4179.487305,4349.230957,4140.000000,4122.563965,4176.410156,450.000000,4.000000,,,,0.000000,4.000000,4.000000,4.000000,4.000000,4.000000,45.000000,0.000000,0.328652,0.144775,0.877930,0.316650,0.559579,-0.575692,0.609873,8.594383,-48.944126,55.667019,,,,,,,,,,,,,,,,,,,,,,,,,
1577742234.045783,91.000000,0.000000,4205.641113,4370.769043,4169.230957,4153.333496,4211.794922,16217.000000,4.000000,,,,0.000000,4.000000,4.000000,4.000000,4.000000,4.000000,,,,,,,,,,,,,5.122509,2.451666,4.116229,5.239434,5.737601,0.948865,0.885158,0.510797,2.188270,2.883442,2.582832,2.328387,3.970393,4.646036,4.287898,2.291160,1.624234,3.196805,5.540351,6.092261,3.598059,3.287859,3.569911,4.839504,5.814744
1577742234.053579,92.000000,0.000000,4169.743652,4367.692383,4140.000000,4121.025879,4186.666504,450.000000,4.000000,,,,0.000000,4.000000,4.000000,4.000000,4.000000,4.000000,46.000000,0.000000,0.328652,0.144775,0.877930,0.316650,0.550301,-0.565438,0.612802,4.445099,-48.954575,54.167763,,,,,,,,,,,,,,,,,,,,,,,,,
1577742234.061275,93.000000,0.000000,4146.153809,4326.666504,4122.051270,4094.871826,4153.333496,450.000000,4.000000,,,,0.000000,4.000000,4.000000,4.000000,4.000000,4.000000,,,,,,,,,,,,,,,,,,,,,,,,,,,,,,,,,,,,,
1577742234.069072,94.000000,0.000000,4176.410156,4325.128418,4147.692383,4129.743652,4174.871582,450.000000,4.000000,,,,0.000000,4.000000,4.000000,4.000000,4.000000,4.000000,47.000000,0.000000,0.328652,0.144775,0.877930,0.316650,0.555184,-0.577646,0.617197,0.830375,-48.963978,54.911968,,,,,,,,,,,,,,,,,,,,,,,,,
1577742234.076768,95.000000,0.000000,4182.563965,4362.563965,4146.153809,4143.589844,4186.153809,16217.000000,4.000000,,,,0.000000,4.000000,4.000000,4.000000,4.000000,4.000000,,,,,,,,,,,,,,,,,,,,,,,,,,,,,,,,,,,,,
1577742234.084465,96.000000,0.000000,4155.384766,4357.948730,4124.102539,4115.897461,4158.974121,450.000000,4.000000,,,,0.000000,4.000000,4.000000,4.000000,4.000000,4.000000,48.000000,0.000000,0.328652,0.144775,0.877930,0.316650,0.557626,-0.572274,0.610361,0.567892,-49.092068,55.521938,,,,,,,,,,,,,,,,,,,,,,,,,
1577742234.092261,97.000000,0.000000,4169.743652,4327.692383,4141.025879,4124.102539,4169.230957,450.000000,4.000000,,,,0.000000,4.000000,4.000000,4.000000,4.000000,4.000000,,,,,,,,,,,,,,,,,,,,,,,,,,,,,,,,,,,,,
1577742234.099958,98.000000,0.000000,4193.333496,4327.692383,4156.410156,4137.948730,4193.333496,450.000000,4.000000,,,,0.000000,4.000000,4.000000,4.000000,4.000000,4.000000,49.000000,0.000000,0.328887,0.144775,0.877930,0.316406,0.537118,-0.577646,0.614755,3.980394,-49.147537,56.250359,,,,,,,,,,,,,,,,,,,,,,,,,
1577742234.107754,99.000000,0.000000,4175.897461,4347.179688,4137.436035,4111.282227,4173.846191,16217.000000,4.000000,,,,0.000000,4.000000,4.000000,4.000000,4.000000,4.000000,,,,,,,,,,,,,,,,,,,,,,,,,,,,,,,,,,,,,
1577742234.115451,100.000000,0.000000,4173.333496,4358.974121,4129.743652,4106.666504,4168.205078,450.000000,4.000000,,,,0.000000,4.000000,4.000000,4.000000,4.000000,4.000000,50.000000,0.000000,0.328887,0.144775,0.877930,0.316406,0.541512,-0.580575,0.596201,4.300138,-49.137646,56.905937,,,,,,,,,,,,,,,,,,,,,,,,,
1577742234.123247,101.000000,0.000000,4211.282227,4365.641113,4156.922852,4135.897461,4206.666504,450.000000,4.000000,,,,0.000000,4.000000,4.000000,4.000000,4.000000,4.000000,,,,,,,,,,,,,,,,,,,,,,,,,,,,,,,,,,,,,
1577742234.130944,102.000000,0.000000,4226.666504,4355.384766,4172.820313,4144.615234,4223.077148,450.000000,4.000000,,,,0.000000,4.000000,4.000000,4.000000,4.000000,4.000000,51.000000,0.000000,0.328779,0.145020,0.877930,0.316406,0.555184,-0.561044,0.611337,0.699910,-49.128738,55.522049,,,,,,,,,,,,,,,,,,,,,,,,,
1577742234.138741,103.000000,0.000000,4201.538574,4331.794922,4151.282227,4130.256348,4201.025879,16217.000000,4.000000,,,,0.000000,4.000000,4.000000,4.000000,4.000000,4.000000,,,,,,,,,,,,,,,,,,,,,,,,,,,,,,,,,,,,,
1577742234.146437,104.000000,0.000000,4180.512695,4331.794922,4128.717773,4116.922852,4180.512695,450.000000,4.000000,,,,0.000000,4.000000,4.000000,4.000000,4.000000,4.000000,52.000000,0.000000,0.328779,0.145020,0.877930,0.316406,0.540047,-0.560555,0.608408,-2.420664,-49.180542,56.071011,,,,,,,,,,,,,,,,,,,,,,,,,
1577742234.154234,105.000000,0.000000,4181.025879,4348.717773,4133.846191,4111.794922,4177.948730,450.000000,4.000000,,,,0.000000,4.000000,4.000000,4.000000,4.000000,4.000000,,,,,,,,,,,,,,,,,,,,,,,,,,,,,,,,,,,,,
1577742234.161930,106.000000,0.000000,4192.307617,4351.282227,4150.256348,4126.666504,4188.717773,450.000000,4.000000,,,,0.000000,4.000000,4.000000,4.000000,4.000000,4.000000,53.000000,0.000000,0.328887,0.144775,0.877930,0.316406,0.556649,-0.570321,0.610849,-1.520629,-49.107533,56.624893,,,,,,,,,,,,,,,,,,,,,,,,,
1577742234.169727,107.000000,0.000000,4182.563965,4336.410156,4140.512695,4120.000000,4174.358887,16217.000000,4.000000,,,,0.000000,4.000000,4.000000,4.000000,4.000000,4.000000,,,,,,,,,,,,,5.618860,2.563080,4.523729,5.380073,5.406166,0.873254,0.940723,0.593912,2.164085,3.374690,2.735129,2.185150,4.390959,4.504825,4.219924,2.202985,1.555492,4.146721,5.667775,5.673133,3.774705,3.193022,3.590481,4.695230,5.551302
1577742234.177424,108.000000,0.000000,4169.230957,4342.563965,4128.717773,4094.358887,4158.461426,450.000000,4.000000,,,,0.000000,4.000000,4.000000,4.000000,4.000000,4.000000,54.000000,0.000000,0.328887,0.144775,0.877930,0.316406,0.543465,-0.574228,0.604990,2.160541,-49.221268,56.884125,,,,,,,,,,,,,,,,,,,,,,,,,
1577742234.185220,109.000000,0.000000,4186.153809,4358.461426,4142.563965,4105.128418,4184.615234,450.000000,4.000000,,,,0.000000,4.000000,4.000000,4.000000,4.000000,4.000000,,,,,,,,,,,,,,,,,,,,,,,,,,,,,,,,,,,,,
1577742234.192917,110.000000,0.000000,4197.436035,4347.692383,4149.743652,4123.077148,4204.102539,450.000000,4.000000,,,,0.000000,4.000000,4.000000,4.000000,4.000000,4.000000,55.000000,0.000000,0.328235,0.144775,0.878174,0.316406,0.549813,-0.573251,0.606455,2.482825,-49.144188,57.476326,,,,,,,,,,,,,,,,,,,,,,,,,
1577742234.200613,111.000000,0.000000,4211.282227,4355.384766,4158.461426,4136.410156,4213.846191,16217.000000,4.000000,,,,0.000000,4.000000,4.000000,4.000000,4.000000,4.000000,,,,,,,,,,,,,,,,,,,,,,,,,,,,,,,,,,,,,
1577742234.208410,112.000000,0.000000,4227.692383,4371.794922,4164.102539,4150.769043,4229.743652,450.000000,4.000000,,,,0.000000,4.000000,4.000000,4.000000,4.000000,4.000000,56.000000,0.000000,0.328235,0.144775,0.878174,0.316406,0.558114,-0.557626,0.609384,5.823464,-49.134628,57.889675,,,,,,,,,,,,,,,,,,,,,,,,,
1577742234.216206,113.000000,0.000000,4206.153809,4344.615234,4144.615234,4135.897461,4218.461426,450.000000,4.000000,,,,0.000000,4.000000,4.000000,4.000000,4.000000,4.000000,,,,,,,,,,,,,,,,,,,,,,,,,,,,,,,,,,,,,
1577742234.223903,114.000000,0.000000,4188.205078,4335.897461,4132.307617,4120.000000,4197.948730,450.000000,4.000000,,,,0.000000,4.000000,4.000000,4.000000,4.000000,4.000000,57.000000,0.000000,0.328235,0.144775,0.878174,0.316406,0.537118,-0.571786,0.602060,6.078533,-49.006393,58.142059,,,,,,,,,,,,,,,,,,,,,,,,,
1577742234.231599,115.000000,0.000000,4208.205078,4381.538574,4152.307617,4134.871582,4214.358887,16217.000000,4.000000,,,,0.000000,4.000000,4.000000,4.000000,4.000000,4.000000,,,,,,,,,,,,,,,,,,,,,,,,,,,,,,,,,,,,,
1577742234.239396,116.000000,0.000000,4209.743652,4374.358887,4160.000000,4132.820313,4224.615234,450.000000,4.000000,,,,0.000000,4.000000,4.000000,4.000000,4.000000,4.000000,58.000000,0.000000,0.328235,0.144775,0.878174,0.316406,0.549325,-0.571298,0.625498,8.939971,-49.070431,58.548653,,,,,,,,,,,,,,,,,,,,,,,,,
1577742234.247093,117.000000,0.000000,4175.384766,4314.358887,4137.948730,4098.974121,4194.358887,450.000000,4.000000,,,,0.000000,4.000000,4.000000,4.000000,4.000000,4.000000,,,,,,,,,,,,,,,,,,,,,,,,,,,,,,,,,,,,,
1577742234.254889,118.000000,0.000000,4169.743652,4325.641113,4134.358887,4088.718018,4185.641113,450.000000,4.000000,,,,0.000000,4.000000,4.000000,4.000000,4.000000,4.000000,59.000000,0.000000,0.328470,0.144775,0.878174,0.316162,0.537118,-0.571786,0.613779,8.584312,-48.948616,58.854771,,,,,,,,,,,,,,,,,,,,,,,,,
1577742234.262586,119.000000,0.000000,4210.256348,4386.153809,4171.282227,4132.820313,4232.307617,16217.000000,4.000000,,,,0.000000,4.000000,4.000000,4.000000,4.000000,4.000000,,,,,,,,,,,,,,,,,,,,,,,,,,,,,,,,,,,,,
1577742234.270382,120.000000,0.000000,4238.974121,4386.153809,4195.384766,4182.051270,4269.743652,450.000000,4.000000,,,,0.000000,4.000000,4.000000,4.000000,4.000000,4.000000,60.000000,0.000000,0.328362,0.145020,0.878174,0.316162,0.537606,-0.581064,0.608408,4.675297,-49.018429,59.010643,,,,,,,,,,,,,,,,,,,,,,,,,
1577742234.278079,121.000000,0.000000,4207.692383,4337.948730,4146.153809,4148.717773,4227.692383,450.000000,4.000000,,,,0.000000,4.000000,4.000000,4.000000,4.000000,4.000000,,,,,,,,,,,,,,,,,,,,,,,,,,,,,,,,,,,,,
1577742234.285875,122.000000,0.000000,4176.410156,4336.410156,4107.692383,4102.051270,4186.666504,450.000000,4.000000,,,,0.000000,4.000000,4.000000,4.000000,4.000000,4.000000,61.000000,0.000000,0.328235,0.144775,0.878174,0.316406,0.549325,-0.571298,0.625498,4.985367,-48.961632,59.270561,,,,,,,,,,,,,,,,,,,,,,,,,
1577742234.293672,123.000000,0.000000,4195.384766,4366.153809,4139.487305,4132.307617,4209.230957,16217.000000,4.000000,,,,0.000000,4.000000,4.000000,4.000000,4.000000,4.000000,,,,,,,,,,,,,6.240559,2.718363,5.273575,5.284208,4.862867,0.818060,0.961739,0.771657,2.075594,4.075809,2.961654,1.932314,4.980645,4.133483,3.966645,2.079482,1.390241,5.554389,5.572761,5.028605,4.102925,2.993200,4.016486,4.412519,5.073183
1577742234.301368,124.000000,0.000000,4206.153809,4356.922852,4146.153809,4141.538574,4213.846191,450.000000,4.000000,,,,0.000000,4.000000,4.000000,4.000000,4.000000,4.000000,62.000000,0.000000,0.328362,0.145020,0.878174,0.316162,0.537606,-0.581064,0.608408,1.436247,-49.030144,59.384857,,,,,,,,,,,,,,,,,,,,,,,,,
1577742234.309065,125.000000,0.000000,4188.205078,4328.205078,4107.692383,4091.281982,4174.358887,450.000000,4.000000,,,,0.000000,4.000000,4.000000,4.000000,4.000000,4.000000,,,,,,,,,,,,,,,,,,,,,,,,,,,,,,,,,,,,,
1577742234.316861,126.000000,0.000000,4188.205078,4318.974121,4107.692383,4081.538574,4165.128418,450.000000,4.000000,,,,0.000000,4.000000,4.000000,4.000000,4.000000,4.000000,63.000000,0.000000,0.328127,0.145020,0.878174,0.316406,0.545419,-0.560067,0.596201,2.070222,-48.972176,59.607357,,,,,,,,,,,,,,,,,,,,,,,,,
1577742234.324658,127.000000,0.000000,4192.820313,4332.820313,4128.205078,4103.077148,4178.974121,236.000000,4.000000,,,,0.000000,4.000000,4.000000,4.000000,4.000000,4.000000,,,,,,,,,,,,,,,,,,,,,,,,,,,,,,,,,,,,,
1577742234.332354,0.000000,0.000000,4173.333496,4351.282227,4114.358887,4085.128174,4159.487305,450.000000,4.000000,,,,0.000000,4.000000,4.000000,4.000000,4.000000,4.000000,0.000000,0.000000,0.328127,0.145020,0.878174,0.316406,0.549325,-0.560067,0.604013,5.511937,-49.039631,59.687973,,,,,,,,,,,,,,,,,,,,,,,,,
1577742234.340151,1.000000,0.000000,4197.948730,4356.922852,4130.256348,4106.153809,4173.333496,450.000000,4.000000,,,,0.000000,4.000000,4.000000,4.000000,4.000000,4.000000,,,,,,,,,,,,,,,,,,,,,,,,,,,,,,,,,,,,,
1577742234.347847,2.000000,0.000000,4247.692383,4349.230957,4165.641113,4166.666504,4221.538574,16222.000000,4.000000,,,,0.000000,4.000000,4.000000,4.000000,4.000000,4.000000,1.000000,0.000000,0.328127,0.145020,0.878174,0.316406,0.550790,-0.575692,0.609384,8.549665,-48.861084,57.846436,,,,,,,,,,,,,,,,,,,,,,,,,
1577742234.355544,3.000000,0.000000,4214.358887,4346.153809,4134.358887,4135.897461,4196.922852,450.000000,4.000000,,,,0.000000,4.000000,4.000000,4.000000,4.000000,4.000000,,,,,,,,,,,,,,,,,,,,,,,,,,,,,,,,,,,,,
1577742234.363340,4.000000,0.000000,4186.153809,4360.000000,4111.282227,4098.461426,4175.897461,16252.000000,4.000000,,,,0.000000,4.000000,4.000000,4.000000,4.000000,4.000000,2.000000,0.000000,0.328254,0.145264,0.878174,0.316162,0.544930,-0.561044,0.594736,8.352668,-48.820019,58.282589,,,,,,,,,,,,,,,,,,,,,,,,,
1577742234.371037,5.000000,0.000000,4243.589844,4359.487305,4153.846191,4153.333496,4230.769043,450.000000,4.000000,,,,0.000000,4.000000,4.000000,4.000000,4.000000,4.000000,,,,,,,,,,,,,,,,,,,,,,,,,,,,,,,,,,,,,
1577742234.378833,6.000000,0.000000,4246.666504,4335.897461,4146.153809,4154.358887,4228.717773,16152.000000,4.000000,,,,0.000000,4.000000,4.000000,4.000000,4.000000,4.000000,3.000000,0.000000,0.328254,0.145264,0.878174,0.316162,0.555673,-0.568856,0.610849,8.295001,-48.783062,56.521774,,,,,,,,,,,,,,,,,,,,,,,,,
1577742234.386530,7.000000,0.000000,4181.025879,4340.512695,4088.718018,4082.564209,4161.025879,450.000000,4.000000,,,,0.000000,4.000000,4.000000,4.000000,4.000000,4.000000,,,,,,,,,,,,,,,,,,,,,,,,,,,,,,,,,,,,,
1577742234.394326,8.000000,0.000000,4186.153809,4366.153809,4101.025879,4086.153809,4173.333496,450.000000,4.000000,,,,0.000000,4.000000,4.000000,4.000000,4.000000,4.000000,4.000000,0.000000,0.328254,0.145264,0.878174,0.316162,0.549813,-0.575204,0.612802,4.414917,-48.929245,56.970764,,,,,,,,,,,,,,,,,,,,,,,,,
1577742234.402023,9.000000,0.000000,4223.589844,4359.487305,4141.025879,4134.358887,4222.051270,16199.000000,4.000000,,,,0.000000,4.000000,4.000000,4.000000,4.000000,4.000000,,,,,,,,,,,,,,,,,,,,,,,,,,,,,,,,,,,,,
1577742234.409820,10.000000,0.000000,4218.974121,4346.153809,4140.512695,4145.641113,4221.538574,450.000000,4.000000,,,,0.000000,4.000000,4.000000,4.000000,4.000000,4.000000,5.000000,0.000000,0.328254,0.145264,0.878174,0.316162,0.544930,-0.575204,0.601572,7.681978,-48.881367,57.315041,,,,,,,,,,,,,,,,,,,,,,,,,
1577742234.417516,11.000000,0.000000,4201.025879,4353.333496,4133.846191,4139.487305,4210.769043,16220.000000,4.000000,,,,0.000000,4.000000,4.000000,4.000000,4.000000,4.000000,,,,,,,,,,,,,6.955700,2.998256,6.129401,4.957880,4.247533,0.812301,0.937281,1.045817,1.946010,4.789681,3.178988,1.645160,5.547196,3.635919,3.595025,1.953801,1.199721,6.999633,5.249353,4.326653,4.685593,2.837700,4.675804,4.027422,4.494573
1577742234.425312,12.000000,0.000000,4176.410156,4351.794922,4124.615234,4116.410156,4195.384766,450.000000,4.000000,,,,0.000000,4.000000,4.000000,4.000000,4.000000,4.000000,6.000000,0.000000,0.328254,0.145264,0.878174,0.316162,0.548348,-0.564462,0.597665,7.452118,-48.658829,55.770611,,,,,,,,,,,,,,,,,,,,,,,,,
1577742234.433009,13.000000,0.000000,4159.487305,4335.897461,4106.153809,4093.846191,4173.846191,450.000000,4.000000,,,,0.000000,4.000000,4.000000,4.000000,4.000000,4.000000,,,,,,,,,,,,,,,,,,,,,,,,,,,,,,,,,,,,,
1577742234.440805,14.000000,0.000000,4188.205078,4336.410156,4122.563965,4116.410156,4200.000000,450.000000,4.000000,,,,0.000000,4.000000,4.000000,4.000000,4.000000,4.000000,7.000000,0.000000,0.328019,0.145264,0.878174,0.316406,0.558602,-0.582040,0.608408,7.364876,-48.637989,56.414349,,,,,,,,,,,,,,,,,,,,,,,,,
1577742234.448501,15.000000,0.000000,4220.512695,4345.128418,4150.256348,4144.615234,4238.974121,16220.000000,4.000000,,,,0.000000,4.000000,4.000000,4.000000,4.000000,4.000000,,,,,,,,,,,,,,,,,,,,,,,,,,,,,,,,,,,,,
1577742234.456298,16.000000,0.000000,4172.307617,4334.358887,4108.717773,4100.512695,4192.820313,0.000000,4.000000,,,,0.000000,4.000000,4.000000,4.000000,4.000000,4.000000,8.000000,0.000000,0.328254,0.145264,0.878174,0.316162,0.543465,-0.571786,0.599619,3.577805,-48.679050,56.874081,,,,,,,,,,,,,,,,,,,,,,,,,
1577742234.463994,17.000000,0.000000,4117.948730,4333.846191,4072.820557,4043.076904,4133.846191,0.000000,4.000000,,,,0.000000,4.000000,4.000000,4.000000,4.000000,4.000000,,,,,,,,,,,,,,,,,,,,,,,,,,,,,,,,,,,,,
1577742234.471790,18.000000,0.000000,4161.025879,4362.051270,4132.307617,4087.692383,4175.897461,0.000000,4.000000,,,,0.000000,4.000000,4.000000,4.000000,4.000000,4.000000,9.000000,0.000000,0.328254,0.145264,0.878174,0.316162,0.554208,-0.574228,0.618173,6.868762,-48.656189,55.373749,,,,,,,,,,,,,,,,,,,,,,,,,
1577742234.479487,19.000000,0.000000,4218.974121,4372.307617,4189.230957,4167.692383,4238.974121,0.000000,4.000000,,,,0.000000,4.000000,4.000000,4.000000,4.000000,4.000000,,,,,,,,,,,,,,,,,,,,,,,,,,,,,,,,,,,,,
1577742234.487183,20.000000,0.000000,4196.922852,4350.256348,4164.102539,4158.461426,4219.487305,0.000000,4.000000,,,,0.000000,4.000000,4.000000,4.000000,4.000000,4.000000,10.000000,0.000000,0.328489,0.145264,0.878174,0.315918,0.537118,-0.557626,0.624033,6.780039,-48.695431,55.937542,,,,,,,,,,,,,,,,,,,,,,,,,
1577742234.494980,21.000000,0.000000,4159.487305,4348.717773,4134.358887,4112.820313,4177.436035,0.000000,4.000000,,,,0.000000,4.000000,4.000000,4.000000,4.000000,4.000000,,,,,,,,,,,,,,,,,,,,,,,,,,,,,,,,,,,,,
1577742234.502677,22.000000,0.000000,4173.333496,4347.692383,4144.615234,4123.589844,4187.179688,0.000000,4.000000,,,,0.000000,4.000000,4.000000,4.000000,4.000000,4.000000,11.000000,0.000000,0.328489,0.145264,0.878174,0.315918,0.552254,-0.574228,0.609384,6.819819,-48.790565,56.564587,,,,,,,,,,,,,,,,,,,,,,,,,
1577742234.510473,23.000000,0.000000,4183.077148,4326.153809,4145.128418,4146.153809,4203.589844,0.000000,4.000000,,,,0.000000,4.000000,4.000000,4.000000,4.000000,4.000000,,,,,,,,,,,,,,,,,,,,,,,,,,,,,,,,,,,,,
1577742234.518170,24.000000,0.000000,4170.256348,4341.538574,4137.948730,4133.333496,4195.384766,0.000000,4.000000,,,,0.000000,4.000000,4.000000,4.000000,4.000000,4.000000,12.000000,0.000000,0.328489,0.145264,0.878174,0.315918,0.554696,-0.570321,0.600595,9.846390,-48.816368,57.069111,,,,,,,,,,,,,,,,,,,,,,,,,
1577742234.525966,25.000000,0.000000,4167.179688,4355.384766,4136.410156,4119.487305,4190.256348,0.000000,4.000000,,,,0.000000,4.000000,4.000000,4.000000,4.000000,4.000000,,,,,,,,,,,,,,,,,,,,,,,,,,,,,,,,,,,,,
1577742234.533663,26.000000,0.000000,4146.666504,4321.538574,4110.256348,4097.948730,4176.410156,0.000000,4.000000,,,,0.000000,4.000000,4.000000,4.000000,4.000000,4.000000,13.000000,0.000000,0.327836,0.145264,0.878418,0.315918,0.544930,-0.571786,0.603037,5.870983,-48.899406,57.523182,,,,,,,,,,,,,,,,,,,,,,,,,
1577742234.541459,27.000000,0.000000,4125.641113,4318.461426,4089.230713,4073.333252,4156.410156,0.000000,4.000000,,,,0.000000,4.000000,4.000000,4.000000,4.000000,4.000000,,,,,,,,,,,,,7.688859,3.414873,6.878608,4.433904,3.712200,0.857518,0.872225,1.401213,1.797895,5.313617,3.305414,1.419618,5.945754,3.108429,3.206262,1.893403,1.062245,8.125971,4.728746,3.751778,5.565672,2.832621,5.462609,3.575080,3.954940
1577742234.549156,28.000000,0.000000,4133.846191,4356.922852,4101.025879,4072.820557,4153.333496,0.000000,4.000000,,,,0.000000,4.000000,4.000000,4.000000,4.000000,4.000000,14.000000,0.000000,0.327836,0.145264,0.878418,0.315918,0.549325,-0.564462,0.611826,6.001669,-48.974140,57.991661,,,,,,,,,,,,,,,,,,,,,,,,,
1577742234.556953,29.000000,0.000000,4165.641113,4355.897461,4129.743652,4103.589844,4178.461426,0.000000,4.000000,,,,0.000000,4.000000,4.000000,4.000000,4.000000,4.000000,,,,,,,,,,,,,,,,,,,,,,,,,,,,,,,,,,,,,
1577742234.564649,30.000000,0.000000,4196.410156,4329.230957,4152.307617,4140.512695,4210.769043,0.000000,4.000000,,,,0.000000,4.000000,4.000000,4.000000,4.000000,4.000000,15.000000,0.000000,0.327944,0.145020,0.878418,0.315918,0.554208,-0.567880,0.612802,6.179102,-49.041401,58.293663,,,,,,,,,,,,,,,,,,,,,,,,,
1577742234.572446,31.000000,0.000000,4190.769043,4322.563965,4148.717773,4135.384766,4205.128418,0.000000,4.000000,,,,0.000000,4.000000,4.000000,4.000000,4.000000,4.000000,,,,,,,,,,,,,,,,,,,,,,,,,,,,,,,,,,,,,
1577742234.580142,32.000000,0.000000,4146.666504,4325.128418,4115.384766,4096.410156,4161.538574,0.000000,4.000000,,,,0.000000,4.000000,4.000000,4.000000,4.000000,4.000000,16.000000,0.000000,0.327944,0.145020,0.878418,0.315918,0.551278,-0.573739,0.602060,6.039714,-48.922493,56.651371,,,,,,,,,,,,,,,,,,,,,,,,,
1577742234.587939,33.000000,0.000000,4121.538574,4338.461426,4092.820557,4078.974365,4142.051270,0.000000,4.000000,,,,0.000000,4.000000,4.000000,4.000000,4.000000,4.000000,,,,,,,,,,,,,,,,,,,,,,,,,,,,,,,,,,,,,
1577742234.595635,34.000000,0.000000,4144.102539,4336.410156,4104.102539,4095.384521,4166.666504,0.000000,4.000000,,,,0.000000,4.000000,4.000000,4.000000,4.000000,4.000000,17.000000,0.000000,0.328179,0.145020,0.878418,0.315674,0.556649,-0.560555,0.609873,8.905034,-48.875286,55.113495,,,,,,,,,,,,,,,,,,,,,,,,,
1577742234.603432,35.000000,0.000000,4158.974121,4329.743652,4109.230957,4100.000000,4175.384766,0.000000,4.000000,,,,0.000000,4.000000,4.000000,4.000000,4.000000,4.000000,,,,,,,,,,,,,,,,,,,,,,,,,,,,,,,,,,,,,
1577742234.611129,36.000000,0.000000,4152.307617,4360.000000,4105.641113,4091.281982,4165.641113,0.000000,4.000000,,,,0.000000,4.000000,4.000000,4.000000,4.000000,4.000000,18.000000,0.000000,0.328179,0.145020,0.878418,0.315674,0.562997,-0.564950,0.609384,7.715454,-48.892616,55.703312,,,,,,,,,,,,,,,,,,,,,,,,,
1577742234.618925,37.000000,0.000000,4157.436035,4362.051270,4113.846191,4105.128418,4175.897461,0.000000,4.000000,,,,0.000000,4.000000,4.000000,4.000000,4.000000,4.000000,,,,,,,,,,,,,,,,,,,,,,,,,,,,,,,,,,,,,
1577742234.626622,38.000000,0.000000,4155.897461,4310.769043,4108.717773,4110.769043,4173.333496,0.000000,4.000000,,,,0.000000,4.000000,4.000000,4.000000,4.000000,4.000000,19.000000,0.000000,0.328179,0.145020,0.878418,0.315674,0.557137,-0.572763,0.608896,10.473015,-48.968033,56.234150,,,,,,,,,,,,,,,,,,,,,,,,,
1577742234.634318,39.000000,0.000000,4148.717773,4313.846191,4103.589844,4097.436035,4157.948730,0.000000,4.000000,,,,0.000000,4.000000,4.000000,4.000000,4.000000,4.000000,,,,,,,,,,,,,,,,,,,,,,,,,,,,,,,,,,,,,
