title:005, start timestamp:2019-12-31T00:44:36.081987+03:00, stop timestamp:2019-12-31T00:44:54.804345+03:00, headset type:INSIGHT, headset serial:A2D200FB, headset firmware:930, subject name:Qasim, channels:56, sampling rate:eeg_128;mot_64;pow_8, samples:2403      , version:2.0
Timestamp,EEG.Counter,EEG.Interpolated,EEG.AF3,EEG.T7,EEG.Pz,EEG.T8,EEG.AF4,EEG.RawCq,EEG.Battery,MarkerIndex,MarkerType,MarkerValueInt,EEG.MarkerHardware,CQ.AF3,CQ.T7,CQ.Pz,CQ.T8,CQ.AF4,MOT.CounterMems,MOT.InterpolatedMems,MOT.Q0,MOT.Q1,MOT.Q2,MOT.Q3,MOT.AccX,MOT.AccY,MOT.AccZ,MOT.MagX,MOT.MagY,MOT.MagZ,POW.AF3.Theta,POW.AF3.Alpha,POW.AF3.BetaL,POW.AF3.BetaH,POW.AF3.Gamma,POW.T7.Theta,POW.T7.Alpha,POW.T7.BetaL,POW.T7.BetaH,POW.T7.Gamma,POW.Pz.Theta,POW.Pz.Alpha,POW.Pz.BetaL,POW.Pz.BetaH,POW.Pz.Gamma,POW.T8.Theta,POW.T8.Alpha,POW.T8.BetaL,POW.T8.BetaH,POW.T8.Gamma,POW.AF4.Theta,POW.AF4.Alpha,POW.AF4.BetaL,POW.AF4.BetaH,POW.AF4.Gamma
1577742276.081987,103.000000,0.000000,4204.615234,4317.948730,4104.102539,4125.641113,4168.205078,16217.000000,4.000000,,,,0.000000,4.000000,4.000000,4.000000,4.000000,4.000000,,,,,,,,,,,,,,,,,,,,,,,,,,,,,,,,,,,,,
1577742276.089684,104.000000,0.000000,4195.897461,4329.743652,4106.153809,4119.487305,4163.077148,450.000000,4.000000,,,,0.000000,4.000000,4.000000,4.000000,4.000000,4.000000,52.000000,0.000000,0.319191,0.131104,0.874512,0.340820,0.536141,-0.607919,0.596689,9.400970,-47.725216,57.703205,,,,,,,,,,,,,,,,,,,,,,,,,
1577742276.097380,105.000000,0.000000,4200.512695,4346.153809,4120.512695,4126.153809,4173.846191,450.000000,4.000000,,,,0.000000,4.000000,4.000000,4.000000,4.000000,4.000000,,,,,,,,,,,,,,,,,,,,,,,,,,,,,,,,,,,,,
1577742276.105177,106.000000,0.000000,4205.128418,4335.897461,4125.641113,4135.384766,4175.384766,450.000000,4.000000,,,,0.000000,4.000000,4.000000,4.000000,4.000000,4.000000,53.000000,0.000000,0.319351,0.131348,0.874512,0.340576,0.543954,-0.604013,0.583505,9.298288,-47.797741,57.974236,,,,,,,,,,,,,,,,,,,,,,,,,
1577742276.112874,107.000000,0.000000,4224.615234,4334.871582,4136.922852,4155.897461,4193.846191,16217.000000,4.000000,,,,0.000000,4.000000,4.000000,4.000000,4.000000,4.000000,,,,,,,,,,,,,21.950916,9.225072,9.147264,2.605361,6.125521,0.549408,1.703567,2.208117,1.834847,3.555333,3.377671,2.718484,5.753950,1.930271,4.365717,4.700102,4.753468,10.412385,3.051347,5.700613,12.006791,6.782673,11.396336,3.009026,6.224504
1577742276.120670,108.000000,0.000000,4241.538574,4348.717773,4148.717773,4171.282227,4212.307617,450.000000,4.000000,,,,0.000000,4.000000,4.000000,4.000000,4.000000,4.000000,54.000000,0.000000,0.319510,0.131592,0.874512,0.340332,0.549325,-0.603525,0.591806,5.317876,-47.683563,56.483521,,,,,,,,,,,,,,,,,,,,,,,,,
1577742276.128367,109.000000,0.000000,4232.307617,4329.230957,4139.487305,4161.025879,4200.512695,450.000000,4.000000,,,,0.000000,4.000000,4.000000,4.000000,4.000000,4.000000,,,,,,,,,,,,,,,,,,,,,,,,,,,,,,,,,,,,,
1577742276.136163,110.000000,0.000000,4226.666504,4317.948730,4134.871582,4147.692383,4196.922852,450.000000,4.000000,,,,0.000000,4.000000,4.000000,4.000000,4.000000,4.000000,55.000000,0.000000,0.319670,0.131836,0.874512,0.340088,0.539559,-0.607431,0.586435,5.623503,-47.700436,57.115780,,,,,,,,,,,,,,,,,,,,,,,,,
1577742276.143860,111.000000,0.000000,4207.179688,4334.871582,4125.128418,4127.692383,4184.615234,16217.000000,4.000000,,,,0.000000,4.000000,4.000000,4.000000,4.000000,4.000000,,,,,,,,,,,,,,,,,,,,,,,,,,,,,,,,,,,,,
1577742276.151656,112.000000,0.000000,4168.205078,4332.307617,4094.871826,4098.461426,4146.666504,450.000000,4.000000,,,,0.000000,4.000000,4.000000,4.000000,4.000000,4.000000,56.000000,0.000000,0.319261,0.131836,0.874756,0.339844,0.531258,-0.588876,0.587900,5.958384,-47.476360,57.684814,,,,,,,,,,,,,,,,,,,,,,,,,
1577742276.159353,113.000000,0.000000,4163.589844,4324.102539,4085.641113,4092.307617,4135.897461,450.000000,4.000000,,,,0.000000,4.000000,4.000000,4.000000,4.000000,4.000000,,,,,,,,,,,,,,,,,,,,,,,,,,,,,,,,,,,,,
1577742276.167150,114.000000,0.000000,4192.820313,4335.897461,4107.692383,4114.358887,4164.102539,450.000000,4.000000,,,,0.000000,4.000000,4.000000,4.000000,4.000000,4.000000,57.000000,0.000000,0.319521,0.131836,0.874756,0.339600,0.547860,-0.581552,0.592294,6.080329,-47.334507,56.282856,,,,,,,,,,,,,,,,,,,,,,,,,
1577742276.174846,115.000000,0.000000,4226.153809,4353.333496,4138.461426,4152.307617,4202.051270,16217.000000,4.000000,,,,0.000000,4.000000,4.000000,4.000000,4.000000,4.000000,,,,,,,,,,,,,,,,,,,,,,,,,,,,,,,,,,,,,
1577742276.182643,116.000000,0.000000,4240.000000,4350.256348,4152.307617,4170.256348,4215.897461,450.000000,4.000000,,,,0.000000,4.000000,4.000000,4.000000,4.000000,4.000000,58.000000,0.000000,0.319780,0.131836,0.874756,0.339355,0.535164,-0.593759,0.585458,9.001403,-47.386288,56.935184,,,,,,,,,,,,,,,,,,,,,,,,,
1577742276.190439,117.000000,0.000000,4214.871582,4329.230957,4128.717773,4138.974121,4185.128418,450.000000,4.000000,,,,0.000000,4.000000,4.000000,4.000000,4.000000,4.000000,,,,,,,,,,,,,,,,,,,,,,,,,,,,,,,,,,,,,
1577742276.198136,118.000000,0.000000,4190.256348,4315.897461,4110.256348,4108.717773,4155.384766,450.000000,4.000000,,,,0.000000,4.000000,4.000000,4.000000,4.000000,4.000000,59.000000,0.000000,0.319881,0.131592,0.874756,0.339355,0.540047,-0.589364,0.585458,8.878862,-47.432888,57.342834,,,,,,,,,,,,,,,,,,,,,,,,,
1577742276.205832,119.000000,0.000000,4231.794922,4336.922852,4150.769043,4152.307617,4199.487305,16217.000000,4.000000,,,,0.000000,4.000000,4.000000,4.000000,4.000000,4.000000,,,,,,,,,,,,,,,,,,,,,,,,,,,,,,,,,,,,,
1577742276.213629,120.000000,0.000000,4264.102539,4349.230957,4173.333496,4188.717773,4238.974121,450.000000,4.000000,,,,0.000000,4.000000,4.000000,4.000000,4.000000,4.000000,60.000000,0.000000,0.319313,0.131348,0.875000,0.339355,0.544442,-0.568368,0.586435,7.751715,-47.534641,57.709717,,,,,,,,,,,,,,,,,,,,,,,,,
1577742276.221325,121.000000,0.000000,4209.743652,4322.051270,4125.128418,4135.384766,4185.641113,450.000000,4.000000,,,,0.000000,4.000000,4.000000,4.000000,4.000000,4.000000,,,,,,,,,,,,,,,,,,,,,,,,,,,,,,,,,,,,,
1577742276.229122,122.000000,0.000000,4167.179688,4317.948730,4093.846191,4094.871826,4139.487305,450.000000,4.000000,,,,0.000000,4.000000,4.000000,4.000000,4.000000,4.000000,61.000000,0.000000,0.319413,0.131104,0.875000,0.339355,0.546883,-0.596689,0.593759,3.866144,-47.446777,58.159542,,,,,,,,,,,,,,,,,,,,,,,,,
1577742276.236819,123.000000,0.000000,4204.102539,4342.051270,4119.487305,4134.358887,4177.948730,16217.000000,4.000000,,,,0.000000,4.000000,4.000000,4.000000,4.000000,4.000000,,,,,,,,,,,,,16.890011,7.664073,9.044008,2.876276,5.639528,0.533619,1.843086,2.248365,1.839532,2.835697,2.980457,3.032871,5.232236,2.398196,4.133379,5.092726,4.575814,9.154196,3.755284,5.415259,10.638410,6.225720,10.759912,3.681870,5.823225
1577742276.244615,124.000000,0.000000,4238.461426,4344.615234,4138.974121,4162.563965,4212.307617,450.000000,4.000000,,,,0.000000,4.000000,4.000000,4.000000,4.000000,4.000000,62.000000,0.000000,0.319003,0.131104,0.875244,0.339111,0.539559,-0.578622,0.584482,7.008636,-47.307884,58.624203,,,,,,,,,,,,,,,,,,,,,,,,,
1577742276.252312,125.000000,0.000000,4222.051270,4331.282227,4126.153809,4137.948730,4191.794922,450.000000,4.000000,,,,0.000000,4.000000,4.000000,4.000000,4.000000,4.000000,,,,,,,,,,,,,,,,,,,,,,,,,,,,,,,,,,,,,
1577742276.260008,126.000000,0.000000,4210.769043,4327.692383,4120.000000,4130.769043,4181.025879,450.000000,4.000000,,,,0.000000,4.000000,4.000000,4.000000,4.000000,4.000000,63.000000,0.000000,0.319103,0.130859,0.875244,0.339111,0.542489,-0.575204,0.606943,9.956511,-47.302509,57.008675,,,,,,,,,,,,,,,,,,,,,,,,,
1577742276.267805,127.000000,0.000000,4207.692383,4329.743652,4116.922852,4131.794922,4181.025879,236.000000,4.000000,,,,0.000000,4.000000,4.000000,4.000000,4.000000,4.000000,,,,,,,,,,,,,,,,,,,,,,,,,,,,,,,,,,,,,
1577742276.275601,0.000000,0.000000,4205.641113,4346.153809,4118.974121,4124.615234,4179.487305,450.000000,4.000000,,,,0.000000,4.000000,4.000000,4.000000,4.000000,4.000000,0.000000,0.000000,0.319203,0.130615,0.875244,0.339111,0.533700,-0.576669,0.606943,9.678643,-47.237858,57.528603,,,,,,,,,,,,,,,,,,,,,,,,,
1577742276.283298,1.000000,0.000000,4232.820313,4361.025879,4145.641113,4151.794922,4203.589844,450.000000,4.000000,,,,0.000000,4.000000,4.000000,4.000000,4.000000,4.000000,,,,,,,,,,,,,,,,,,,,,,,,,,,,,,,,,,,,,
1577742276.291094,2.000000,0.000000,4228.205078,4326.153809,4142.051270,4145.128418,4192.820313,16209.000000,4.000000,,,,0.000000,4.000000,4.000000,4.000000,4.000000,4.000000,1.000000,0.000000,0.318944,0.130615,0.875244,0.339355,0.541512,-0.575692,0.620615,9.488379,-47.179668,57.936726,,,,,,,,,,,,,,,,,,,,,,,,,
1577742276.298791,3.000000,0.000000,4181.025879,4303.589844,4114.871582,4094.358887,4142.051270,450.000000,4.000000,,,,0.000000,4.000000,4.000000,4.000000,4.000000,4.000000,,,,,,,,,,,,,,,,,,,,,,,,,,,,,,,,,,,,,
1577742276.306587,4.000000,0.000000,4182.563965,4335.897461,4124.615234,4101.025879,4144.102539,16237.000000,4.000000,,,,0.000000,4.000000,4.000000,4.000000,4.000000,4.000000,2.000000,0.000000,0.318944,0.130615,0.875244,0.339355,0.532235,-0.578622,0.615244,12.068647,-47.246933,58.363850,,,,,,,,,,,,,,,,,,,,,,,,,
1577742276.314283,5.000000,0.000000,4209.230957,4344.102539,4142.051270,4135.897461,4175.384766,450.000000,4.000000,,,,0.000000,4.000000,4.000000,4.000000,4.000000,4.000000,,,,,,,,,,,,,,,,,,,,,,,,,,,,,,,,,,,,,
1577742276.322079,6.000000,0.000000,4182.563965,4311.282227,4122.051270,4114.358887,4150.256348,16144.000000,4.000000,,,,0.000000,4.000000,4.000000,4.000000,4.000000,4.000000,3.000000,0.000000,0.318584,0.130859,0.875244,0.339600,0.520516,-0.588388,0.597665,11.639382,-47.307468,58.688450,,,,,,,,,,,,,,,,,,,,,,,,,
1577742276.329776,7.000000,0.000000,4169.230957,4320.512695,4118.461426,4097.948730,4129.743652,450.000000,4.000000,,,,0.000000,4.000000,4.000000,4.000000,4.000000,4.000000,,,,,,,,,,,,,,,,,,,,,,,,,,,,,,,,,,,,,
1577742276.337572,8.000000,0.000000,4225.128418,4360.000000,4148.205078,4133.333496,4176.922852,450.000000,4.000000,,,,0.000000,4.000000,4.000000,4.000000,4.000000,4.000000,4.000000,0.000000,0.318994,0.130859,0.875000,0.339844,0.520027,-0.580087,0.591318,14.004551,-47.481583,59.100216,,,,,,,,,,,,,,,,,,,,,,,,,
1577742276.345269,9.000000,0.000000,4248.205078,4350.256348,4148.717773,4145.641113,4197.948730,16191.000000,4.000000,,,,0.000000,4.000000,4.000000,4.000000,4.000000,4.000000,,,,,,,,,,,,,,,,,,,,,,,,,,,,,,,,,,,,,
1577742276.353065,10.000000,0.000000,4220.512695,4321.025879,4139.487305,4127.692383,4171.794922,450.000000,4.000000,,,,0.000000,4.000000,4.000000,4.000000,4.000000,4.000000,5.000000,0.000000,0.318533,0.131348,0.875000,0.340088,0.544930,-0.588388,0.610849,13.441511,-47.698097,59.410995,,,,,,,,,,,,,,,,,,,,,,,,,
1577742276.360761,11.000000,0.000000,4220.512695,4338.461426,4148.717773,4128.717773,4173.846191,16210.000000,4.000000,,,,0.000000,4.000000,4.000000,4.000000,4.000000,4.000000,,,,,,,,,,,,,13.722872,6.838098,8.422297,3.403427,5.285109,0.669206,2.037584,2.119056,1.907780,2.209485,2.718832,3.818633,4.679631,2.975849,4.100629,6.060512,5.019334,7.750033,4.654969,5.413728,9.834609,6.271962,9.536934,4.587582,5.580080
1577742276.368558,12.000000,0.000000,4224.102539,4354.358887,4138.974121,4128.717773,4179.487305,450.000000,4.000000,,,,0.000000,4.000000,4.000000,4.000000,4.000000,4.000000,6.000000,0.000000,0.318841,0.131592,0.874756,0.340332,0.553719,-0.574228,0.596201,12.874960,-47.593887,59.690693,,,,,,,,,,,,,,,,,,,,,,,,,
1577742276.376254,13.000000,0.000000,4200.000000,4322.051270,4118.974121,4109.230957,4156.922852,450.000000,4.000000,,,,0.000000,4.000000,4.000000,4.000000,4.000000,4.000000,,,,,,,,,,,,,,,,,,,,,,,,,,,,,,,,,,,,,
1577742276.383951,14.000000,0.000000,4186.666504,4310.256348,4119.487305,4100.000000,4141.538574,450.000000,4.000000,,,,0.000000,4.000000,4.000000,4.000000,4.000000,4.000000,7.000000,0.000000,0.319410,0.131836,0.874512,0.340332,0.558602,-0.581552,0.591806,12.424879,-47.559914,59.942421,,,,,,,,,,,,,,,,,,,,,,,,,
1577742276.391747,15.000000,0.000000,4185.641113,4350.256348,4123.589844,4108.717773,4138.974121,16210.000000,4.000000,,,,0.000000,4.000000,4.000000,4.000000,4.000000,4.000000,,,,,,,,,,,,,,,,,,,,,,,,,,,,,,,,,,,,,
1577742276.399444,16.000000,0.000000,4221.025879,4378.974121,4151.282227,4147.179688,4174.871582,0.000000,4.000000,,,,0.000000,4.000000,4.000000,4.000000,4.000000,4.000000,8.000000,0.000000,0.318533,0.131348,0.875000,0.340088,0.544930,-0.588388,0.610849,14.890944,-47.529335,58.195068,,,,,,,,,,,,,,,,,,,,,,,,,
1577742276.407240,17.000000,0.000000,4290.769043,4378.461426,4203.589844,4203.589844,4242.051270,0.000000,4.000000,,,,0.000000,4.000000,4.000000,4.000000,4.000000,4.000000,,,,,,,,,,,,,,,,,,,,,,,,,,,,,,,,,,,,,
1577742276.414937,18.000000,0.000000,4281.538574,4364.615234,4184.615234,4187.692383,4230.769043,0.000000,4.000000,,,,0.000000,4.000000,4.000000,4.000000,4.000000,4.000000,9.000000,0.000000,0.319410,0.131836,0.874512,0.340332,0.558602,-0.581552,0.591806,14.239264,-47.501816,58.596359,,,,,,,,,,,,,,,,,,,,,,,,,
1577742276.422733,19.000000,0.000000,4228.205078,4351.794922,4130.769043,4133.846191,4174.358887,0.000000,4.000000,,,,0.000000,4.000000,4.000000,4.000000,4.000000,4.000000,,,,,,,,,,,,,,,,,,,,,,,,,,,,,,,,,,,,,
1577742276.430430,20.000000,0.000000,4241.538574,4344.615234,4139.487305,4143.077148,4186.666504,0.000000,4.000000,,,,0.000000,4.000000,4.000000,4.000000,4.000000,4.000000,10.000000,0.000000,0.318585,0.132568,0.874512,0.340820,0.542000,-0.584970,0.594736,12.576077,-47.477047,59.077152,,,,,,,,,,,,,,,,,,,,,,,,,
1577742276.438227,21.000000,0.000000,4249.230957,4341.538574,4153.333496,4154.871582,4209.230957,0.000000,4.000000,,,,0.000000,4.000000,4.000000,4.000000,4.000000,4.000000,,,,,,,,,,,,,,,,,,,,,,,,,,,,,,,,,,,,,
1577742276.445923,22.000000,0.000000,4225.641113,4336.922852,4142.563965,4138.974121,4193.846191,0.000000,4.000000,,,,0.000000,4.000000,4.000000,4.000000,4.000000,4.000000,11.000000,0.000000,0.318790,0.133057,0.874268,0.341064,0.536141,-0.599619,0.600107,14.847575,-47.574387,59.270607,,,,,,,,,,,,,,,,,,,,,,,,,
1577742276.453720,23.000000,0.000000,4227.179688,4333.333496,4135.384766,4138.974121,4183.077148,0.000000,4.000000,,,,0.000000,4.000000,4.000000,4.000000,4.000000,4.000000,,,,,,,,,,,,,,,,,,,,,,,,,,,,,,,,,,,,,
1577742276.461416,24.000000,0.000000,4224.615234,4330.256348,4120.000000,4136.922852,4182.051270,0.000000,4.000000,,,,0.000000,4.000000,4.000000,4.000000,4.000000,4.000000,12.000000,0.000000,0.318324,0.133545,0.874268,0.341309,0.547372,-0.604013,0.581552,14.260048,-47.422733,59.683975,,,,,,,,,,,,,,,,,,,,,,,,,
1577742276.469213,25.000000,0.000000,4203.077148,4329.230957,4105.641113,4121.025879,4170.769043,0.000000,4.000000,,,,0.000000,4.000000,4.000000,4.000000,4.000000,4.000000,,,,,,,,,,,,,,,,,,,,,,,,,,,,,,,,,,,,,
1577742276.476909,26.000000,0.000000,4205.641113,4348.717773,4109.743652,4121.025879,4168.717773,0.000000,4.000000,,,,0.000000,4.000000,4.000000,4.000000,4.000000,4.000000,13.000000,0.000000,0.318686,0.134277,0.874023,0.341309,0.536629,-0.625010,0.583017,13.611643,-47.465687,59.876560,,,,,,,,,,,,,,,,,,,,,,,,,
1577742276.484705,27.000000,0.000000,4230.256348,4376.410156,4124.615234,4144.615234,4191.282227,0.000000,4.000000,,,,0.000000,4.000000,4.000000,4.000000,4.000000,4.000000,,,,,,,,,,,,,12.694789,6.925595,7.546190,4.073061,5.127330,0.964171,2.249449,1.850165,1.995492,1.822651,2.649450,5.076246,4.278448,3.529303,4.246633,7.466379,6.097754,6.643181,5.506301,5.646502,9.443718,7.017102,8.165595,5.505260,5.526266
1577742276.492402,28.000000,0.000000,4248.205078,4377.436035,4137.948730,4162.563965,4215.384766,0.000000,4.000000,,,,0.000000,4.000000,4.000000,4.000000,4.000000,4.000000,14.000000,0.000000,0.318535,0.135254,0.874023,0.341064,0.530770,-0.628428,0.581064,13.087894,-47.384716,58.255424,,,,,,,,,,,,,,,,,,,,,,,,,
1577742276.500198,29.000000,0.000000,4258.461426,4369.743652,4146.153809,4165.128418,4228.717773,0.000000,4.000000,,,,0.000000,4.000000,4.000000,4.000000,4.000000,4.000000,,,,,,,,,,,,,,,,,,,,,,,,,,,,,,,,,,,,,
1577742276.507895,30.000000,0.000000,4252.820313,4368.717773,4136.410156,4160.000000,4221.538574,0.000000,4.000000,,,,0.000000,4.000000,4.000000,4.000000,4.000000,4.000000,15.000000,0.000000,0.318484,0.135986,0.874023,0.340820,0.539071,-0.623056,0.572274,15.368027,-47.311844,58.590866,,,,,,,,,,,,,,,,,,,,,,,,,
1577742276.515691,31.000000,0.000000,4228.717773,4355.384766,4117.948730,4147.179688,4196.410156,0.000000,4.000000,,,,0.000000,4.000000,4.000000,4.000000,4.000000,4.000000,,,,,,,,,,,,,,,,,,,,,,,,,,,,,,,,,,,,,
1577742276.523387,32.000000,0.000000,4190.256348,4344.102539,4101.025879,4117.948730,4161.538574,0.000000,4.000000,,,,0.000000,4.000000,4.000000,4.000000,4.000000,4.000000,16.000000,0.000000,0.318537,0.136475,0.874023,0.340576,0.539559,-0.618662,0.569833,10.900271,-47.186443,56.978668,,,,,,,,,,,,,,,,,,,,,,,,,
1577742276.531084,33.000000,0.000000,4159.487305,4355.897461,4082.564209,4087.179443,4134.358887,0.000000,4.000000,,,,0.000000,4.000000,4.000000,4.000000,4.000000,4.000000,,,,,,,,,,,,,,,,,,,,,,,,,,,,,,,,,,,,,
1577742276.538880,34.000000,0.000000,4199.487305,4385.641113,4108.717773,4121.538574,4170.256348,0.000000,4.000000,,,,0.000000,4.000000,4.000000,4.000000,4.000000,4.000000,17.000000,0.000000,0.317656,0.136963,0.874268,0.340576,0.532723,-0.611826,0.576669,9.630797,-47.193214,57.561417,,,,,,,,,,,,,,,,,,,,,,,,,
1577742276.546577,35.000000,0.000000,4238.461426,4387.179688,4134.358887,4164.102539,4201.025879,0.000000,4.000000,,,,0.000000,4.000000,4.000000,4.000000,4.000000,4.000000,,,,,,,,,,,,,,,,,,,,,,,,,,,,,,,,,,,,,
1577742276.554374,36.000000,0.000000,4184.615234,4359.487305,4088.718018,4114.871582,4146.153809,0.000000,4.000000,,,,0.000000,4.000000,4.000000,4.000000,4.000000,4.000000,18.000000,0.000000,0.317917,0.136963,0.874268,0.340332,0.532235,-0.611337,0.583017,9.505134,-47.079674,58.026073,,,,,,,,,,,,,,,,,,,,,,,,,
1577742276.562070,37.000000,0.000000,4153.846191,4362.051270,4061.538574,4074.358887,4109.230957,0.000000,4.000000,,,,0.000000,4.000000,4.000000,4.000000,4.000000,4.000000,,,,,,,,,,,,,,,,,,,,,,,,,,,,,,,,,,,,,
1577742276.569867,38.000000,0.000000,4192.307617,4371.794922,4089.743652,4107.179688,4136.922852,0.000000,4.000000,,,,0.000000,4.000000,4.000000,4.000000,4.000000,4.000000,19.000000,0.000000,0.317917,0.136963,0.874268,0.340332,0.520027,-0.621592,0.583017,9.511665,-47.156937,58.623711,,,,,,,,,,,,,,,,,,,,,,,,,
1577742276.577563,39.000000,0.000000,4210.769043,4369.743652,4106.153809,4132.307617,4155.897461,0.000000,4.000000,,,,0.000000,4.000000,4.000000,4.000000,4.000000,4.000000,,,,,,,,,,,,,,,,,,,,,,,,,,,,,,,,,,,,,
1577742276.585360,40.000000,0.000000,4195.897461,4368.717773,4094.871826,4119.487305,4142.563965,0.000000,4.000000,,,,0.000000,4.000000,4.000000,4.000000,4.000000,4.000000,20.000000,0.000000,0.317507,0.136963,0.874512,0.340088,0.531746,-0.609384,0.594736,12.209236,-47.226471,58.922321,,,,,,,,,,,,,,,,,,,,,,,,,
1577742276.593056,41.000000,0.000000,4180.512695,4364.102539,4076.923096,4099.487305,4121.538574,0.000000,4.000000,,,,0.000000,4.000000,4.000000,4.000000,4.000000,4.000000,,,,,,,,,,,,,,,,,,,,,,,,,,,,,,,,,,,,,
1577742276.600853,42.000000,0.000000,4178.461426,4368.205078,4084.615479,4102.051270,4119.487305,0.000000,4.000000,,,,0.000000,4.000000,4.000000,4.000000,4.000000,4.000000,21.000000,0.000000,0.317717,0.136475,0.874512,0.340088,0.527840,-0.604501,0.585458,8.057360,-47.348869,59.191071,,,,,,,,,,,,,,,,,,,,,,,,,
1577742276.608550,43.000000,0.000000,4176.410156,4372.820313,4099.487305,4102.051270,4112.820313,0.000000,4.000000,,,,0.000000,4.000000,4.000000,4.000000,4.000000,4.000000,,,,,,,,,,,,,12.924017,7.498988,6.820399,4.702898,5.122694,1.354126,2.405529,1.543474,2.056936,1.718784,2.720462,6.507850,4.163939,3.900706,4.442419,8.916986,7.388958,6.132762,6.052011,5.946948,9.194861,8.045007,7.136859,6.179584,5.591022
1577742276.616346,44.000000,0.000000,4166.153809,4367.692383,4087.692383,4071.794922,4086.666748,0.000000,4.000000,,,,0.000000,4.000000,4.000000,4.000000,4.000000,4.000000,22.000000,0.000000,0.317149,0.136230,0.874756,0.340088,0.535164,-0.623545,0.590341,11.019992,-47.459026,59.432949,,,,,,,,,,,,,,,,,,,,,,,,,
1577742276.624043,45.000000,0.000000,4172.307617,4365.128418,4083.589844,4057.435791,4081.538574,0.000000,4.000000,,,,0.000000,4.000000,4.000000,4.000000,4.000000,4.000000,,,,,,,,,,,,,,,,,,,,,,,,,,,,,,,,,,,,,
1577742276.631839,46.000000,0.000000,4184.615234,4353.333496,4098.461426,4071.281982,4094.871826,0.000000,4.000000,,,,0.000000,4.000000,4.000000,4.000000,4.000000,4.000000,23.000000,0.000000,0.317620,0.135742,0.874756,0.339844,0.531258,-0.604013,0.583505,6.927225,-47.498352,59.710449,,,,,,,,,,,,,,,,,,,,,,,,,
1577742276.639536,47.000000,0.000000,4174.871582,4345.641113,4088.205078,4067.179443,4087.179443,0.000000,4.000000,,,,0.000000,4.000000,4.000000,4.000000,4.000000,4.000000,,,,,,,,,,,,,,,,,,,,,,,,,,,,,,,,,,,,,
1577742276.647332,48.000000,0.000000,4133.846191,4359.487305,4048.205078,4030.769287,4045.641113,0.000000,4.000000,,,,0.000000,4.000000,4.000000,4.000000,4.000000,4.000000,24.000000,0.000000,0.317313,0.135498,0.875000,0.339600,0.533211,-0.592782,0.594736,6.952286,-47.533749,60.079834,,,,,,,,,,,,,,,,,,,,,,,,,
1577742276.655029,49.000000,0.000000,4101.538574,4355.897461,4035.384521,4008.205078,4020.000000,0.000000,4.000000,,,,0.000000,4.000000,4.000000,4.000000,4.000000,4.000000,,,,,,,,,,,,,,,,,,,,,,,,,,,,,,,,,,,,,
1577742276.662826,50.000000,0.000000,4125.128418,4354.871582,4073.333252,4037.435791,4053.846191,0.000000,4.000000,,,,0.000000,4.000000,4.000000,4.000000,4.000000,4.000000,25.000000,0.000000,0.316847,0.135010,0.875244,0.339600,0.532723,-0.578134,0.604990,9.965611,-47.505787,58.498188,,,,,,,,,,,,,,,,,,,,,,,,,
1577742276.670522,51.000000,0.000000,4158.461426,4382.563965,4102.051270,4073.846191,4088.205078,0.000000,4.000000,,,,0.000000,4.000000,4.000000,4.000000,4.000000,4.000000,,,,,,,,,,,,,,,,,,,,,,,,,,,,,,,,,,,,,
1577742276.678219,52.000000,0.000000,4134.871582,4388.717773,4076.923096,4053.333252,4060.512939,0.000000,4.000000,,,,0.000000,4.000000,4.000000,4.000000,4.000000,4.000000,26.000000,0.000000,0.317213,0.134766,0.875244,0.339355,0.532235,-0.568856,0.600107,9.686833,-47.540436,58.928982,,,,,,,,,,,,,,,,,,,,,,,,,
1577742276.686015,53.000000,0.000000,4115.897461,4371.794922,4061.025635,4029.743652,4037.435791,0.000000,4.000000,,,,0.000000,4.000000,4.000000,4.000000,4.000000,4.000000,,,,,,,,,,,,,,,,,,,,,,,,,,,,,,,,,,,,,
1577742276.693812,54.000000,0.000000,4134.358887,4355.897461,4078.461426,4043.076904,4053.333252,0.000000,4.000000,,,,0.000000,4.000000,4.000000,4.000000,4.000000,4.000000,27.000000,0.000000,0.316951,0.134766,0.875244,0.339600,0.523934,-0.579599,0.598642,5.847013,-47.511806,59.316696,,,,,,,,,,,,,,,,,,,,,,,,,
1577742276.701508,55.000000,0.000000,4137.436035,4353.846191,4083.589844,4053.333252,4058.974365,0.000000,4.000000,,,,0.000000,4.000000,4.000000,4.000000,4.000000,4.000000,,,,,,,,,,,,,,,,,,,,,,,,,,,,,,,,,,,,,
1577742276.709205,56.000000,0.000000,4131.282227,4377.948730,4080.000000,4051.794922,4055.897461,0.000000,4.000000,,,,0.000000,4.000000,4.000000,4.000000,4.000000,4.000000,28.000000,0.000000,0.317055,0.134521,0.875244,0.339600,0.521004,-0.584482,0.589853,6.039911,-47.545856,59.546009,,,,,,,,,,,,,,,,,,,,,,,,,
1577742276.717001,57.000000,0.000000,4132.820313,4376.410156,4077.435791,4050.769287,4053.846191,0.000000,4.000000,,,,0.000000,4.000000,4.000000,4.000000,4.000000,4.000000,,,,,,,,,,,,,,,,,,,,,,,,,,,,,,,,,,,,,
1577742276.724798,58.000000,0.000000,4126.153809,4332.307617,4078.461426,4050.769287,4049.743652,0.000000,4.000000,,,,0.000000,4.000000,4.000000,4.000000,4.000000,4.000000,29.000000,0.000000,0.316897,0.134277,0.875244,0.339844,0.539559,-0.581064,0.592294,9.144473,-47.696129,57.898117,,,,,,,,,,,,,,,,,,,,,,,,,
1577742276.732494,59.000000,0.000000,4120.000000,4342.051270,4089.230713,4054.358887,4051.281982,0.000000,4.000000,,,,0.000000,4.000000,4.000000,4.000000,4.000000,4.000000,,,,,,,,,,,,,13.192257,7.898322,6.692350,5.166495,5.150140,1.725875,2.441825,1.345972,2.074484,1.826959,2.812124,7.666629,4.400919,4.016545,4.519474,9.951941,8.288522,6.315460,6.170473,6.107291,8.860249,8.718155,6.829490,6.469011,5.642709
1577742276.740191,60.000000,0.000000,4109.743652,4372.307617,4077.435791,4041.538574,4036.923096,0.000000,4.000000,,,,0.000000,4.000000,4.000000,4.000000,4.000000,4.000000,30.000000,0.000000,0.317309,0.134277,0.875000,0.340088,0.538582,-0.594247,0.609873,5.179442,-47.711746,58.269287,,,,,,,,,,,,,,,,,,,,,,,,,
1577742276.747887,61.000000,0.000000,4095.897461,4344.102539,4051.794922,4025.128174,4015.384521,0.000000,4.000000,,,,0.000000,4.000000,4.000000,4.000000,4.000000,4.000000,,,,,,,,,,,,,,,,,,,,,,,,,,,,,,,,,,,,,
1577742276.755684,62.000000,0.000000,4122.563965,4349.230957,4076.410156,4055.897461,4047.692383,0.000000,4.000000,,,,0.000000,4.000000,4.000000,4.000000,4.000000,4.000000,31.000000,0.000000,0.317047,0.134277,0.875000,0.340332,0.537606,-0.585458,0.609384,8.310235,-47.486538,58.603340,,,,,,,,,,,,,,,,,,,,,,,,,
1577742276.763480,63.000000,0.000000,4156.410156,4386.666504,4105.641113,4088.718018,4085.128174,0.000000,4.000000,,,,0.000000,4.000000,4.000000,4.000000,4.000000,4.000000,,,,,,,,,,,,,,,,,,,,,,,,,,,,,,,,,,,,,
1577742276.771177,64.000000,0.000000,4124.615234,4360.000000,4072.820557,4057.435791,4051.794922,450.000000,4.000000,,,,0.000000,4.000000,4.000000,4.000000,4.000000,4.000000,32.000000,0.000000,0.317047,0.134277,0.875000,0.340332,0.534188,-0.594736,0.605966,8.256811,-47.582932,57.049713,,,,,,,,,,,,,,,,,,,,,,,,,
1577742276.778974,65.000000,0.000000,4097.436035,4338.974121,4058.461426,4035.897461,4029.743652,450.000000,4.000000,,,,0.000000,4.000000,4.000000,4.000000,4.000000,4.000000,,,,,,,,,,,,,,,,,,,,,,,,,,,,,,,,,,,,,
1577742276.786670,66.000000,0.000000,4120.000000,4357.436035,4088.718018,4061.025635,4057.435791,16226.000000,4.000000,,,,0.000000,4.000000,4.000000,4.000000,4.000000,4.000000,33.000000,0.000000,0.316785,0.134277,0.875000,0.340576,0.543954,-0.599130,0.594736,4.559993,-47.490234,57.625355,,,,,,,,,,,,,,,,,,,,,,,,,
1577742276.794467,67.000000,0.000000,4129.230957,4348.717773,4093.846191,4069.230713,4068.718018,450.000000,4.000000,,,,0.000000,4.000000,4.000000,4.000000,4.000000,4.000000,,,,,,,,,,,,,,,,,,,,,,,,,,,,,,,,,,,,,
1577742276.802263,68.000000,0.000000,4118.974121,4356.410156,4093.333252,4063.076904,4057.948730,16237.000000,4.000000,,,,0.000000,4.000000,4.000000,4.000000,4.000000,4.000000,34.000000,0.000000,0.317355,0.134521,0.874756,0.340576,0.540536,-0.591318,0.586923,4.821778,-47.406811,58.023804,,,,,,,,,,,,,,,,,,,,,,,,,
1577742276.809960,69.000000,0.000000,4125.128418,4387.692383,4115.384766,4077.435791,4068.718018,450.000000,4.000000,,,,0.000000,4.000000,4.000000,4.000000,4.000000,4.000000,,,,,,,,,,,,,,,,,,,,,,,,,,,,,,,,,,,,,
1577742276.817657,70.000000,0.000000,4144.102539,4367.179688,4127.179688,4095.384521,4096.410156,16149.000000,4.000000,,,,0.000000,4.000000,4.000000,4.000000,4.000000,4.000000,35.000000,0.000000,0.317093,0.134521,0.874756,0.340820,0.538582,-0.592294,0.593271,7.988337,-47.451359,58.502037,,,,,,,,,,,,,,,,,,,,,,,,,
1577742276.825454,71.000000,0.000000,4151.282227,4343.077148,4113.846191,4088.205078,4096.410156,450.000000,4.000000,,,,0.000000,4.000000,4.000000,4.000000,4.000000,4.000000,,,,,,,,,,,,,,,,,,,,,,,,,,,,,,,,,,,,,
1577742276.833250,72.000000,0.000000,4162.051270,4370.769043,4107.179688,4081.538574,4091.794922,450.000000,4.000000,,,,0.000000,4.000000,4.000000,4.000000,4.000000,4.000000,36.000000,0.000000,0.316785,0.134277,0.875000,0.340576,0.543954,-0.599130,0.594736,8.086734,-47.551270,58.932446,,,,,,,,,,,,,,,,,,,,,,,,,
1577742276.841047,73.000000,0.000000,4196.922852,4385.128418,4129.230957,4108.205078,4129.230957,16195.000000,4.000000,,,,0.000000,4.000000,4.000000,4.000000,4.000000,4.000000,,,,,,,,,,,,,,,,,,,,,,,,,,,,,,,,,,,,,
1577742276.848744,74.000000,0.000000,4223.589844,4358.461426,4150.256348,4129.230957,4163.077148,450.000000,4.000000,,,,0.000000,4.000000,4.000000,4.000000,4.000000,4.000000,37.000000,0.000000,0.317093,0.134521,0.874756,0.340820,0.538582,-0.592294,0.593271,10.926798,-47.581371,59.319813,,,,,,,,,,,,,,,,,,,,,,,,,
1577742276.856540,75.000000,0.000000,4215.384766,4356.922852,4141.025879,4112.820313,4144.615234,16216.000000,4.000000,,,,0.000000,4.000000,4.000000,4.000000,4.000000,4.000000,,,,,,,,,,,,,12.630213,7.676845,7.398340,5.432591,5.105607,1.986560,2.351557,1.394500,2.049591,2.015131,2.816324,8.167640,4.938266,3.924937,4.379241,10.264877,8.369710,7.053294,5.924128,6.007441,8.386992,8.589828,7.333114,6.398304,5.584274
1577742276.864237,76.000000,0.000000,4192.307617,4380.000000,4123.589844,4093.333252,4120.512695,450.000000,4.000000,,,,0.000000,4.000000,4.000000,4.000000,4.000000,4.000000,38.000000,0.000000,0.317400,0.134766,0.874512,0.341064,0.534188,-0.577646,0.597665,10.731349,-47.668278,59.668446,,,,,,,,,,,,,,,,,,,,,,,,,
1577742276.872033,77.000000,0.000000,4193.846191,4373.846191,4133.333496,4108.205078,4139.487305,450.000000,4.000000,,,,0.000000,4.000000,4.000000,4.000000,4.000000,4.000000,,,,,,,,,,,,,,,,,,,,,,,,,,,,,,,,,,,,,
1577742276.879730,78.000000,0.000000,4189.743652,4353.846191,4133.333496,4115.897461,4140.512695,450.000000,4.000000,,,,0.000000,4.000000,4.000000,4.000000,4.000000,4.000000,39.000000,0.000000,0.317033,0.135010,0.874512,0.341309,0.539071,-0.583505,0.583993,13.366767,-47.387604,58.068123,,,,,,,,,,,,,,,,,,,,,,,,,
1577742276.887526,79.000000,0.000000,4162.051270,4363.589844,4106.666504,4087.692383,4101.025879,16216.000000,4.000000,,,,0.000000,4.000000,4.000000,4.000000,4.000000,4.000000,,,,,,,,,,,,,,,,,,,,,,,,,,,,,,,,,,,,,
1577742276.895222,80.000000,0.000000,4180.512695,4379.487305,4125.641113,4099.487305,4115.897461,450.000000,4.000000,,,,0.000000,4.000000,4.000000,4.000000,4.000000,4.000000,40.000000,0.000000,0.317076,0.135254,0.874268,0.341797,0.532235,-0.593271,0.584970,12.867505,-47.434071,58.482109,,,,,,,,,,,,,,,,,,,,,,,,,
1577742276.903019,81.000000,0.000000,4197.948730,4358.974121,4140.000000,4112.307617,4134.871582,450.000000,4.000000,,,,0.000000,4.000000,4.000000,4.000000,4.000000,4.000000,,,,,,,,,,,,,,,,,,,,,,,,,,,,,,,,,,,,,
1577742276.910715,82.000000,0.000000,4145.641113,4340.512695,4092.820557,4055.384521,4076.923096,450.000000,4.000000,,,,0.000000,4.000000,4.000000,4.000000,4.000000,4.000000,41.000000,0.000000,0.316549,0.135254,0.874268,0.342285,0.524910,-0.598642,0.600595,12.298539,-47.416077,58.735065,,,,,,,,,,,,,,,,,,,,,,,,,
1577742276.918511,83.000000,0.000000,4142.563965,4365.641113,4098.461426,4049.743652,4069.743652,16216.000000,4.000000,,,,0.000000,4.000000,4.000000,4.000000,4.000000,4.000000,,,,,,,,,,,,,,,,,,,,,,,,,,,,,,,,,,,,,
1577742276.926208,84.000000,0.000000,4239.487305,4401.538574,4184.615234,4156.922852,4176.922852,450.000000,4.000000,,,,0.000000,4.000000,4.000000,4.000000,4.000000,4.000000,42.000000,0.000000,0.316750,0.135742,0.874023,0.342529,0.522957,-0.604990,0.607919,13.939822,-47.459702,59.082355,,,,,,,,,,,,,,,,,,,,,,,,,
1577742276.933904,85.000000,0.000000,4266.153809,4377.436035,4200.000000,4198.461426,4212.307617,450.000000,4.000000,,,,0.000000,4.000000,4.000000,4.000000,4.000000,4.000000,,,,,,,,,,,,,,,,,,,,,,,,,,,,,,,,,,,,,
1577742276.941701,86.000000,0.000000,4202.563965,4337.948730,4149.230957,4137.436035,4142.563965,450.000000,4.000000,,,,0.000000,4.000000,4.000000,4.000000,4.000000,4.000000,43.000000,0.000000,0.316486,0.135742,0.874023,0.342773,0.535164,-0.599619,0.590829,13.383255,-47.498959,59.215473,,,,,,,,,,,,,,,,,,,,,,,,,
1577742276.949398,87.000000,0.000000,4206.666504,4369.230957,4166.666504,4140.512695,4140.512695,16216.000000,4.000000,,,,0.000000,4.000000,4.000000,4.000000,4.000000,4.000000,,,,,,,,,,,,,,,,,,,,,,,,,,,,,,,,,,,,,
1577742276.957194,88.000000,0.000000,4228.205078,4387.692383,4188.717773,4166.153809,4167.179688,450.000000,4.000000,,,,0.000000,4.000000,4.000000,4.000000,4.000000,4.000000,44.000000,0.000000,0.316686,0.136230,0.873779,0.343018,0.526375,-0.609873,0.594736,12.882345,-47.474476,59.454910,,,,,,,,,,,,,,,,,,,,,,,,,
1577742276.964891,89.000000,0.000000,4190.256348,4348.205078,4148.717773,4122.051270,4132.820313,450.000000,4.000000,,,,0.000000,4.000000,4.000000,4.000000,4.000000,4.000000,,,,,,,,,,,,,,,,,,,,,,,,,,,,,,,,,,,,,
1577742276.972687,90.000000,0.000000,4208.717773,4364.615234,4161.025879,4127.692383,4144.615234,450.000000,4.000000,,,,0.000000,4.000000,4.000000,4.000000,4.000000,4.000000,45.000000,0.000000,0.316316,0.136475,0.873779,0.343262,0.534188,-0.603037,0.595224,15.123217,-47.512260,57.696495,,,,,,,,,,,,,,,,,,,,,,,,,
1577742276.980384,91.000000,0.000000,4248.717773,4395.897461,4202.051270,4170.256348,4177.948730,16216.000000,4.000000,,,,0.000000,4.000000,4.000000,4.000000,4.000000,4.000000,,,,,,,,,,,,,11.001299,6.797223,8.769815,5.547224,4.946539,2.084556,2.186269,1.737274,1.991421,2.171790,2.561656,7.875352,5.562906,3.749452,4.038541,9.526931,7.606472,7.987370,5.500816,5.658299,7.433902,7.626806,8.366951,6.120579,5.392040
1577742276.988180,92.000000,0.000000,4207.179688,4365.641113,4167.692383,4132.307617,4138.974121,450.000000,4.000000,,,,0.000000,4.000000,4.000000,4.000000,4.000000,4.000000,46.000000,0.000000,0.316725,0.136475,0.873535,0.343506,0.539559,-0.596689,0.595712,14.328680,-47.486446,58.207458,,,,,,,,,,,,,,,,,,,,,,,,,
1577742276.995877,93.000000,0.000000,4197.948730,4366.153809,4148.717773,4114.358887,4131.794922,450.000000,4.000000,,,,0.000000,4.000000,4.000000,4.000000,4.000000,4.000000,,,,,,,,,,,,,,,,,,,,,,,,,,,,,,,,,,,,,
1577742277.003674,94.000000,0.000000,4254.871582,4387.179688,4194.358887,4171.794922,4189.743652,450.000000,4.000000,,,,0.000000,4.000000,4.000000,4.000000,4.000000,4.000000,47.000000,0.000000,0.316355,0.136719,0.873535,0.343750,0.536629,-0.601083,0.578134,13.733227,-47.463215,58.547695,,,,,,,,,,,,,,,,,,,,,,,,,
1577742277.011370,95.000000,0.000000,4254.358887,4367.179688,4204.102539,4183.077148,4194.358887,16216.000000,4.000000,,,,0.000000,4.000000,4.000000,4.000000,4.000000,4.000000,,,,,,,,,,,,,,,,,,,,,,,,,,,,,,,,,,,,,
1577742277.019167,96.000000,0.000000,4222.051270,4355.897461,4173.846191,4151.282227,4164.615234,450.000000,4.000000,,,,0.000000,4.000000,4.000000,4.000000,4.000000,4.000000,48.000000,0.000000,0.316392,0.136963,0.873291,0.344238,0.527840,-0.614755,0.587411,11.402859,-47.502125,58.913723,,,,,,,,,,,,,,,,,,,,,,,,,
1577742277.026863,97.000000,0.000000,4214.358887,4350.256348,4153.846191,4136.922852,4153.333496,450.000000,4.000000,,,,0.000000,4.000000,4.000000,4.000000,4.000000,4.000000,,,,,,,,,,,,,,,,,,,,,,,,,,,,,,,,,,,,,
1577742277.034660,98.000000,0.000000,4188.717773,4326.666504,4136.410156,4109.230957,4122.563965,450.000000,4.000000,,,,0.000000,4.000000,4.000000,4.000000,4.000000,4.000000,49.000000,0.000000,0.316800,0.136963,0.873047,0.344482,0.513191,-0.608896,0.575204,7.211989,-47.297878,59.243149,,,,,,,,,,,,,,,,,,,,,,,,,
1577742277.042357,99.000000,0.000000,4167.179688,4338.974121,4130.256348,4091.794922,4104.615234,16216.000000,4.000000,,,,0.000000,4.000000,4.000000,4.000000,4.000000,4.000000,,,,,,,,,,,,,,,,,,,,,,,,,,,,,,,,,,,,,
1577742277.050153,100.000000,0.000000,4194.871582,4383.589844,4156.410156,4126.153809,4138.461426,450.000000,4.000000,,,,0.000000,4.000000,4.000000,4.000000,4.000000,4.000000,50.000000,0.000000,0.316162,0.137207,0.873047,0.344971,0.523934,-0.622080,0.589364,3.619653,-47.413136,59.599449,,,,,,,,,,,,,,,,,,,,,,,,,
1577742277.057849,101.000000,0.000000,4209.230957,4387.179688,4171.794922,4138.974121,4150.256348,450.000000,4.000000,,,,0.000000,4.000000,4.000000,4.000000,4.000000,4.000000,,,,,,,,,,,,,,,,,,,,,,,,,,,,,,,,,,,,,
1577742277.065646,102.000000,0.000000,4198.461426,4353.846191,4161.025879,4118.974121,4135.384766,450.000000,4.000000,,,,0.000000,4.000000,4.000000,4.000000,4.000000,4.000000,51.000000,0.000000,0.315790,0.137451,0.873047,0.345215,0.533700,-0.616220,0.588876,4.035287,-47.277607,59.920116,,,,,,,,,,,,,,,,,,,,,,,,,
1577742277.073342,103.000000,0.000000,4198.461426,4342.051270,4151.282227,4120.000000,4140.512695,16216.000000,4.000000,,,,0.000000,4.000000,4.000000,4.000000,4.000000,4.000000,,,,,,,,,,,,,,,,,,,,,,,,,,,,,,,,,,,,,
1577742277.081138,104.000000,0.000000,4204.102539,4366.666504,4159.487305,4136.922852,4153.846191,450.000000,4.000000,,,,0.000000,4.000000,4.000000,4.000000,4.000000,4.000000,52.000000,0.000000,0.316358,0.137695,0.872803,0.345215,0.534676,-0.600595,0.593271,4.409358,-47.514519,60.029270,,,,,,,,,,,,,,,,,,,,,,,,,
1577742277.088835,105.000000,0.000000,4212.820313,4382.563965,4179.487305,4146.153809,4168.205078,450.000000,4.000000,,,,0.000000,4.000000,4.000000,4.000000,4.000000,4.000000,,,,,,,,,,,,,,,,,,,,,,,,,,,,,,,,,,,,,
1577742277.096531,106.000000,0.000000,4222.051270,4365.641113,4185.641113,4153.846191,4173.846191,450.000000,4.000000,,,,0.000000,4.000000,4.000000,4.000000,4.000000,4.000000,53.000000,0.000000,0.315984,0.137939,0.872803,0.345459,0.521981,-0.608408,0.582040,4.865653,-47.368851,58.273235,,,,,,,,,,,,,,,,,,,,,,,,,
1577742277.104328,107.000000,0.000000,4216.410156,4355.384766,4173.333496,4152.307617,4156.922852,16216.000000,4.000000,,,,0.000000,4.000000,4.000000,4.000000,4.000000,4.000000,,,,,,,,,,,,,8.819725,5.742222,10.338086,5.595323,4.691642,2.036598,2.023189,2.305684,1.913348,2.248836,2.168099,6.976440,5.993660,3.617262,3.601832,8.056231,6.429747,8.699806,5.110567,5.166258,6.264674,6.305241,9.424533,5.826192,5.109403
1577742277.112025,108.000000,0.000000,4199.487305,4358.461426,4162.563965,4133.333496,4138.461426,450.000000,4.000000,,,,0.000000,4.000000,4.000000,4.000000,4.000000,4.000000,54.000000,0.000000,0.316285,0.138184,0.872559,0.345703,0.525887,-0.601083,0.590341,1.507950,-47.237751,56.573174,,,,,,,,,,,,,,,,,,,,,,,,,
1577742277.119821,109.000000,0.000000,4212.307617,4354.358887,4181.025879,4140.512695,4160.000000,450.000000,4.000000,,,,0.000000,4.000000,4.000000,4.000000,4.000000,4.000000,,,,,,,,,,,,,,,,,,,,,,,,,,,,,,,,,,,,,
1577742277.127518,110.000000,0.000000,4224.615234,4345.641113,4192.307617,4151.794922,4180.512695,450.000000,4.000000,,,,0.000000,4.000000,4.000000,4.000000,4.000000,4.000000,55.000000,0.000000,0.316178,0.138428,0.872559,0.345703,0.529793,-0.611337,0.584970,-1.633613,-47.359020,57.196468,,,,,,,,,,,,,,,,,,,,,,,,,
1577742277.135314,111.000000,0.000000,4202.051270,4352.307617,4172.307617,4128.717773,4156.410156,16216.000000,4.000000,,,,0.000000,4.000000,4.000000,4.000000,4.000000,4.000000,,,,,,,,,,,,,,,,,,,,,,,,,,,,,,,,,,,,,
1577742277.143011,112.000000,0.000000,4204.615234,4367.692383,4170.256348,4124.615234,4149.230957,450.000000,4.000000,,,,0.000000,4.000000,4.000000,4.000000,4.000000,4.000000,56.000000,0.000000,0.316211,0.138672,0.872314,0.346191,0.527352,-0.612802,0.578134,2.118670,-47.527977,57.697620,,,,,,,,,,,,,,,,,,,,,,,,,
1577742277.150807,113.000000,0.000000,4226.666504,4365.128418,4178.461426,4135.897461,4164.615234,450.000000,4.000000,,,,0.000000,4.000000,4.000000,4.000000,4.000000,4.000000,,,,,,,,,,,,,,,,,,,,,,,,,,,,,,,,,,,,,
1577742277.158504,114.000000,0.000000,4224.102539,4359.487305,4168.205078,4127.692383,4163.077148,450.000000,4.000000,,,,0.000000,4.000000,4.000000,4.000000,4.000000,4.000000,57.000000,0.000000,0.316103,0.138916,0.872314,0.346191,0.531258,-0.617685,0.582040,2.744218,-47.560410,58.029026,,,,,,,,,,,,,,,,,,,,,,,,,
1577742277.166301,115.000000,0.000000,4210.769043,4367.692383,4160.000000,4129.743652,4155.897461,16216.000000,4.000000,,,,0.000000,4.000000,4.000000,4.000000,4.000000,4.000000,,,,,,,,,,,,,,,,,,,,,,,,,,,,,,,,,,,,,
1577742277.173997,116.000000,0.000000,4216.410156,4376.410156,4172.307617,4152.820313,4169.230957,450.000000,4.000000,,,,0.000000,4.000000,4.000000,4.000000,4.000000,4.000000,58.000000,0.000000,0.315836,0.138916,0.872314,0.346436,0.529305,-0.616709,0.571298,3.307211,-47.529781,58.387104,,,,,,,,,,,,,,,,,,,,,,,,,
1577742277.181794,117.000000,0.000000,4221.538574,4361.538574,4172.820313,4153.846191,4176.410156,450.000000,4.000000,,,,0.000000,4.000000,4.000000,4.000000,4.000000,4.000000,,,,,,,,,,,,,,,,,,,,,,,,,,,,,,,,,,,,,
1577742277.189490,118.000000,0.000000,4227.179688,4349.230957,4171.794922,4151.794922,4177.948730,450.000000,4.000000,,,,0.000000,4.000000,4.000000,4.000000,4.000000,4.000000,59.000000,0.000000,0.316134,0.139160,0.872070,0.346680,0.523934,-0.613291,0.581552,3.813905,-47.442402,58.709377,,,,,,,,,,,,,,,,,,,,,,,,,
1577742277.197287,119.000000,0.000000,4247.179688,4370.769043,4193.333496,4173.846191,4200.000000,16216.000000,4.000000,,,,0.000000,4.000000,4.000000,4.000000,4.000000,4.000000,,,,,,,,,,,,,,,,,,,,,,,,,,,,,,,,,,,,,
1577742277.204984,120.000000,0.000000,4246.666504,4370.256348,4195.384766,4173.846191,4204.615234,450.000000,4.000000,,,,0.000000,4.000000,4.000000,4.000000,4.000000,4.000000,60.000000,0.000000,0.316134,0.139160,0.872070,0.346680,0.521004,-0.618173,0.580087,3.193253,-47.303944,59.059238,,,,,,,,,,,,,,,,,,,,,,,,,
1577742277.212780,121.000000,0.000000,4217.948730,4329.230957,4173.846191,4144.615234,4173.333496,450.000000,4.000000,,,,0.000000,4.000000,4.000000,4.000000,4.000000,4.000000,,,,,,,,,,,,,,,,,,,,,,,,,,,,,,,,,,,,,
1577742277.220477,122.000000,0.000000,4197.948730,4326.666504,4163.589844,4126.666504,4149.743652,450.000000,4.000000,,,,0.000000,4.000000,4.000000,4.000000,4.000000,4.000000,61.000000,0.000000,0.316134,0.139160,0.872070,0.346680,0.516121,-0.618173,0.576181,6.642296,-47.298965,59.314297,,,,,,,,,,,,,,,,,,,,,,,,,
1577742277.228273,123.000000,0.000000,4217.436035,4373.333496,4170.769043,4138.461426,4171.282227,16216.000000,4.000000,,,,0.000000,4.000000,4.000000,4.000000,4.000000,4.000000,,,,,,,,,,,,,6.779314,5.103104,11.480519,5.613040,4.416236,1.893938,1.920050,2.919080,1.832502,2.261371,1.848734,5.857802,5.983684,3.583756,3.217798,6.312881,5.441221,8.790999,4.879726,4.690792,5.046473,5.274434,9.953786,5.630039,4.836248
1577742277.236070,124.000000,0.000000,4241.025879,4381.538574,4175.384766,4155.897461,4196.410156,450.000000,4.000000,,,,0.000000,4.000000,4.000000,4.000000,4.000000,4.000000,62.000000,0.000000,0.315867,0.139160,0.872070,0.346924,0.525399,-0.615244,0.575692,9.626803,-47.354298,59.484035,,,,,,,,,,,,,,,,,,,,,,,,,
1577742277.243766,125.000000,0.000000,4235.384766,4353.333496,4177.948730,4153.846191,4187.179688,450.000000,4.000000,,,,0.000000,4.000000,4.000000,4.000000,4.000000,4.000000,,,,,,,,,,,,,,,,,,,,,,,,,,,,,,,,,,,,,
1577742277.251463,126.000000,0.000000,4224.615234,4344.102539,4175.384766,4141.538574,4175.384766,450.000000,4.000000,,,,0.000000,4.000000,4.000000,4.000000,4.000000,4.000000,63.000000,0.000000,0.315867,0.139160,0.872070,0.346924,0.534188,-0.608896,0.573739,9.561354,-47.344280,59.756428,,,,,,,,,,,,,,,,,,,,,,,,,
1577742277.259159,127.000000,0.000000,4224.615234,4358.461426,4169.743652,4141.538574,4178.974121,236.000000,4.000000,,,,0.000000,4.000000,4.000000,4.000000,4.000000,4.000000,,,,,,,,,,,,,,,,,,,,,,,,,,,,,,,,,,,,,
1577742277.266956,0.000000,0.000000,4238.974121,4372.820313,4186.666504,4157.436035,4193.333496,450.000000,4.000000,,,,0.000000,4.000000,4.000000,4.000000,4.000000,4.000000,0.000000,0.000000,0.315974,0.138916,0.872070,0.346924,0.528817,-0.611826,0.577157,9.323003,-47.454899,60.061398,,,,,,,,,,,,,,,,,,,,,,,,,
1577742277.274752,1.000000,0.000000,4253.333496,4372.307617,4202.563965,4161.025879,4204.102539,450.000000,4.000000,,,,0.000000,4.000000,4.000000,4.000000,4.000000,4.000000,,,,,,,,,,,,,,,,,,,,,,,,,,,,,,,,,,,,,
1577742277.282449,2.000000,0.000000,4255.897461,4366.153809,4193.333496,4150.256348,4208.717773,16211.000000,4.000000,,,,0.000000,4.000000,4.000000,4.000000,4.000000,4.000000,1.000000,0.000000,0.315867,0.139160,0.872070,0.346924,0.525399,-0.615244,0.575692,9.168303,-47.494637,58.242336,,,,,,,,,,,,,,,,,,,,,,,,,
1577742277.290245,3.000000,0.000000,4248.717773,4364.615234,4180.000000,4141.025879,4204.102539,450.000000,4.000000,,,,0.000000,4.000000,4.000000,4.000000,4.000000,4.000000,,,,,,,,,,,,,,,,,,,,,,,,,,,,,,,,,,,,,
1577742277.297941,4.000000,0.000000,4247.692383,4356.922852,4178.461426,4133.846191,4197.948730,16236.000000,4.000000,,,,0.000000,4.000000,4.000000,4.000000,4.000000,4.000000,2.000000,0.000000,0.315974,0.138916,0.872070,0.346924,0.528817,-0.611826,0.577157,8.969256,-47.590218,58.698715,,,,,,,,,,,,,,,,,,,,,,,,,
1577742277.305738,5.000000,0.000000,4247.692383,4344.102539,4176.410156,4128.205078,4197.436035,450.000000,4.000000,,,,0.000000,4.000000,4.000000,4.000000,4.000000,4.000000,,,,,,,,,,,,,,,,,,,,,,,,,,,,,,,,,,,,,
1577742277.313434,6.000000,0.000000,4243.589844,4345.641113,4174.871582,4132.820313,4201.538574,16140.000000,4.000000,,,,0.000000,4.000000,4.000000,4.000000,4.000000,4.000000,3.000000,0.000000,0.315974,0.138916,0.872070,0.346924,0.527840,-0.623056,0.577646,8.790115,-47.616425,58.930012,,,,,,,,,,,,,,,,,,,,,,,,,
1577742277.321230,7.000000,0.000000,4246.666504,4365.128418,4178.461426,4143.589844,4205.641113,450.000000,4.000000,,,,0.000000,4.000000,4.000000,4.000000,4.000000,4.000000,,,,,,,,,,,,,,,,,,,,,,,,,,,,,,,,,,,,,
1577742277.328927,8.000000,0.000000,4260.000000,4383.589844,4183.589844,4156.922852,4218.974121,450.000000,4.000000,,,,0.000000,4.000000,4.000000,4.000000,4.000000,4.000000,4.000000,0.000000,0.315974,0.138916,0.872070,0.346924,0.521981,-0.611337,0.586435,4.980151,-47.640011,57.403530,,,,,,,,,,,,,,,,,,,,,,,,,
1577742277.336723,9.000000,0.000000,4270.256348,4370.256348,4188.205078,4170.256348,4236.410156,16190.000000,4.000000,,,,0.000000,4.000000,4.000000,4.000000,4.000000,4.000000,,,,,,,,,,,,,,,,,,,,,,,,,,,,,,,,,,,,,
1577742277.344419,10.000000,0.000000,4270.769043,4348.717773,4189.230957,4173.333496,4240.512695,450.000000,4.000000,,,,0.000000,4.000000,4.000000,4.000000,4.000000,4.000000,5.000000,0.000000,0.315299,0.138916,0.872314,0.346924,0.522469,-0.605478,0.597665,1.491367,-47.661240,57.824162,,,,,,,,,,,,,,,,,,,,,,,,,
1577742277.352116,11.000000,0.000000,4260.000000,4353.846191,4189.743652,4169.230957,4234.358887,16206.000000,4.000000,,,,0.000000,4.000000,4.000000,4.000000,4.000000,4.000000,,,,,,,,,,,,,5.476731,5.257020,11.808203,5.585189,4.200437,1.717742,1.895993,3.363471,1.772941,2.259931,1.870076,4.915381,5.517021,3.618042,3.005418,5.051560,5.097786,8.193723,4.826478,4.364820,4.295761,5.009412,9.738946,5.540273,4.667160
1577742277.359912,12.000000,0.000000,4235.897461,4346.666504,4178.974121,4156.922852,4211.794922,450.000000,4.000000,,,,0.000000,4.000000,4.000000,4.000000,4.000000,4.000000,6.000000,0.000000,0.315299,0.138916,0.872314,0.346924,0.506844,-0.607919,0.592782,4.990968,-47.680347,58.202728,,,,,,,,,,,,,,,,,,,,,,,,,
1577742277.367709,13.000000,0.000000,4226.666504,4341.538574,4170.769043,4149.743652,4192.307617,450.000000,4.000000,,,,0.000000,4.000000,4.000000,4.000000,4.000000,4.000000,,,,,,,,,,,,,,,,,,,,,,,,,,,,,,,,,,,,,
1577742277.375405,14.000000,0.000000,4221.538574,4350.769043,4163.589844,4138.461426,4181.538574,450.000000,4.000000,,,,0.000000,4.000000,4.000000,4.000000,4.000000,4.000000,7.000000,0.000000,0.315407,0.138672,0.872314,0.346924,0.511238,-0.615732,0.586923,1.560918,-47.637726,58.603252,,,,,,,,,,,,,,,,,,,,,,,,,
1577742277.383102,15.000000,0.000000,4189.743652,4345.641113,4138.974121,4104.102539,4156.410156,16206.000000,4.000000,,,,0.000000,4.000000,4.000000,4.000000,4.000000,4.000000,,,,,,,,,,,,,,,,,,,,,,,,,,,,,,,,,,,,,
1577742277.390899,16.000000,0.000000,4208.205078,4352.820313,4158.461426,4124.615234,4176.410156,0.000000,4.000000,,,,0.000000,4.000000,4.000000,4.000000,4.000000,4.000000,8.000000,0.000000,0.315568,0.138916,0.872314,0.346680,0.530282,-0.618173,0.586435,5.053564,-47.539551,57.229080,,,,,,,,,,,,,,,,,,,,,,,,,
1577742277.398595,17.000000,0.000000,4273.333496,4380.000000,4215.384766,4192.307617,4240.000000,0.000000,4.000000,,,,0.000000,4.000000,4.000000,4.000000,4.000000,4.000000,,,,,,,,,,,,,,,,,,,,,,,,,,,,,,,,,,,,,
1577742277.406392,18.000000,0.000000,4260.512695,4373.846191,4202.563965,4176.922852,4232.820313,0.000000,4.000000,,,,0.000000,4.000000,4.000000,4.000000,4.000000,4.000000,9.000000,0.000000,0.315161,0.138916,0.872559,0.346436,0.515145,-0.620615,0.585458,5.385623,-47.630642,57.667156,,,,,,,,,,,,,,,,,,,,,,,,,
1577742277.414088,19.000000,0.000000,4235.897461,4361.025879,4182.051270,4147.179688,4210.256348,0.000000,4.000000,,,,0.000000,4.000000,4.000000,4.000000,4.000000,4.000000,,,,,,,,,,,,,,,,,,,,,,,,,,,,,,,,,,,,,
1577742277.421885,20.000000,0.000000,4294.871582,4380.512695,4232.820313,4206.666504,4268.205078,0.000000,4.000000,,,,0.000000,4.000000,4.000000,4.000000,4.000000,4.000000,10.000000,0.000000,0.315161,0.138916,0.872559,0.346436,0.523934,-0.625498,0.584970,1.975923,-47.712620,58.240868,,,,,,,,,,,,,,,,,,,,,,,,,
1577742277.429581,21.000000,0.000000,4322.563965,4373.333496,4241.025879,4228.717773,4294.871582,0.000000,4.000000,,,,0.000000,4.000000,4.000000,4.000000,4.000000,4.000000,,,,,,,,,,,,,,,,,,,,,,,,,,,,,,,,,,,,,
1577742277.437378,22.000000,0.000000,4279.487305,4340.000000,4185.128418,4173.846191,4246.153809,0.000000,4.000000,,,,0.000000,4.000000,4.000000,4.000000,4.000000,4.000000,11.000000,0.000000,0.315429,0.138916,0.872559,0.346191,0.522469,-0.613779,0.589364,5.486883,-47.606956,58.637581,,,,,,,,,,,,,,,,,,,,,,,,,
1577742277.445075,23.000000,0.000000,4255.384766,4335.897461,4167.692383,4157.436035,4223.589844,0.000000,4.000000,,,,0.000000,4.000000,4.000000,4.000000,4.000000,4.000000,,,,,,,,,,,,,,,,,,,,,,,,,,,,,,,,,,,,,
1577742277.452871,24.000000,0.000000,4262.051270,4352.820313,4186.153809,4181.025879,4236.410156,0.000000,4.000000,,,,0.000000,4.000000,4.000000,4.000000,4.000000,4.000000,12.000000,0.000000,0.315021,0.138916,0.872803,0.345947,0.522469,-0.597665,0.587411,5.715795,-47.511860,58.934803,,,,,,,,,,,,,,,,,,,,,,,,,
1577742277.460568,25.000000,0.000000,4276.922852,4364.102539,4189.743652,4191.794922,4244.615234,0.000000,4.000000,,,,0.000000,4.000000,4.000000,4.000000,4.000000,4.000000,,,,,,,,,,,,,,,,,,,,,,,,,,,,,,,,,,,,,
1577742277.468364,26.000000,0.000000,4283.589844,4352.820313,4180.000000,4189.230957,4244.102539,0.000000,4.000000,,,,0.000000,4.000000,4.000000,4.000000,4.000000,4.000000,13.000000,0.000000,0.314913,0.139160,0.872803,0.345947,0.534188,-0.614755,0.587900,8.912583,-47.426273,59.142490,,,,,,,,,,,,,,,,,,,,,,,,,
1577742277.476060,27.000000,0.000000,4250.256348,4333.846191,4159.487305,4159.487305,4214.871582,0.000000,4.000000,,,,0.000000,4.000000,4.000000,4.000000,4.000000,4.000000,,,,,,,,,,,,,5.064938,6.170995,11.319720,5.439453,4.071410,1.542840,1.939486,3.486490,1.747553,2.295640,2.350585,4.351250,4.792435,3.615015,2.986922,4.538291,5.493239,7.215583,4.850494,4.222293,4.087107,5.603730,8.989578,5.453170,4.624872
1577742277.483856,28.000000,0.000000,4222.051270,4330.769043,4148.205078,4130.256348,4187.692383,0.000000,4.000000,,,,0.000000,4.000000,4.000000,4.000000,4.000000,4.000000,14.000000,0.000000,0.314913,0.139160,0.872803,0.345947,0.527840,-0.616220,0.583993,11.670062,-47.468876,59.449039,,,,,,,,,,,,,,,,,,,,,,,,,
1577742277.491553,29.000000,0.000000,4240.512695,4340.512695,4157.436035,4138.461426,4194.358887,0.000000,4.000000,,,,0.000000,4.000000,4.000000,4.000000,4.000000,4.000000,,,,,,,,,,,,,,,,,,,,,,,,,,,,,,,,,,,,,
1577742277.499349,30.000000,0.000000,4240.512695,4337.436035,4157.436035,4145.641113,4190.769043,0.000000,4.000000,,,,0.000000,4.000000,4.000000,4.000000,4.000000,4.000000,15.000000,0.000000,0.314913,0.139160,0.872803,0.345947,0.526864,-0.613291,0.596689,11.340471,-47.387585,59.665119,,,,,,,,,,,,,,,,,,,,,,,,,
1577742277.507046,31.000000,0.000000,4214.871582,4334.871582,4148.205078,4136.922852,4173.333496,0.000000,4.000000,,,,0.000000,4.000000,4.000000,4.000000,4.000000,4.000000,,,,,,,,,,,,,,,,,,,,,,,,,,,,,,,,,,,,,
1577742277.514742,32.000000,0.000000,4232.820313,4354.871582,4161.025879,4152.820313,4194.871582,0.000000,4.000000,,,,0.000000,4.000000,4.000000,4.000000,4.000000,4.000000,16.000000,0.000000,0.315073,0.139404,0.872803,0.345703,0.534676,-0.611826,0.584482,13.974792,-47.314426,58.065128,,,,,,,,,,,,,,,,,,,,,,,,,
1577742277.522539,33.000000,0.000000,4262.051270,4347.692383,4171.282227,4167.179688,4220.000000,0.000000,4.000000,,,,0.000000,4.000000,4.000000,4.000000,4.000000,4.000000,,,,,,,,,,,,,,,,,,,,,,,,,,,,,,,,,,,,,
1577742277.530235,34.000000,0.000000,4247.179688,4315.384766,4160.000000,4145.128418,4206.153809,0.000000,4.000000,,,,0.000000,4.000000,4.000000,4.000000,4.000000,4.000000,17.000000,0.000000,0.315073,0.139404,0.872803,0.345703,0.529793,-0.596689,0.590829,12.397866,-47.368214,58.479412,,,,,,,,,,,,,,,,,,,,,,,,,
1577742277.538032,35.000000,0.000000,4242.563965,4335.384766,4162.563965,4140.512695,4207.179688,0.000000,4.000000,,,,0.000000,4.000000,4.000000,4.000000,4.000000,4.000000,,,,,,,,,,,,,,,,,,,,,,,,,,,,,,,,,,,,,
1577742277.545828,36.000000,0.000000,4255.384766,4369.230957,4160.000000,4147.692383,4212.820313,0.000000,4.000000,,,,0.000000,4.000000,4.000000,4.000000,4.000000,4.000000,18.000000,0.000000,0.315233,0.139648,0.872803,0.345459,0.507820,-0.602548,0.600595,14.866632,-47.476437,58.852272,,,,,,,,,,,,,,,,,,,,,,,,,
1577742277.553525,37.000000,0.000000,4255.384766,4351.282227,4144.615234,4136.922852,4203.589844,0.000000,4.000000,,,,0.000000,4.000000,4.000000,4.000000,4.000000,4.000000,,,,,,,,,,,,,,,,,,,,,,,,,,,,,,,,,,,,,
1577742277.561221,38.000000,0.000000,4271.282227,4329.743652,4160.512695,4155.384766,4227.692383,0.000000,4.000000,,,,0.000000,4.000000,4.000000,4.000000,4.000000,4.000000,19.000000,0.000000,0.315233,0.139648,0.872803,0.345459,0.519051,-0.621592,0.599619,17.148338,-47.394390,57.333565,,,,,,,,,,,,,,,,,,,,,,,,,
1577742277.569018,39.000000,0.000000,4267.692383,4332.820313,4156.922852,4157.436035,4231.794922,0.000000,4.000000,,,,0.000000,4.000000,4.000000,4.000000,4.000000,4.000000,,,,,,,,,,,,,,,,,,,,,,,,,,,,,,,,,,,,,
1577742277.576715,40.000000,0.000000,4232.307617,4322.051270,4121.538574,4115.897461,4190.769043,0.000000,4.000000,,,,0.000000,4.000000,4.000000,4.000000,4.000000,4.000000,20.000000,0.000000,0.315233,0.139648,0.872803,0.345459,0.541024,-0.608408,0.585458,16.151289,-47.440182,57.641560,,,,,,,,,,,,,,,,,,,,,,,,,
1577742277.584511,41.000000,0.000000,4244.102539,4324.102539,4130.769043,4124.102539,4204.102539,0.000000,4.000000,,,,0.000000,4.000000,4.000000,4.000000,4.000000,4.000000,,,,,,,,,,,,,,,,,,,,,,,,,,,,,,,,,,,,,
1577742277.592208,42.000000,0.000000,4285.641113,4351.794922,4158.974121,4171.282227,4251.794922,0.000000,4.000000,,,,0.000000,4.000000,4.000000,4.000000,4.000000,4.000000,21.000000,0.000000,0.314556,0.139648,0.873047,0.345459,0.526864,-0.620615,0.586923,15.493205,-47.301945,58.038387,,,,,,,,,,,,,,,,,,,,,,,,,
1577742277.600004,43.000000,0.000000,4290.256348,4350.769043,4154.358887,4175.897461,4249.743652,0.000000,4.000000,,,,0.000000,4.000000,4.000000,4.000000,4.000000,4.000000,,,,,,,,,,,,,5.257644,7.433657,10.402707,5.112430,3.987545,1.369734,2.004393,3.281894,1.760012,2.383997,3.156033,4.124532,4.158777,3.477956,3.081040,4.741606,6.361409,6.442990,4.813652,4.191424,4.308312,6.753469,8.244384,5.246140,4.644718
1577742277.607701,44.000000,0.000000,4290.769043,4330.769043,4157.436035,4174.871582,4249.230957,0.000000,4.000000,,,,0.000000,4.000000,4.000000,4.000000,4.000000,4.000000,22.000000,0.000000,0.314824,0.139648,0.873047,0.345215,0.533700,-0.604990,0.588876,16.815022,-47.297165,56.481438,,,,,,,,,,,,,,,,,,,,,,,,,
1577742277.615497,45.000000,0.000000,4285.128418,4327.179688,4157.436035,4177.436035,4252.307617,0.000000,4.000000,,,,0.000000,4.000000,4.000000,4.000000,4.000000,4.000000,,,,,,,,,,,,,,,,,,,,,,,,,,,,,,,,,,,,,
1577742277.623194,46.000000,0.000000,4260.000000,4333.333496,4136.410156,4155.384766,4230.769043,0.000000,4.000000,,,,0.000000,4.000000,4.000000,4.000000,4.000000,4.000000,23.000000,0.000000,0.314038,0.139893,0.873291,0.345215,0.541024,-0.620615,0.572274,18.004658,-47.352676,56.934464,,,,,,,,,,,,,,,,,,,,,,,,,
1577742277.630991,47.000000,0.000000,4260.000000,4339.487305,4140.000000,4153.846191,4231.794922,0.000000,4.000000,,,,0.000000,4.000000,4.000000,4.000000,4.000000,4.000000,,,,,,,,,,,,,,,,,,,,,,,,,,,,,,,,,,,,,
1577742277.638687,48.000000,0.000000,4262.563965,4322.051270,4148.205078,4157.436035,4234.871582,0.000000,4.000000,,,,0.000000,4.000000,4.000000,4.000000,4.000000,4.000000,24.000000,0.000000,0.314306,0.139893,0.873291,0.344971,0.521004,-0.615244,0.586923,17.161238,-47.462456,57.282368,,,,,,,,,,,,,,,,,,,,,,,,,
1577742277.646484,49.000000,0.000000,4269.743652,4315.897461,4156.410156,4161.025879,4238.974121,0.000000,4.000000,,,,0.000000,4.000000,4.000000,4.000000,4.000000,4.000000,,,,,,,,,,,,,,,,,,,,,,,,,,,,,,,,,,,,,
1577742277.654180,50.000000,0.000000,4306.153809,4352.307617,4179.487305,4190.256348,4272.820313,0.000000,4.000000,,,,0.000000,4.000000,4.000000,4.000000,4.000000,4.000000,25.000000,0.000000,0.314573,0.139893,0.873291,0.344727,0.533700,-0.620127,0.591318,16.342344,-47.501438,57.655300,,,,,,,,,,,,,,,,,,,,,,,,,
1577742277.661877,51.000000,0.000000,4307.692383,4363.077148,4173.333496,4188.717773,4272.307617,0.000000,4.000000,,,,0.000000,4.000000,4.000000,4.000000,4.000000,4.000000,,,,,,,,,,,,,,,,,,,,,,,,,,,,,,,,,,,,,
1577742277.669673,52.000000,0.000000,4265.641113,4327.179688,4137.948730,4145.641113,4230.256348,0.000000,4.000000,,,,0.000000,4.000000,4.000000,4.000000,4.000000,4.000000,26.000000,0.000000,0.313895,0.139893,0.873535,0.344727,0.524910,-0.605478,0.586923,11.717341,-47.357079,58.110565,,,,,,,,,,,,,,,,,,,,,,,,,
1577742277.677370,53.000000,0.000000,4251.794922,4323.077148,4128.717773,4131.282227,4220.000000,0.000000,4.000000,,,,0.000000,4.000000,4.000000,4.000000,4.000000,4.000000,,,,,,,,,,,,,,,,,,,,,,,,,,,,,,,,,,,,,
1577742277.685166,54.000000,0.000000,4275.384766,4343.589844,4148.205078,4158.974121,4243.589844,0.000000,4.000000,,,,0.000000,4.000000,4.000000,4.000000,4.000000,4.000000,27.000000,0.000000,0.314271,0.139648,0.873535,0.344482,0.514168,-0.608408,0.580087,10.366161,-47.346783,58.580124,,,,,,,,,,,,,,,,,,,,,,,,,
1577742277.692863,55.000000,0.000000,4286.666504,4332.820313,4147.692383,4168.717773,4253.333496,0.000000,4.000000,,,,0.000000,4.000000,4.000000,4.000000,4.000000,4.000000,,,,,,,,,,,,,,,,,,,,,,,,,,,,,,,,,,,,,
1577742277.700660,56.000000,0.000000,4255.897461,4321.025879,4101.025879,4128.205078,4225.641113,0.000000,4.000000,,,,0.000000,4.000000,4.000000,4.000000,4.000000,4.000000,28.000000,0.000000,0.314271,0.139648,0.873535,0.344482,0.525887,-0.601572,0.582528,13.038098,-47.277702,59.002724,,,,,,,,,,,,,,,,,,,,,,,,,
1577742277.708456,57.000000,0.000000,4238.974121,4335.384766,4077.948730,4106.666504,4205.128418,0.000000,4.000000,,,,0.000000,4.000000,4.000000,4.000000,4.000000,4.000000,,,,,,,,,,,,,,,,,,,,,,,,,,,,,,,,,,,,,
1577742277.716152,58.000000,0.000000,4285.128418,4345.128418,4127.179688,4154.358887,4241.538574,0.000000,4.000000,,,,0.000000,4.000000,4.000000,4.000000,4.000000,4.000000,29.000000,0.000000,0.313895,0.139893,0.873535,0.344727,0.524910,-0.605478,0.586923,11.554842,-47.275349,59.383064,,,,,,,,,,,,,,,,,,,,,,,,,
1577742277.723949,59.000000,0.000000,4298.974121,4335.384766,4144.102539,4170.256348,4255.384766,0.000000,4.000000,,,,0.000000,4.000000,4.000000,4.000000,4.000000,4.000000,,,,,,,,,,,,,5.670434,8.515904,9.417290,4.611204,3.904192,1.202068,2.044158,2.863277,1.807182,2.498096,4.047291,4.067554,3.859577,3.175281,3.180068,5.279563,7.301927,6.243272,4.625015,4.181809,4.749531,8.018353,7.878371,4.861418,4.647219
1577742277.731645,60.000000,0.000000,4252.820313,4321.538574,4106.153809,4128.205078,4211.282227,0.000000,4.000000,,,,0.000000,4.000000,4.000000,4.000000,4.000000,4.000000,30.000000,0.000000,0.314271,0.139648,0.873535,0.344482,0.525887,-0.601572,0.582528,14.107910,-47.213413,59.725372,,,,,,,,,,,,,,,,,,,,,,,,,
1577742277.739342,61.000000,0.000000,4242.563965,4324.615234,4113.333496,4127.692383,4203.589844,0.000000,4.000000,,,,0.000000,4.000000,4.000000,4.000000,4.000000,4.000000,,,,,,,,,,,,,,,,,,,,,,,,,,,,,,,,,,,,,
1577742277.747138,62.000000,0.000000,4264.102539,4335.897461,4144.102539,4155.897461,4231.282227,0.000000,4.000000,,,,0.000000,4.000000,4.000000,4.000000,4.000000,4.000000,31.000000,0.000000,0.314271,0.139648,0.873535,0.344482,0.525399,-0.605966,0.592782,16.465488,-47.157669,59.973633,,,,,,,,,,,,,,,,,,,,,,,,,
1577742277.754835,63.000000,0.000000,4246.666504,4324.615234,4124.615234,4136.922852,4215.897461,0.000000,4.000000,,,,0.000000,4.000000,4.000000,4.000000,4.000000,4.000000,,,,,,,,,,,,,,,,,,,,,,,,,,,,,,,,,,,,,
1577742277.762631,64.000000,0.000000,4220.000000,4310.769043,4103.589844,4110.256348,4190.769043,450.000000,4.000000,,,,0.000000,4.000000,4.000000,4.000000,4.000000,4.000000,32.000000,0.000000,0.314271,0.139648,0.873535,0.344482,0.525399,-0.610849,0.582528,11.947802,-47.107502,60.137253,,,,,,,,,,,,,,,,,,,,,,,,,
1577742277.770328,65.000000,0.000000,4227.179688,4324.102539,4115.897461,4124.102539,4201.538574,450.000000,4.000000,,,,0.000000,4.000000,4.000000,4.000000,4.000000,4.000000,,,,,,,,,,,,,,,,,,,,,,,,,,,,,,,,,,,,,
1577742277.778125,66.000000,0.000000,4249.230957,4334.358887,4131.794922,4149.743652,4224.102539,16206.000000,4.000000,,,,0.000000,4.000000,4.000000,4.000000,4.000000,4.000000,33.000000,0.000000,0.314380,0.139404,0.873535,0.344482,0.522469,-0.605966,0.591318,11.710067,-47.181980,60.224693,,,,,,,,,,,,,,,,,,,,,,,,,
1577742277.785921,67.000000,0.000000,4278.974121,4329.230957,4158.974121,4176.922852,4254.358887,450.000000,4.000000,,,,0.000000,4.000000,4.000000,4.000000,4.000000,4.000000,,,,,,,,,,,,,,,,,,,,,,,,,,,,,,,,,,,,,
1577742277.793618,68.000000,0.000000,4286.666504,4320.512695,4170.769043,4180.512695,4265.641113,16236.000000,4.000000,,,,0.000000,4.000000,4.000000,4.000000,4.000000,4.000000,34.000000,0.000000,0.314380,0.139404,0.873535,0.344482,0.521004,-0.611337,0.594736,11.436291,-47.129379,60.482838,,,,,,,,,,,,,,,,,,,,,,,,,
1577742277.801314,69.000000,0.000000,4266.666504,4313.333496,4149.230957,4152.820313,4244.615234,450.000000,4.000000,,,,0.000000,4.000000,4.000000,4.000000,4.000000,4.000000,,,,,,,,,,,,,,,,,,,,,,,,,,,,,,,,,,,,,
1577742277.809011,70.000000,0.000000,4260.512695,4324.615234,4146.666504,4143.589844,4236.922852,16137.000000,4.000000,,,,0.000000,4.000000,4.000000,4.000000,4.000000,4.000000,35.000000,0.000000,0.314488,0.139160,0.873535,0.344482,0.524910,-0.607919,0.590341,11.130076,-47.141857,60.715168,,,,,,,,,,,,,,,,,,,,,,,,,
1577742277.816807,71.000000,0.000000,4281.538574,4359.487305,4177.948730,4171.282227,4260.512695,450.000000,4.000000,,,,0.000000,4.000000,4.000000,4.000000,4.000000,4.000000,,,,,,,,,,,,,,,,,,,,,,,,,,,,,,,,,,,,,
1577742277.824604,72.000000,0.000000,4289.743652,4352.307617,4184.102539,4183.077148,4267.179688,450.000000,4.000000,,,,0.000000,4.000000,4.000000,4.000000,4.000000,4.000000,36.000000,0.000000,0.314596,0.138916,0.873535,0.344482,0.536629,-0.608896,0.583993,11.033931,-47.212898,60.744820,,,,,,,,,,,,,,,,,,,,,,,,,
1577742277.832300,73.000000,0.000000,4266.153809,4314.358887,4158.461426,4162.051270,4241.025879,16190.000000,4.000000,,,,0.000000,4.000000,4.000000,4.000000,4.000000,4.000000,,,,,,,,,,,,,,,,,,,,,,,,,,,,,,,,,,,,,
1577742277.840097,74.000000,0.000000,4252.307617,4313.846191,4146.153809,4146.666504,4228.717773,450.000000,4.000000,,,,0.000000,4.000000,4.000000,4.000000,4.000000,4.000000,37.000000,0.000000,0.314596,0.138916,0.873535,0.344482,0.516609,-0.614755,0.576669,7.059400,-47.276840,60.771503,,,,,,,,,,,,,,,,,,,,,,,,,
1577742277.847793,75.000000,0.000000,4272.820313,4340.512695,4161.025879,4157.948730,4247.179688,16208.000000,4.000000,,,,0.000000,4.000000,4.000000,4.000000,4.000000,4.000000,,,,,,,,,,,,,6.115170,9.099409,8.528641,4.004540,3.797807,1.051892,2.053339,2.396438,1.867035,2.582784,4.771589,4.037295,3.914768,2.744941,3.201235,5.830044,7.989726,6.560111,4.260270,4.128802,5.324126,9.089648,7.895927,4.316661,4.571256
1577742277.855589,76.000000,0.000000,4298.974121,4358.461426,4187.179688,4184.615234,4267.179688,450.000000,4.000000,,,,0.000000,4.000000,4.000000,4.000000,4.000000,4.000000,38.000000,0.000000,0.314596,0.138916,0.873535,0.344482,0.533700,-0.601572,0.595712,7.190875,-47.154938,60.795521,,,,,,,,,,,,,,,,,,,,,,,,,
1577742277.863286,77.000000,0.000000,4293.846191,4348.205078,4188.717773,4192.820313,4267.179688,450.000000,4.000000,,,,0.000000,4.000000,4.000000,4.000000,4.000000,4.000000,,,,,,,,,,,,,,,,,,,,,,,,,,,,,,,,,,,,,
1577742277.871082,78.000000,0.000000,4266.153809,4321.538574,4167.692383,4172.307617,4250.769043,450.000000,4.000000,,,,0.000000,4.000000,4.000000,4.000000,4.000000,4.000000,39.000000,0.000000,0.314025,0.138672,0.873779,0.344482,0.521004,-0.602548,0.592782,10.120524,-47.105042,61.056396,,,,,,,,,,,,,,,,,,,,,,,,,
1577742277.878778,79.000000,0.000000,4242.051270,4309.743652,4152.820313,4145.641113,4223.589844,16208.000000,4.000000,,,,0.000000,4.000000,4.000000,4.000000,4.000000,4.000000,,,,,,,,,,,,,,,,,,,,,,,,,,,,,,,,,,,,,
1577742277.886575,80.000000,0.000000,4229.230957,4325.128418,4143.077148,4133.846191,4204.102539,450.000000,4.000000,,,,0.000000,4.000000,4.000000,4.000000,4.000000,4.000000,40.000000,0.000000,0.314133,0.138428,0.873779,0.344482,0.519539,-0.603525,0.590341,9.945888,-47.119953,59.377094,,,,,,,,,,,,,,,,,,,,,,,,,
1577742277.894271,81.000000,0.000000,4220.512695,4332.307617,4135.897461,4129.743652,4196.410156,450.000000,4.000000,,,,0.000000,4.000000,4.000000,4.000000,4.000000,4.000000,,,,,,,,,,,,,,,,,,,,,,,,,,,,,,,,,,,,,
1577742277.902067,82.000000,0.000000,4253.846191,4336.410156,4177.436035,4163.077148,4229.743652,450.000000,4.000000,,,,0.000000,4.000000,4.000000,4.000000,4.000000,4.000000,41.000000,0.000000,0.314240,0.138184,0.873779,0.344482,0.532723,-0.606943,0.581552,9.848529,-47.193188,59.719997,,,,,,,,,,,,,,,,,,,,,,,,,
1577742277.909764,83.000000,0.000000,4314.358887,4356.922852,4236.922852,4221.538574,4291.282227,16208.000000,4.000000,,,,0.000000,4.000000,4.000000,4.000000,4.000000,4.000000,,,,,,,,,,,,,,,,,,,,,,,,,,,,,,,,,,,,,
1577742277.917460,84.000000,0.000000,4293.846191,4344.102539,4205.641113,4202.563965,4276.922852,450.000000,4.000000,,,,0.000000,4.000000,4.000000,4.000000,4.000000,4.000000,42.000000,0.000000,0.314240,0.138184,0.873779,0.344482,0.519051,-0.610361,0.589364,9.701092,-47.199284,59.968796,,,,,,,,,,,,,,,,,,,,,,,,,
1577742277.925257,85.000000,0.000000,4218.974121,4306.666504,4143.077148,4127.692383,4201.025879,450.000000,4.000000,,,,0.000000,4.000000,4.000000,4.000000,4.000000,4.000000,,,,,,,,,,,,,,,,,,,,,,,,,,,,,,,,,,,,,
1577742277.932953,86.000000,0.000000,4216.410156,4314.358887,4160.512695,4124.615234,4196.410156,450.000000,4.000000,,,,0.000000,4.000000,4.000000,4.000000,4.000000,4.000000,43.000000,0.000000,0.314240,0.138184,0.873779,0.344482,0.512215,-0.598642,0.585458,12.499351,-47.085136,58.218807,,,,,,,,,,,,,,,,,,,,,,,,,
1577742277.940750,87.000000,0.000000,4256.922852,4345.128418,4199.487305,4172.307617,4243.077148,16208.000000,4.000000,,,,0.000000,4.000000,4.000000,4.000000,4.000000,4.000000,,,,,,,,,,,,,,,,,,,,,,,,,,,,,,,,,,,,,
1577742277.948447,88.000000,0.000000,4252.820313,4329.743652,4186.666504,4175.384766,4239.487305,450.000000,4.000000,,,,0.000000,4.000000,4.000000,4.000000,4.000000,4.000000,44.000000,0.000000,0.314240,0.138184,0.873779,0.344482,0.520027,-0.605478,0.580575,11.069969,-47.042221,58.557911,,,,,,,,,,,,,,,,,,,,,,,,,
1577742277.956243,89.000000,0.000000,4224.102539,4304.102539,4154.358887,4143.589844,4205.128418,450.000000,4.000000,,,,0.000000,4.000000,4.000000,4.000000,4.000000,4.000000,,,,,,,,,,,,,,,,,,,,,,,,,,,,,,,,,,,,,
1577742277.963940,90.000000,0.000000,4225.641113,4325.128418,4153.846191,4138.974121,4205.128418,450.000000,4.000000,,,,0.000000,4.000000,4.000000,4.000000,4.000000,4.000000,45.000000,0.000000,0.314615,0.137939,0.873779,0.344238,0.523445,-0.595224,0.595224,6.972204,-47.003597,58.922916,,,,,,,,,,,,,,,,,,,,,,,,,
1577742277.971736,91.000000,0.000000,4268.717773,4356.922852,4193.333496,4185.128418,4251.794922,16208.000000,4.000000,,,,0.000000,4.000000,4.000000,4.000000,4.000000,4.000000,,,,,,,,,,,,,6.728048,9.218129,7.752653,3.407599,3.668902,0.964543,2.040703,2.029239,1.912507,2.587512,5.256767,4.058733,4.177185,2.275365,3.118218,6.355647,8.371131,7.032783,3.775254,4.010478,6.248601,9.930514,8.026584,3.701765,4.389203
1577742277.979433,92.000000,0.000000,4288.717773,4350.256348,4208.205078,4205.641113,4274.871582,450.000000,4.000000,,,,0.000000,4.000000,4.000000,4.000000,4.000000,4.000000,46.000000,0.000000,0.313936,0.137939,0.874023,0.344238,0.526375,-0.613779,0.590341,7.052583,-47.148281,59.311237,,,,,,,,,,,,,,,,,,,,,,,,,
1577742277.987229,93.000000,0.000000,4254.871582,4328.717773,4175.384766,4162.563965,4243.589844,450.000000,4.000000,,,,0.000000,4.000000,4.000000,4.000000,4.000000,4.000000,,,,,,,,,,,,,,,,,,,,,,,,,,,,,,,,,,,,,
1577742277.994926,94.000000,0.000000,4238.461426,4321.538574,4161.538574,4139.487305,4226.666504,450.000000,4.000000,,,,0.000000,4.000000,4.000000,4.000000,4.000000,4.000000,47.000000,0.000000,0.314043,0.137695,0.874023,0.344238,0.528328,-0.598642,0.593271,7.364186,-47.039238,59.481281,,,,,,,,,,,,,,,,,,,,,,,,,
1577742278.002723,95.000000,0.000000,4270.256348,4334.871582,4192.307617,4169.743652,4254.871582,16208.000000,4.000000,,,,0.000000,4.000000,4.000000,4.000000,4.000000,4.000000,,,,,,,,,,,,,,,,,,,,,,,,,,,,,,,,,,,,,
1577742278.010419,96.000000,0.000000,4294.358887,4349.230957,4216.410156,4194.871582,4275.897461,450.000000,4.000000,,,,0.000000,4.000000,4.000000,4.000000,4.000000,4.000000,48.000000,0.000000,0.314043,0.137695,0.874023,0.344238,0.528817,-0.613779,0.585946,3.696815,-47.120544,59.694138,,,,,,,,,,,,,,,,,,,,,,,,,
1577742278.018216,97.000000,0.000000,4280.000000,4336.922852,4205.641113,4184.102539,4260.000000,450.000000,4.000000,,,,0.000000,4.000000,4.000000,4.000000,4.000000,4.000000,,,,,,,,,,,,,,,,,,,,,,,,,,,,,,,,,,,,,
1577742278.025912,98.000000,0.000000,4253.846191,4312.307617,4181.538574,4163.589844,4235.384766,450.000000,4.000000,,,,0.000000,4.000000,4.000000,4.000000,4.000000,4.000000,49.000000,0.000000,0.314150,0.137451,0.874023,0.344238,0.536141,-0.614267,0.600595,4.044918,-47.014271,59.945522,,,,,,,,,,,,,,,,,,,,,,,,,
1577742278.033709,99.000000,0.000000,4231.282227,4308.205078,4166.666504,4143.077148,4216.922852,16208.000000,4.000000,,,,0.000000,4.000000,4.000000,4.000000,4.000000,4.000000,,,,,,,,,,,,,,,,,,,,,,,,,,,,,,,,,,,,,
1577742278.041405,100.000000,0.000000,4236.922852,4325.128418,4172.820313,4141.538574,4220.000000,450.000000,4.000000,,,,0.000000,4.000000,4.000000,4.000000,4.000000,4.000000,50.000000,0.000000,0.314150,0.137451,0.874023,0.344238,0.522957,-0.609873,0.603037,4.537656,-47.098076,60.291397,,,,,,,,,,,,,,,,,,,,,,,,,
1577742278.049202,101.000000,0.000000,4265.641113,4343.077148,4187.692383,4168.717773,4241.538574,450.000000,4.000000,,,,0.000000,4.000000,4.000000,4.000000,4.000000,4.000000,,,,,,,,,,,,,,,,,,,,,,,,,,,,,,,,,,,,,
1577742278.056898,102.000000,0.000000,4269.230957,4341.025879,4189.743652,4181.025879,4243.077148,450.000000,4.000000,,,,0.000000,4.000000,4.000000,4.000000,4.000000,4.000000,51.000000,0.000000,0.314257,0.137207,0.874023,0.344238,0.535653,-0.618662,0.598154,7.792443,-46.994049,58.688595,,,,,,,,,,,,,,,,,,,,,,,,,
1577742278.064595,103.000000,0.000000,4228.717773,4322.563965,4175.897461,4153.333496,4210.256348,16208.000000,4.000000,,,,0.000000,4.000000,4.000000,4.000000,4.000000,4.000000,,,,,,,,,,,,,,,,,,,,,,,,,,,,,,,,,,,,,
1577742278.072391,104.000000,0.000000,4220.000000,4339.487305,4184.102539,4153.846191,4210.256348,450.000000,4.000000,,,,0.000000,4.000000,4.000000,4.000000,4.000000,4.000000,52.000000,0.000000,0.314524,0.137207,0.874023,0.343994,0.516609,-0.606943,0.597665,7.790799,-47.139690,59.040535,,,,,,,,,,,,,,,,,,,,,,,,,
1577742278.080088,105.000000,0.000000,4257.436035,4373.333496,4211.794922,4194.358887,4247.692383,450.000000,4.000000,,,,0.000000,4.000000,4.000000,4.000000,4.000000,4.000000,,,,,,,,,,,,,,,,,,,,,,,,,,,,,,,,,,,,,
1577742278.087884,106.000000,0.000000,4236.410156,4337.436035,4194.871582,4168.205078,4218.974121,450.000000,4.000000,,,,0.000000,4.000000,4.000000,4.000000,4.000000,4.000000,53.000000,0.000000,0.314524,0.137207,0.874023,0.343994,0.524910,-0.610849,0.591806,7.908949,-47.091320,59.536724,,,,,,,,,,,,,,,,,,,,,,,,,
1577742278.095581,107.000000,0.000000,4196.410156,4305.128418,4171.794922,4126.153809,4176.922852,16208.000000,4.000000,,,,0.000000,4.000000,4.000000,4.000000,4.000000,4.000000,,,,,,,,,,,,,7.624220,9.024725,7.151353,2.939392,3.534194,0.969567,2.000500,1.844317,1.929344,2.496440,5.641253,4.180687,4.508200,1.868473,2.965706,6.910071,8.426785,7.340351,3.281934,3.846507,7.703321,10.540683,8.073628,3.137097,4.114663
1577742278.103377,108.000000,0.000000,4228.205078,4348.205078,4194.358887,4159.487305,4213.846191,450.000000,4.000000,,,,0.000000,4.000000,4.000000,4.000000,4.000000,4.000000,54.000000,0.000000,0.314524,0.137207,0.874023,0.343994,0.512215,-0.591318,0.594247,10.826607,-47.167416,57.829945,,,,,,,,,,,,,,,,,,,,,,,,,
1577742278.111174,109.000000,0.000000,4258.974121,4371.282227,4211.282227,4182.563965,4242.051270,450.000000,4.000000,,,,0.000000,4.000000,4.000000,4.000000,4.000000,4.000000,,,,,,,,,,,,,,,,,,,,,,,,,,,,,,,,,,,,,
1577742278.118870,110.000000,0.000000,4263.589844,4345.128418,4226.153809,4178.974121,4240.000000,450.000000,4.000000,,,,0.000000,4.000000,4.000000,4.000000,4.000000,4.000000,55.000000,0.000000,0.314524,0.137207,0.874023,0.343994,0.534676,-0.589364,0.578134,8.786901,-47.235905,58.207932,,,,,,,,,,,,,,,,,,,,,,,,,
1577742278.126567,111.000000,0.000000,4288.205078,4343.077148,4260.000000,4214.871582,4270.256348,16208.000000,4.000000,,,,0.000000,4.000000,4.000000,4.000000,4.000000,4.000000,,,,,,,,,,,,,,,,,,,,,,,,,,,,,,,,,,,,,
1577742278.134363,112.000000,0.000000,4265.128418,4331.794922,4238.461426,4204.615234,4254.358887,450.000000,4.000000,,,,0.000000,4.000000,4.000000,4.000000,4.000000,4.000000,56.000000,0.000000,0.314524,0.137207,0.874023,0.343994,0.522957,-0.600107,0.596689,8.865256,-47.357357,58.548122,,,,,,,,,,,,,,,,,,,,,,,,,
1577742278.142060,113.000000,0.000000,4197.436035,4295.384766,4178.461426,4131.282227,4185.128418,450.000000,4.000000,,,,0.000000,4.000000,4.000000,4.000000,4.000000,4.000000,,,,,,,,,,,,,,,,,,,,,,,,,,,,,,,,,,,,,
1577742278.149857,114.000000,0.000000,4197.948730,4307.692383,4178.461426,4119.487305,4180.000000,450.000000,4.000000,,,,0.000000,4.000000,4.000000,4.000000,4.000000,4.000000,57.000000,0.000000,0.314630,0.136963,0.874023,0.343994,0.523934,-0.592782,0.593271,7.918915,-47.347038,58.973923,,,,,,,,,,,,,,,,,,,,,,,,,
1577742278.157553,115.000000,0.000000,4204.615234,4321.538574,4186.153809,4129.230957,4183.077148,16208.000000,4.000000,,,,0.000000,4.000000,4.000000,4.000000,4.000000,4.000000,,,,,,,,,,,,,,,,,,,,,,,,,,,,,,,,,,,,,
1577742278.165350,116.000000,0.000000,4178.461426,4314.871582,4166.153809,4111.282227,4161.025879,450.000000,4.000000,,,,0.000000,4.000000,4.000000,4.000000,4.000000,4.000000,58.000000,0.000000,0.314524,0.137207,0.874023,0.343994,0.534676,-0.589364,0.578134,10.835576,-47.397564,59.117882,,,,,,,,,,,,,,,,,,,,,,,,,
1577742278.173046,117.000000,0.000000,4194.358887,4321.025879,4172.820313,4124.615234,4181.538574,450.000000,4.000000,,,,0.000000,4.000000,4.000000,4.000000,4.000000,4.000000,,,,,,,,,,,,,,,,,,,,,,,,,,,,,,,,,,,,,
1577742278.180843,118.000000,0.000000,4208.205078,4308.205078,4181.025879,4131.282227,4193.846191,450.000000,4.000000,,,,0.000000,4.000000,4.000000,4.000000,4.000000,4.000000,59.000000,0.000000,0.314630,0.136963,0.874023,0.343994,0.523934,-0.592782,0.593271,9.692204,-47.383221,59.486706,,,,,,,,,,,,,,,,,,,,,,,,,
1577742278.188540,119.000000,0.000000,4214.358887,4318.974121,4201.538574,4140.000000,4197.436035,16208.000000,4.000000,,,,0.000000,4.000000,4.000000,4.000000,4.000000,4.000000,,,,,,,,,,,,,,,,,,,,,,,,,,,,,,,,,,,,,
1577742278.196336,120.000000,0.000000,4262.563965,4362.563965,4248.205078,4191.794922,4250.769043,450.000000,4.000000,,,,0.000000,4.000000,4.000000,4.000000,4.000000,4.000000,60.000000,0.000000,0.313951,0.136963,0.874268,0.343994,0.524910,-0.610361,0.595224,12.371720,-47.430126,59.818649,,,,,,,,,,,,,,,,,,,,,,,,,
1577742278.204033,121.000000,0.000000,4260.512695,4343.077148,4230.256348,4182.051270,4253.846191,450.000000,4.000000,,,,0.000000,4.000000,4.000000,4.000000,4.000000,4.000000,,,,,,,,,,,,,,,,,,,,,,,,,,,,,,,,,,,,,
1577742278.211829,122.000000,0.000000,4182.051270,4291.794922,4163.077148,4103.077148,4172.307617,450.000000,4.000000,,,,0.000000,4.000000,4.000000,4.000000,4.000000,4.000000,61.000000,0.000000,0.313951,0.136963,0.874268,0.343994,0.533700,-0.609873,0.589853,11.971964,-47.412529,60.057583,,,,,,,,,,,,,,,,,,,,,,,,,
1577742278.219626,123.000000,0.000000,4171.794922,4319.487305,4165.641113,4104.615234,4162.051270,16208.000000,4.000000,,,,0.000000,4.000000,4.000000,4.000000,4.000000,4.000000,,,,,,,,,,,,,8.647081,8.577250,6.733882,2.718082,3.433916,1.049886,1.896837,1.798581,1.921554,2.347261,6.037961,4.371563,4.758201,1.634504,2.832393,7.500838,8.098530,7.288527,2.954094,3.700597,9.511691,10.754899,7.909513,2.764982,3.818582
1577742278.227322,124.000000,0.000000,4237.436035,4344.615234,4210.769043,4168.717773,4228.205078,450.000000,4.000000,,,,0.000000,4.000000,4.000000,4.000000,4.000000,4.000000,62.000000,0.000000,0.313951,0.136963,0.874268,0.343994,0.522957,-0.620615,0.592294,7.903630,-47.396690,60.152992,,,,,,,,,,,,,,,,,,,,,,,,,
1577742278.235019,125.000000,0.000000,4252.307617,4308.717773,4217.436035,4183.077148,4247.692383,450.000000,4.000000,,,,0.000000,4.000000,4.000000,4.000000,4.000000,4.000000,,,,,,,,,,,,,,,,,,,,,,,,,,,,,,,,,,,,,
1577742278.242715,126.000000,0.000000,4214.358887,4307.179688,4202.563965,4157.948730,4217.436035,450.000000,4.000000,,,,0.000000,4.000000,4.000000,4.000000,4.000000,4.000000,63.000000,0.000000,0.313951,0.136963,0.874268,0.343994,0.527840,-0.604013,0.586923,10.762004,-47.442249,60.418304,,,,,,,,,,,,,,,,,,,,,,,,,
1577742278.250512,127.000000,0.000000,4172.307617,4331.282227,4174.871582,4114.871582,4170.769043,236.000000,4.000000,,,,0.000000,4.000000,4.000000,4.000000,4.000000,4.000000,,,,,,,,,,,,,,,,,,,,,,,,,,,,,,,,,,,,,
1577742278.258308,0.000000,0.000000,4176.410156,4331.794922,4178.461426,4104.102539,4170.256348,450.000000,4.000000,,,,0.000000,4.000000,4.000000,4.000000,4.000000,4.000000,0.000000,0.000000,0.313951,0.136963,0.874268,0.343994,0.517098,-0.607431,0.581552,9.566173,-47.303806,60.657089,,,,,,,,,,,,,,,,,,,,,,,,,
1577742278.266005,1.000000,0.000000,4229.230957,4322.563965,4236.410156,4158.974121,4226.153809,450.000000,4.000000,,,,0.000000,4.000000,4.000000,4.000000,4.000000,4.000000,,,,,,,,,,,,,,,,,,,,,,,,,,,,,,,,,,,,,
1577742278.273801,2.000000,0.000000,4228.205078,4317.436035,4245.128418,4171.282227,4226.666504,16214.000000,4.000000,,,,0.000000,4.000000,4.000000,4.000000,4.000000,4.000000,1.000000,0.000000,0.314325,0.136719,0.874268,0.343750,0.535653,-0.613779,0.612802,12.318109,-47.298840,60.812180,,,,,,,,,,,,,,,,,,,,,,,,,
1577742278.281497,3.000000,0.000000,4177.948730,4318.974121,4200.000000,4126.153809,4176.410156,450.000000,4.000000,,,,0.000000,4.000000,4.000000,4.000000,4.000000,4.000000,,,,,,,,,,,,,,,,,,,,,,,,,,,,,,,,,,,,,
1577742278.289294,4.000000,0.000000,4179.487305,4326.153809,4195.897461,4127.179688,4176.410156,16252.000000,4.000000,,,,0.000000,4.000000,4.000000,4.000000,4.000000,4.000000,2.000000,0.000000,0.314325,0.136719,0.874268,0.343750,0.524422,-0.606943,0.583017,8.035714,-47.294373,61.071388,,,,,,,,,,,,,,,,,,,,,,,,,
1577742278.296990,5.000000,0.000000,4196.922852,4322.563965,4200.512695,4137.948730,4187.179688,450.000000,4.000000,,,,0.000000,4.000000,4.000000,4.000000,4.000000,4.000000,,,,,,,,,,,,,,,,,,,,,,,,,,,,,,,,,,,,,
1577742278.304786,6.000000,0.000000,4197.948730,4315.897461,4193.333496,4133.333496,4190.769043,16142.000000,4.000000,,,,0.000000,4.000000,4.000000,4.000000,4.000000,4.000000,3.000000,0.000000,0.314325,0.136719,0.874268,0.343750,0.530770,-0.620127,0.583017,8.129373,-47.469795,61.244865,,,,,,,,,,,,,,,,,,,,,,,,,
1577742278.312483,7.000000,0.000000,4229.230957,4328.205078,4216.410156,4166.666504,4229.743652,450.000000,4.000000,,,,0.000000,4.000000,4.000000,4.000000,4.000000,4.000000,,,,,,,,,,,,,,,,,,,,,,,,,,,,,,,,,,,,,
1577742278.320279,8.000000,0.000000,4243.077148,4335.384766,4220.512695,4175.897461,4237.948730,450.000000,4.000000,,,,0.000000,4.000000,4.000000,4.000000,4.000000,4.000000,4.000000,0.000000,0.314019,0.136475,0.874512,0.343506,0.522957,-0.604990,0.573251,8.273481,-47.388412,61.400990,,,,,,,,,,,,,,,,,,,,,,,,,
1577742278.327975,9.000000,0.000000,4209.743652,4329.230957,4186.666504,4127.692383,4198.461426,16195.000000,4.000000,,,,0.000000,4.000000,4.000000,4.000000,4.000000,4.000000,,,,,,,,,,,,,,,,,,,,,,,,,,,,,,,,,,,,,
1577742278.335772,10.000000,0.000000,4201.538574,4331.794922,4182.563965,4121.538574,4192.307617,450.000000,4.000000,,,,0.000000,4.000000,4.000000,4.000000,4.000000,4.000000,5.000000,0.000000,0.314019,0.136475,0.874512,0.343506,0.529793,-0.598154,0.594736,10.317271,-47.434799,61.421875,,,,,,,,,,,,,,,,,,,,,,,,,
1577742278.343468,11.000000,0.000000,4241.538574,4341.538574,4217.436035,4173.846191,4232.307617,16212.000000,4.000000,,,,0.000000,4.000000,4.000000,4.000000,4.000000,4.000000,,,,,,,,,,,,,9.584538,7.821899,6.429328,2.799944,3.438569,1.156357,1.689355,1.778188,1.905480,2.218582,6.514100,4.509038,4.791264,1.647710,2.826011,8.033797,7.288331,6.790964,2.944086,3.673229,11.317758,10.322851,7.469455,2.679928,3.625662
1577742278.351264,12.000000,0.000000,4261.025879,4336.410156,4229.230957,4184.615234,4251.282227,450.000000,4.000000,,,,0.000000,4.000000,4.000000,4.000000,4.000000,4.000000,6.000000,0.000000,0.314019,0.136475,0.874512,0.343506,0.527840,-0.593271,0.601083,6.234960,-47.356918,61.500484,,,,,,,,,,,,,,,,,,,,,,,,,
1577742278.358961,13.000000,0.000000,4225.641113,4320.512695,4199.487305,4131.282227,4212.820313,450.000000,4.000000,,,,0.000000,4.000000,4.000000,4.000000,4.000000,4.000000,,,,,,,,,,,,,,,,,,,,,,,,,,,,,,,,,,,,,
1577742278.366657,14.000000,0.000000,4208.717773,4316.922852,4192.820313,4112.307617,4188.205078,450.000000,4.000000,,,,0.000000,4.000000,4.000000,4.000000,4.000000,4.000000,7.000000,0.000000,0.314125,0.136230,0.874512,0.343506,0.535653,-0.611826,0.575204,6.448879,-47.406456,61.511417,,,,,,,,,,,,,,,,,,,,,,,,,
1577742278.374454,15.000000,0.000000,4222.563965,4317.948730,4206.666504,4137.436035,4201.538574,16212.000000,4.000000,,,,0.000000,4.000000,4.000000,4.000000,4.000000,4.000000,,,,,,,,,,,,,,,,,,,,,,,,,,,,,,,,,,,,,
1577742278.382150,16.000000,0.000000,4201.025879,4317.436035,4188.205078,4117.948730,4190.256348,0.000000,4.000000,,,,0.000000,4.000000,4.000000,4.000000,4.000000,4.000000,8.000000,0.000000,0.314230,0.135986,0.874512,0.343506,0.530770,-0.595712,0.599619,2.932854,-47.211781,61.640892,,,,,,,,,,,,,,,,,,,,,,,,,
1577742278.389947,17.000000,0.000000,4205.128418,4338.461426,4197.436035,4110.256348,4196.922852,0.000000,4.000000,,,,0.000000,4.000000,4.000000,4.000000,4.000000,4.000000,,,,,,,,,,,,,,,,,,,,,,,,,,,,,,,,,,,,,
1577742278.397644,18.000000,0.000000,4273.846191,4346.153809,4250.256348,4172.307617,4258.461426,0.000000,4.000000,,,,0.000000,4.000000,4.000000,4.000000,4.000000,4.000000,9.000000,0.000000,0.314336,0.135742,0.874512,0.343506,0.532723,-0.593271,0.607431,3.417168,-47.216015,61.757416,,,,,,,,,,,,,,,,,,,,,,,,,
1577742278.405440,19.000000,0.000000,4276.410156,4308.717773,4231.282227,4174.358887,4256.922852,0.000000,4.000000,,,,0.000000,4.000000,4.000000,4.000000,4.000000,4.000000,,,,,,,,,,,,,,,,,,,,,,,,,,,,,,,,,,,,,
1577742278.413137,20.000000,0.000000,4202.051270,4293.846191,4157.436035,4095.897461,4182.563965,0.000000,4.000000,,,,0.000000,4.000000,4.000000,4.000000,4.000000,4.000000,10.000000,0.000000,0.314336,0.135742,0.874512,0.343506,0.527352,-0.616220,0.603525,3.912866,-47.279644,61.742657,,,,,,,,,,,,,,,,,,,,,,,,,
1577742278.420933,21.000000,0.000000,4205.641113,4334.871582,4169.743652,4098.461426,4186.666504,0.000000,4.000000,,,,0.000000,4.000000,4.000000,4.000000,4.000000,4.000000,,,,,,,,,,,,,,,,,,,,,,,,,,,,,,,,,,,,,
1577742278.428630,22.000000,0.000000,4263.077148,4351.282227,4227.692383,4164.102539,4245.641113,0.000000,4.000000,,,,0.000000,4.000000,4.000000,4.000000,4.000000,4.000000,11.000000,0.000000,0.313761,0.135498,0.874756,0.343506,0.526375,-0.618173,0.592782,7.170317,-47.277092,59.755466,,,,,,,,,,,,,,,,,,,,,,,,,
1577742278.436426,23.000000,0.000000,4250.769043,4322.563965,4219.487305,4154.871582,4232.307617,0.000000,4.000000,,,,0.000000,4.000000,4.000000,4.000000,4.000000,4.000000,,,,,,,,,,,,,,,,,,,,,,,,,,,,,,,,,,,,,
1577742278.444123,24.000000,0.000000,4234.358887,4317.948730,4210.256348,4134.871582,4209.743652,0.000000,4.000000,,,,0.000000,4.000000,4.000000,4.000000,4.000000,4.000000,12.000000,0.000000,0.313761,0.135498,0.874756,0.343506,0.512215,-0.606455,0.595224,5.496240,-47.214981,59.881088,,,,,,,,,,,,,,,,,,,,,,,,,
1577742278.451919,25.000000,0.000000,4276.922852,4333.333496,4251.282227,4182.051270,4252.820313,0.000000,4.000000,,,,0.000000,4.000000,4.000000,4.000000,4.000000,4.000000,,,,,,,,,,,,,,,,,,,,,,,,,,,,,,,,,,,,,
1577742278.459616,26.000000,0.000000,4293.846191,4334.358887,4260.512695,4207.179688,4275.384766,0.000000,4.000000,,,,0.000000,4.000000,4.000000,4.000000,4.000000,4.000000,13.000000,0.000000,0.314028,0.135498,0.874756,0.343262,0.520516,-0.603525,0.589853,5.784031,-47.159081,60.113777,,,,,,,,,,,,,,,,,,,,,,,,,
1577742278.467412,27.000000,0.000000,4254.358887,4347.179688,4221.538574,4170.769043,4230.256348,0.000000,4.000000,,,,0.000000,4.000000,4.000000,4.000000,4.000000,4.000000,,,,,,,,,,,,,10.152708,6.866194,6.345382,3.146398,3.623534,1.265195,1.423577,1.730534,1.890849,2.194888,6.954775,4.534223,4.668199,1.919996,3.017021,8.334059,6.124737,6.079698,3.300309,3.852388,12.591251,9.285514,6.980631,2.892010,3.661060
1577742278.475108,28.000000,0.000000,4241.025879,4355.897461,4213.333496,4151.794922,4212.307617,0.000000,4.000000,,,,0.000000,4.000000,4.000000,4.000000,4.000000,4.000000,14.000000,0.000000,0.314134,0.135254,0.874756,0.343262,0.525399,-0.600107,0.594247,6.102858,-47.108772,60.263382,,,,,,,,,,,,,,,,,,,,,,,,,
1577742278.482805,29.000000,0.000000,4261.025879,4329.743652,4225.128418,4159.487305,4235.897461,0.000000,4.000000,,,,0.000000,4.000000,4.000000,4.000000,4.000000,4.000000,,,,,,,,,,,,,,,,,,,,,,,,,,,,,,,,,,,,,
1577742278.490601,30.000000,0.000000,4248.205078,4313.333496,4211.282227,4144.102539,4223.077148,0.000000,4.000000,,,,0.000000,4.000000,4.000000,4.000000,4.000000,4.000000,15.000000,0.000000,0.314400,0.135254,0.874756,0.343018,0.538094,-0.599619,0.595712,9.021679,-47.302753,60.338211,,,,,,,,,,,,,,,,,,,,,,,,,
1577742278.498298,31.000000,0.000000,4228.205078,4331.794922,4200.000000,4128.205078,4198.461426,0.000000,4.000000,,,,0.000000,4.000000,4.000000,4.000000,4.000000,4.000000,,,,,,,,,,,,,,,,,,,,,,,,,,,,,,,,,,,,,
1577742278.506095,32.000000,0.000000,4244.102539,4344.615234,4212.820313,4145.128418,4214.358887,0.000000,4.000000,,,,0.000000,4.000000,4.000000,4.000000,4.000000,4.000000,16.000000,0.000000,0.314400,0.135254,0.874756,0.343018,0.528817,-0.592294,0.590341,9.016742,-47.238079,60.525188,,,,,,,,,,,,,,,,,,,,,,,,,
1577742278.513791,33.000000,0.000000,4261.025879,4331.794922,4229.230957,4170.256348,4237.948730,0.000000,4.000000,,,,0.000000,4.000000,4.000000,4.000000,4.000000,4.000000,,,,,,,,,,,,,,,,,,,,,,,,,,,,,,,,,,,,,
1577742278.521588,34.000000,0.000000,4238.974121,4307.179688,4223.589844,4160.512695,4218.974121,0.000000,4.000000,,,,0.000000,4.000000,4.000000,4.000000,4.000000,4.000000,17.000000,0.000000,0.314400,0.135254,0.874756,0.343018,0.523445,-0.588388,0.599130,8.832851,-47.060238,60.573837,,,,,,,,,,,,,,,,,,,,,,,,,
1577742278.529284,35.000000,0.000000,4226.666504,4307.179688,4216.922852,4149.743652,4205.128418,0.000000,4.000000,,,,0.000000,4.000000,4.000000,4.000000,4.000000,4.000000,,,,,,,,,,,,,,,,,,,,,,,,,,,,,,,,,,,,,
1577742278.537081,36.000000,0.000000,4258.974121,4340.000000,4233.846191,4173.846191,4242.051270,0.000000,4.000000,,,,0.000000,4.000000,4.000000,4.000000,4.000000,4.000000,18.000000,0.000000,0.314400,0.135254,0.874756,0.343018,0.525399,-0.602548,0.600107,7.889751,-47.019814,60.557804,,,,,,,,,,,,,,,,,,,,,,,,,
1577742278.544777,37.000000,0.000000,4265.641113,4352.307617,4233.846191,4180.512695,4260.512695,0.000000,4.000000,,,,0.000000,4.000000,4.000000,4.000000,4.000000,4.000000,,,,,,,,,,,,,,,,,,,,,,,,,,,,,,,,,,,,,
1577742278.552574,38.000000,0.000000,4243.589844,4342.051270,4221.025879,4163.077148,4238.461426,0.000000,4.000000,,,,0.000000,4.000000,4.000000,4.000000,4.000000,4.000000,19.000000,0.000000,0.314295,0.135498,0.874756,0.343018,0.515145,-0.604013,0.598154,10.749514,-47.043247,60.722820,,,,,,,,,,,,,,,,,,,,,,,,,
1577742278.560271,39.000000,0.000000,4261.025879,4341.025879,4234.871582,4172.307617,4246.153809,0.000000,4.000000,,,,0.000000,4.000000,4.000000,4.000000,4.000000,4.000000,,,,,,,,,,,,,,,,,,,,,,,,,,,,,,,,,,,,,
1577742278.568067,40.000000,0.000000,4267.692383,4327.179688,4232.820313,4169.230957,4248.717773,0.000000,4.000000,,,,0.000000,4.000000,4.000000,4.000000,4.000000,4.000000,20.000000,0.000000,0.314295,0.135498,0.874756,0.343018,0.534676,-0.610849,0.586923,13.263484,-47.004520,60.931152,,,,,,,,,,,,,,,,,,,,,,,,,
1577742278.575764,41.000000,0.000000,4230.256348,4317.948730,4197.436035,4132.820313,4207.692383,0.000000,4.000000,,,,0.000000,4.000000,4.000000,4.000000,4.000000,4.000000,,,,,,,,,,,,,,,,,,,,,,,,,,,,,,,,,,,,,
1577742278.583560,42.000000,0.000000,4211.794922,4337.948730,4183.589844,4115.384766,4187.179688,0.000000,4.000000,,,,0.000000,4.000000,4.000000,4.000000,4.000000,4.000000,21.000000,0.000000,0.313923,0.135742,0.874756,0.343262,0.522957,-0.606455,0.594247,12.714735,-46.969666,61.058834,,,,,,,,,,,,,,,,,,,,,,,,,
1577742278.591257,43.000000,0.000000,4241.025879,4341.025879,4206.153809,4140.000000,4218.974121,0.000000,4.000000,,,,0.000000,4.000000,4.000000,4.000000,4.000000,4.000000,,,,,,,,,,,,,10.079124,5.969455,6.582534,3.657943,4.025437,1.366500,1.208627,1.657245,1.871034,2.311310,7.179322,4.441601,4.539668,2.396338,3.403229,8.200736,4.936607,5.479598,3.954690,4.271591,12.904070,7.971723,6.733289,3.343648,3.985413
1577742278.599053,44.000000,0.000000,4287.692383,4337.436035,4237.436035,4186.666504,4262.563965,0.000000,4.000000,,,,0.000000,4.000000,4.000000,4.000000,4.000000,4.000000,22.000000,0.000000,0.314295,0.135498,0.874756,0.343018,0.515145,-0.604013,0.598154,15.091999,-47.057930,61.113934,,,,,,,,,,,,,,,,,,,,,,,,,
1577742278.606750,45.000000,0.000000,4306.153809,4349.230957,4250.769043,4205.128418,4273.333496,0.000000,4.000000,,,,0.000000,4.000000,4.000000,4.000000,4.000000,4.000000,,,,,,,,,,,,,,,,,,,,,,,,,,,,,,,,,,,,,
1577742278.614547,46.000000,0.000000,4297.436035,4346.153809,4249.743652,4194.871582,4264.102539,0.000000,4.000000,,,,0.000000,4.000000,4.000000,4.000000,4.000000,4.000000,23.000000,0.000000,0.313923,0.135742,0.874756,0.343262,0.522957,-0.606455,0.594247,14.360399,-47.017735,61.223339,,,,,,,,,,,,,,,,,,,,,,,,,
1577742278.622243,47.000000,0.000000,4301.025879,4331.282227,4254.358887,4197.948730,4270.256348,0.000000,4.000000,,,,0.000000,4.000000,4.000000,4.000000,4.000000,4.000000,,,,,,,,,,,,,,,,,,,,,,,,,,,,,,,,,,,,,
1577742278.629940,48.000000,0.000000,4304.102539,4328.205078,4248.205078,4198.461426,4272.307617,0.000000,4.000000,,,,0.000000,4.000000,4.000000,4.000000,4.000000,4.000000,24.000000,0.000000,0.313817,0.135986,0.874756,0.343262,0.534188,-0.599130,0.596201,13.821589,-46.981560,61.321804,,,,,,,,,,,,,,,,,,,,,,,,,
1577742278.637736,49.000000,0.000000,4257.948730,4321.538574,4209.230957,4154.871582,4232.307617,0.000000,4.000000,,,,0.000000,4.000000,4.000000,4.000000,4.000000,4.000000,,,,,,,,,,,,,,,,,,,,,,,,,,,,,,,,,,,,,
1577742278.645533,50.000000,0.000000,4218.461426,4318.461426,4185.641113,4122.051270,4198.461426,0.000000,4.000000,,,,0.000000,4.000000,4.000000,4.000000,4.000000,4.000000,25.000000,0.000000,0.313817,0.135986,0.874756,0.343262,0.524422,-0.610361,0.585946,13.336661,-46.949001,61.410419,,,,,,,,,,,,,,,,,,,,,,,,,
1577742278.653229,51.000000,0.000000,4242.051270,4331.282227,4206.153809,4143.077148,4213.333496,0.000000,4.000000,,,,0.000000,4.000000,4.000000,4.000000,4.000000,4.000000,,,,,,,,,,,,,,,,,,,,,,,,,,,,,,,,,,,,,
1577742278.660926,52.000000,0.000000,4267.692383,4331.282227,4224.102539,4163.589844,4234.358887,0.000000,4.000000,,,,0.000000,4.000000,4.000000,4.000000,4.000000,4.000000,26.000000,0.000000,0.313817,0.135986,0.874756,0.343262,0.528328,-0.602548,0.587900,8.952412,-46.919701,61.430363,,,,,,,,,,,,,,,,,,,,,,,,,
1577742278.668722,53.000000,0.000000,4242.051270,4311.794922,4206.666504,4143.589844,4218.461426,0.000000,4.000000,,,,0.000000,4.000000,4.000000,4.000000,4.000000,4.000000,,,,,,,,,,,,,,,,,,,,,,,,,,,,,,,,,,,,,
1577742278.676419,54.000000,0.000000,4209.743652,4313.846191,4185.641113,4115.384766,4187.692383,0.000000,4.000000,,,,0.000000,4.000000,4.000000,4.000000,4.000000,4.000000,27.000000,0.000000,0.313817,0.135986,0.874756,0.343262,0.532235,-0.606455,0.577157,8.954401,-46.893330,61.508125,,,,,,,,,,,,,,,,,,,,,,,,,
1577742278.684215,55.000000,0.000000,4258.974121,4356.922852,4228.717773,4161.025879,4229.743652,0.000000,4.000000,,,,0.000000,4.000000,4.000000,4.000000,4.000000,4.000000,,,,,,,,,,,,,,,,,,,,,,,,,,,,,,,,,,,,,
1577742278.691912,56.000000,0.000000,4323.077148,4366.153809,4276.922852,4222.563965,4293.333496,0.000000,4.000000,,,,0.000000,4.000000,4.000000,4.000000,4.000000,4.000000,28.000000,0.000000,0.313817,0.135986,0.874756,0.343262,0.525887,-0.605966,0.592782,8.956191,-46.989223,61.518295,,,,,,,,,,,,,,,,,,,,,,,,,
1577742278.699709,57.000000,0.000000,4306.666504,4328.205078,4255.897461,4201.538574,4272.820313,0.000000,4.000000,,,,0.000000,4.000000,4.000000,4.000000,4.000000,4.000000,,,,,,,,,,,,,,,,,,,,,,,,,,,,,,,,,,,,,
1577742278.707405,58.000000,0.000000,4299.487305,4340.000000,4247.179688,4187.179688,4250.769043,0.000000,4.000000,,,,0.000000,4.000000,4.000000,4.000000,4.000000,4.000000,29.000000,0.000000,0.314391,0.136230,0.874512,0.343262,0.524422,-0.607431,0.597665,7.940941,-47.015717,61.587261,,,,,,,,,,,,,,,,,,,,,,,,,
1577742278.715202,59.000000,0.000000,4326.666504,4371.282227,4269.230957,4217.948730,4272.820313,0.000000,4.000000,,,,0.000000,4.000000,4.000000,4.000000,4.000000,4.000000,,,,,,,,,,,,,9.233871,5.417825,7.053141,4.227615,4.614070,1.476183,1.153228,1.582563,1.829284,2.532810,6.900397,4.309243,4.543022,2.982889,3.908424,7.527578,4.076759,5.180152,4.751661,4.893870,11.993428,6.853009,6.825912,3.947850,4.565330
1577742278.722998,60.000000,0.000000,4326.666504,4343.589844,4262.563965,4218.461426,4282.563965,0.000000,4.000000,,,,0.000000,4.000000,4.000000,4.000000,4.000000,4.000000,30.000000,0.000000,0.314391,0.136230,0.874512,0.343262,0.538582,-0.596201,0.594247,10.915215,-46.979744,61.709148,,,,,,,,,,,,,,,,,,,,,,,,,
1577742278.730695,61.000000,0.000000,4312.820313,4307.692383,4247.179688,4198.974121,4275.384766,0.000000,4.000000,,,,0.000000,4.000000,4.000000,4.000000,4.000000,4.000000,,,,,,,,,,,,,,,,,,,,,,,,,,,,,,,,,,,,,
1577742278.738391,62.000000,0.000000,4301.025879,4326.666504,4243.589844,4186.153809,4256.922852,0.000000,4.000000,,,,0.000000,4.000000,4.000000,4.000000,4.000000,4.000000,31.000000,0.000000,0.314125,0.136230,0.874512,0.343506,0.521981,-0.598154,0.594247,13.412616,-46.887554,61.639400,,,,,,,,,,,,,,,,,,,,,,,,,
1577742278.746188,63.000000,0.000000,4284.102539,4352.820313,4232.820313,4169.230957,4230.256348,0.000000,4.000000,,,,0.000000,4.000000,4.000000,4.000000,4.000000,4.000000,,,,,,,,,,,,,,,,,,,,,,,,,,,,,,,,,,,,,
1577742278.753884,64.000000,0.000000,4278.974121,4348.205078,4227.179688,4161.538574,4222.563965,450.000000,4.000000,,,,0.000000,4.000000,4.000000,4.000000,4.000000,4.000000,32.000000,0.000000,0.314019,0.136475,0.874512,0.343506,0.520516,-0.615732,0.577646,12.848954,-46.804581,61.696259,,,,,,,,,,,,,,,,,,,,,,,,,
1577742278.761681,65.000000,0.000000,4249.230957,4326.666504,4199.487305,4132.307617,4197.436035,450.000000,4.000000,,,,0.000000,4.000000,4.000000,4.000000,4.000000,4.000000,,,,,,,,,,,,,,,,,,,,,,,,,,,,,,,,,,,,,
1577742278.769477,66.000000,0.000000,4211.282227,4314.358887,4166.153809,4095.897461,4160.512695,16211.000000,4.000000,,,,0.000000,4.000000,4.000000,4.000000,4.000000,4.000000,33.000000,0.000000,0.313751,0.136475,0.874512,0.343750,0.525399,-0.614755,0.599130,12.341659,-46.729904,61.567986,,,,,,,,,,,,,,,,,,,,,,,,,
1577742278.777174,67.000000,0.000000,4258.461426,4331.282227,4208.717773,4140.000000,4208.205078,450.000000,4.000000,,,,0.000000,4.000000,4.000000,4.000000,4.000000,4.000000,,,,,,,,,,,,,,,,,,,,,,,,,,,,,,,,,,,,,
1577742278.784870,68.000000,0.000000,4330.256348,4357.948730,4273.333496,4218.461426,4285.128418,16245.000000,4.000000,,,,0.000000,4.000000,4.000000,4.000000,4.000000,4.000000,34.000000,0.000000,0.313751,0.136475,0.874512,0.343750,0.528328,-0.606943,0.595224,14.875860,-46.842144,59.658077,,,,,,,,,,,,,,,,,,,,,,,,,
1577742278.792567,69.000000,0.000000,4335.897461,4372.820313,4276.410156,4236.410156,4300.000000,450.000000,4.000000,,,,0.000000,4.000000,4.000000,4.000000,4.000000,4.000000,,,,,,,,,,,,,,,,,,,,,,,,,,,,,,,,,,,,,
1577742278.800364,70.000000,0.000000,4328.205078,4363.077148,4263.077148,4228.205078,4298.461426,16144.000000,4.000000,,,,0.000000,4.000000,4.000000,4.000000,4.000000,4.000000,35.000000,0.000000,0.313857,0.136230,0.874512,0.343750,0.533211,-0.610849,0.582040,17.156643,-46.943157,59.913067,,,,,,,,,,,,,,,,,,,,,,,,,
1577742278.808160,71.000000,0.000000,4313.333496,4324.102539,4253.333496,4207.179688,4284.615234,450.000000,4.000000,,,,0.000000,4.000000,4.000000,4.000000,4.000000,4.000000,,,,,,,,,,,,,,,,,,,,,,,,,,,,,,,,,,,,,
1577742278.815857,72.000000,0.000000,4265.128418,4298.974121,4213.846191,4153.333496,4232.820313,450.000000,4.000000,,,,0.000000,4.000000,4.000000,4.000000,4.000000,4.000000,36.000000,0.000000,0.313963,0.135986,0.874512,0.343750,0.535164,-0.606455,0.599619,18.312117,-47.034073,59.963112,,,,,,,,,,,,,,,,,,,,,,,,,
1577742278.823653,73.000000,0.000000,4239.487305,4318.974121,4190.769043,4130.769043,4205.641113,16190.000000,4.000000,,,,0.000000,4.000000,4.000000,4.000000,4.000000,4.000000,,,,,,,,,,,,,,,,,,,,,,,,,,,,,,,,,,,,,
1577742278.831350,74.000000,0.000000,4255.897461,4342.051270,4209.230957,4158.974121,4228.717773,450.000000,4.000000,,,,0.000000,4.000000,4.000000,4.000000,4.000000,4.000000,37.000000,0.000000,0.313696,0.135986,0.874512,0.343994,0.519051,-0.609384,0.594247,17.138874,-47.235523,58.333324,,,,,,,,,,,,,,,,,,,,,,,,,
1577742278.839146,75.000000,0.000000,4244.615234,4321.538574,4202.563965,4150.769043,4225.128418,16211.000000,4.000000,,,,0.000000,4.000000,4.000000,4.000000,4.000000,4.000000,,,,,,,,,,,,,7.853773,5.432173,7.557183,4.755654,5.285777,1.588217,1.285820,1.533190,1.752781,2.776019,6.143888,4.282677,4.762115,3.567220,4.410009,6.517099,3.872971,5.238883,5.490694,5.604727,10.157663,6.325598,7.182954,4.590940,5.277287
1577742278.846842,76.000000,0.000000,4213.333496,4309.743652,4175.897461,4113.846191,4192.307617,450.000000,4.000000,,,,0.000000,4.000000,4.000000,4.000000,4.000000,4.000000,38.000000,0.000000,0.313907,0.135498,0.874512,0.343994,0.526375,-0.616220,0.583993,12.434217,-47.177570,58.900234,,,,,,,,,,,,,,,,,,,,,,,,,
1577742278.854639,77.000000,0.000000,4243.077148,4353.846191,4200.000000,4136.410156,4213.846191,450.000000,4.000000,,,,0.000000,4.000000,4.000000,4.000000,4.000000,4.000000,,,,,,,,,,,,,,,,,,,,,,,,,,,,,,,,,,,,,
1577742278.862335,78.000000,0.000000,4300.512695,4383.077148,4245.128418,4192.307617,4270.769043,450.000000,4.000000,,,,0.000000,4.000000,4.000000,4.000000,4.000000,4.000000,39.000000,0.000000,0.314117,0.135010,0.874512,0.343994,0.530282,-0.602060,0.592782,14.959164,-47.245045,59.290825,,,,,,,,,,,,,,,,,,,,,,,,,
1577742278.870131,79.000000,0.000000,4308.717773,4345.641113,4244.102539,4203.589844,4284.615234,16211.000000,4.000000,,,,0.000000,4.000000,4.000000,4.000000,4.000000,4.000000,,,,,,,,,,,,,,,,,,,,,,,,,,,,,,,,,,,,,
1577742278.877828,80.000000,0.000000,4298.461426,4316.922852,4229.743652,4192.820313,4280.000000,450.000000,4.000000,,,,0.000000,4.000000,4.000000,4.000000,4.000000,4.000000,40.000000,0.000000,0.314164,0.134277,0.874512,0.344238,0.519051,-0.586923,0.579110,17.231615,-47.186138,59.702171,,,,,,,,,,,,,,,,,,,,,,,,,
1577742278.885624,81.000000,0.000000,4311.282227,4342.051270,4233.333496,4190.256348,4287.692383,450.000000,4.000000,,,,0.000000,4.000000,4.000000,4.000000,4.000000,4.000000,,,,,,,,,,,,,,,,,,,,,,,,,,,,,,,,,,,,,
1577742278.893320,82.000000,0.000000,4311.794922,4360.000000,4228.717773,4178.974121,4279.487305,450.000000,4.000000,,,,0.000000,4.000000,4.000000,4.000000,4.000000,4.000000,41.000000,0.000000,0.314783,0.133789,0.874268,0.344482,0.523934,-0.595712,0.589853,16.345869,-47.133121,60.012569,,,,,,,,,,,,,,,,,,,,,,,,,
1577742278.901117,83.000000,0.000000,4291.282227,4348.205078,4208.717773,4163.589844,4255.897461,16211.000000,4.000000,,,,0.000000,4.000000,4.000000,4.000000,4.000000,4.000000,,,,,,,,,,,,,,,,,,,,,,,,,,,,,,,,,,,,,
1577742278.908813,84.000000,0.000000,4292.307617,4344.615234,4196.410156,4162.563965,4248.205078,450.000000,4.000000,,,,0.000000,4.000000,4.000000,4.000000,4.000000,4.000000,42.000000,0.000000,0.314620,0.133545,0.874268,0.344727,0.515145,-0.610849,0.596201,15.608513,-47.205040,60.112480,,,,,,,,,,,,,,,,,,,,,,,,,
1577742278.916609,85.000000,0.000000,4308.717773,4346.153809,4193.333496,4163.589844,4260.000000,450.000000,4.000000,,,,0.000000,4.000000,4.000000,4.000000,4.000000,4.000000,,,,,,,,,,,,,,,,,,,,,,,,,,,,,,,,,,,,,
1577742278.924306,86.000000,0.000000,4275.897461,4327.179688,4154.871582,4117.948730,4230.769043,450.000000,4.000000,,,,0.000000,4.000000,4.000000,4.000000,4.000000,4.000000,43.000000,0.000000,0.314352,0.133545,0.874268,0.344971,0.514656,-0.595224,0.589364,13.987846,-47.150135,60.381844,,,,,,,,,,,,,,,,,,,,,,,,,
1577742278.932002,87.000000,0.000000,4221.538574,4314.871582,4107.179688,4060.000000,4171.282227,16211.000000,4.000000,,,,0.000000,4.000000,4.000000,4.000000,4.000000,4.000000,,,,,,,,,,,,,,,,,,,,,,,,,,,,,,,,,,,,,
1577742278.939799,88.000000,0.000000,4275.897461,4357.948730,4150.769043,4107.692383,4212.820313,450.000000,4.000000,,,,0.000000,4.000000,4.000000,4.000000,4.000000,4.000000,44.000000,0.000000,0.314456,0.133301,0.874268,0.344971,0.526864,-0.616220,0.585946,13.426476,-47.160534,58.710182,,,,,,,,,,,,,,,,,,,,,,,,,
1577742278.947496,89.000000,0.000000,4383.589844,4385.641113,4238.461426,4204.102539,4316.410156,450.000000,4.000000,,,,0.000000,4.000000,4.000000,4.000000,4.000000,4.000000,,,,,,,,,,,,,,,,,,,,,,,,,,,,,,,,,,,,,
1577742278.955292,90.000000,0.000000,4380.512695,4341.538574,4236.410156,4199.487305,4315.897461,450.000000,4.000000,,,,0.000000,4.000000,4.000000,4.000000,4.000000,4.000000,45.000000,0.000000,0.314827,0.133057,0.874268,0.344727,0.528328,-0.615244,0.591806,15.792381,-47.229710,59.000145,,,,,,,,,,,,,,,,,,,,,,,,,
1577742278.962989,91.000000,0.000000,4326.153809,4325.128418,4192.307617,4150.769043,4258.974121,16211.000000,4.000000,,,,0.000000,4.000000,4.000000,4.000000,4.000000,4.000000,,,,,,,,,,,,,6.308973,6.283240,7.935198,5.202424,5.897961,1.700541,1.551391,1.529849,1.663194,2.953472,4.954697,4.666315,5.183638,4.072543,4.784477,5.433151,4.713680,5.648263,6.040092,6.245544,7.813401,6.749826,7.669386,5.200664,5.951232
1577742278.970785,92.000000,0.000000,4337.436035,4358.974121,4201.025879,4165.128418,4264.615234,450.000000,4.000000,,,,0.000000,4.000000,4.000000,4.000000,4.000000,4.000000,46.000000,0.000000,0.314827,0.133057,0.874268,0.344727,0.526375,-0.616709,0.593271,17.861881,-47.291969,59.320930,,,,,,,,,,,,,,,,,,,,,,,,,
1577742278.978482,93.000000,0.000000,4351.282227,4352.820313,4210.256348,4178.461426,4280.512695,450.000000,4.000000,,,,0.000000,4.000000,4.000000,4.000000,4.000000,4.000000,,,,,,,,,,,,,,,,,,,,,,,,,,,,,,,,,,,,,
1577742278.986278,94.000000,0.000000,4304.102539,4331.794922,4169.230957,4130.769043,4238.974121,450.000000,4.000000,,,,0.000000,4.000000,4.000000,4.000000,4.000000,4.000000,47.000000,0.000000,0.314930,0.132813,0.874268,0.344727,0.532723,-0.601572,0.595712,16.853292,-47.288185,59.669449,,,,,,,,,,,,,,,,,,,,,,,,,
1577742278.993975,95.000000,0.000000,4281.025879,4355.897461,4148.205078,4106.153809,4210.769043,16211.000000,4.000000,,,,0.000000,4.000000,4.000000,4.000000,4.000000,4.000000,,,,,,,,,,,,,,,,,,,,,,,,,,,,,,,,,,,,,
1577742279.001771,96.000000,0.000000,4309.230957,4366.666504,4172.820313,4132.307617,4232.307617,450.000000,4.000000,,,,0.000000,4.000000,4.000000,4.000000,4.000000,4.000000,48.000000,0.000000,0.315032,0.132568,0.874268,0.344727,0.525887,-0.601572,0.585946,12.177195,-47.165150,59.923302,,,,,,,,,,,,,,,,,,,,,,,,,
1577742279.009468,97.000000,0.000000,4327.692383,4354.871582,4198.461426,4150.256348,4255.384766,450.000000,4.000000,,,,0.000000,4.000000,4.000000,4.000000,4.000000,4.000000,,,,,,,,,,,,,,,,,,,,,,,,,,,,,,,,,,,,,
1577742279.017264,98.000000,0.000000,4339.487305,4352.820313,4208.717773,4160.512695,4267.179688,450.000000,4.000000,,,,0.000000,4.000000,4.000000,4.000000,4.000000,4.000000,49.000000,0.000000,0.315032,0.132568,0.874268,0.344727,0.528817,-0.602060,0.585458,14.668028,-47.114235,60.151772,,,,,,,,,,,,,,,,,,,,,,,,,
1577742279.024961,99.000000,0.000000,4333.846191,4333.846191,4198.461426,4154.358887,4253.846191,16211.000000,4.000000,,,,0.000000,4.000000,4.000000,4.000000,4.000000,4.000000,,,,,,,,,,,,,,,,,,,,,,,,,,,,,,,,,,,,,
1577742279.032757,100.000000,0.000000,4295.384766,4324.102539,4177.948730,4116.922852,4215.897461,450.000000,4.000000,,,,0.000000,4.000000,4.000000,4.000000,4.000000,4.000000,50.000000,0.000000,0.314930,0.132813,0.874268,0.344727,0.532723,-0.601572,0.595712,13.978825,-47.128223,60.237762,,,,,,,,,,,,,,,,,,,,,,,,,
1577742279.040453,101.000000,0.000000,4282.563965,4336.922852,4178.461426,4110.256348,4209.230957,450.000000,4.000000,,,,0.000000,4.000000,4.000000,4.000000,4.000000,4.000000,,,,,,,,,,,,,,,,,,,,,,,,,,,,,,,,,,,,,
1577742279.048150,102.000000,0.000000,4312.820313,4341.538574,4200.000000,4153.333496,4240.000000,450.000000,4.000000,,,,0.000000,4.000000,4.000000,4.000000,4.000000,4.000000,51.000000,0.000000,0.315032,0.132568,0.874268,0.344727,0.528817,-0.602060,0.585458,16.289495,-47.081001,60.434784,,,,,,,,,,,,,,,,,,,,,,,,,
1577742279.055946,103.000000,0.000000,4315.384766,4332.820313,4195.897461,4162.563965,4239.487305,16211.000000,4.000000,,,,0.000000,4.000000,4.000000,4.000000,4.000000,4.000000,,,,,,,,,,,,,,,,,,,,,,,,,,,,,,,,,,,,,
1577742279.063643,104.000000,0.000000,4284.615234,4329.230957,4167.692383,4125.641113,4204.102539,450.000000,4.000000,,,,0.000000,4.000000,4.000000,4.000000,4.000000,4.000000,52.000000,0.000000,0.315032,0.132568,0.874268,0.344727,0.521492,-0.597177,0.582040,15.438146,-47.217945,58.578381,,,,,,,,,,,,,,,,,,,,,,,,,
1577742279.071440,105.000000,0.000000,4275.897461,4330.256348,4157.948730,4108.205078,4192.820313,450.000000,4.000000,,,,0.000000,4.000000,4.000000,4.000000,4.000000,4.000000,,,,,,,,,,,,,,,,,,,,,,,,,,,,,,,,,,,,,
1577742279.079136,106.000000,0.000000,4295.384766,4347.692383,4168.717773,4123.077148,4214.358887,450.000000,4.000000,,,,0.000000,4.000000,4.000000,4.000000,4.000000,4.000000,53.000000,0.000000,0.314765,0.132568,0.874268,0.344971,0.532723,-0.610361,0.589853,16.765469,-47.281380,56.967434,,,,,,,,,,,,,,,,,,,,,,,,,
1577742279.086933,107.000000,0.000000,4320.000000,4362.051270,4182.563965,4144.615234,4243.077148,16211.000000,4.000000,,,,0.000000,4.000000,4.000000,4.000000,4.000000,4.000000,,,,,,,,,,,,,5.159566,8.338027,8.304030,5.571025,6.328418,1.772905,1.858320,1.588125,1.616302,3.029638,3.807602,5.878549,5.798733,4.478397,4.957804,4.619811,7.037672,6.520535,6.394910,6.682202,5.688898,8.479784,8.383026,5.745901,6.439338
1577742279.094629,108.000000,0.000000,4327.692383,4336.922852,4193.333496,4154.871582,4253.333496,450.000000,4.000000,,,,0.000000,4.000000,4.000000,4.000000,4.000000,4.000000,54.000000,0.000000,0.314765,0.132568,0.874268,0.344971,0.528328,-0.615732,0.595224,17.960060,-47.099209,57.431671,,,,,,,,,,,,,,,,,,,,,,,,,
1577742279.102426,109.000000,0.000000,4331.794922,4328.205078,4215.384766,4170.769043,4263.589844,450.000000,4.000000,,,,0.000000,4.000000,4.000000,4.000000,4.000000,4.000000,,,,,,,,,,,,,,,,,,,,,,,,,,,,,,,,,,,,,
1577742279.110122,110.000000,0.000000,4310.256348,4333.333496,4201.025879,4152.307617,4247.692383,450.000000,4.000000,,,,0.000000,4.000000,4.000000,4.000000,4.000000,4.000000,55.000000,0.000000,0.314394,0.132813,0.874268,0.345215,0.533211,-0.601083,0.607919,13.173285,-47.234333,57.789673,,,,,,,,,,,,,,,,,,,,,,,,,
1577742279.117919,111.000000,0.000000,4265.641113,4335.897461,4157.948730,4097.948730,4203.077148,16211.000000,4.000000,,,,0.000000,4.000000,4.000000,4.000000,4.000000,4.000000,,,,,,,,,,,,,,,,,,,,,,,,,,,,,,,,,,,,,
1577742279.125616,112.000000,0.000000,4268.717773,4357.436035,4166.153809,4107.179688,4205.641113,450.000000,4.000000,,,,0.000000,4.000000,4.000000,4.000000,4.000000,4.000000,56.000000,0.000000,0.314497,0.132568,0.874268,0.345215,0.536629,-0.606455,0.586435,12.693372,-47.176498,58.291317,,,,,,,,,,,,,,,,,,,,,,,,,
1577742279.133412,113.000000,0.000000,4285.641113,4345.641113,4184.102539,4136.922852,4225.128418,450.000000,4.000000,,,,0.000000,4.000000,4.000000,4.000000,4.000000,4.000000,,,,,,,,,,,,,,,,,,,,,,,,,,,,,,,,,,,,,
1577742279.141109,114.000000,0.000000,4291.282227,4323.589844,4185.641113,4134.871582,4232.820313,450.000000,4.000000,,,,0.000000,4.000000,4.000000,4.000000,4.000000,4.000000,57.000000,0.000000,0.314497,0.132568,0.874268,0.345215,0.530770,-0.624033,0.589364,12.321265,-47.244080,58.802616,,,,,,,,,,,,,,,,,,,,,,,,,
1577742279.148905,115.000000,0.000000,4307.179688,4338.974121,4194.358887,4135.384766,4243.077148,16211.000000,4.000000,,,,0.000000,4.000000,4.000000,4.000000,4.000000,4.000000,,,,,,,,,,,,,,,,,,,,,,,,,,,,,,,,,,,,,
1577742279.156702,116.000000,0.000000,4288.717773,4344.615234,4184.102539,4116.410156,4226.666504,450.000000,4.000000,,,,0.000000,4.000000,4.000000,4.000000,4.000000,4.000000,58.000000,0.000000,0.314497,0.132568,0.874268,0.345215,0.542000,-0.627451,0.598154,11.926554,-47.185268,57.109428,,,,,,,,,,,,,,,,,,,,,,,,,
1577742279.164398,117.000000,0.000000,4268.717773,4324.615234,4178.461426,4105.128418,4213.333496,450.000000,4.000000,,,,0.000000,4.000000,4.000000,4.000000,4.000000,4.000000,,,,,,,,,,,,,,,,,,,,,,,,,,,,,,,,,,,,,
1577742279.172195,118.000000,0.000000,4304.102539,4344.102539,4205.128418,4147.692383,4246.666504,450.000000,4.000000,,,,0.000000,4.000000,4.000000,4.000000,4.000000,4.000000,59.000000,0.000000,0.314765,0.132568,0.874268,0.344971,0.536141,-0.616709,0.605478,7.683314,-47.072525,57.499653,,,,,,,,,,,,,,,,,,,,,,,,,
1577742279.179891,119.000000,0.000000,4309.743652,4359.487305,4197.948730,4162.051270,4252.820313,16211.000000,4.000000,,,,0.000000,4.000000,4.000000,4.000000,4.000000,4.000000,,,,,,,,,,,,,,,,,,,,,,,,,,,,,,,,,,,,,
1577742279.187588,120.000000,0.000000,4256.922852,4330.256348,4159.487305,4117.436035,4204.615234,450.000000,4.000000,,,,0.000000,4.000000,4.000000,4.000000,4.000000,4.000000,60.000000,0.000000,0.314765,0.132568,0.874268,0.344971,0.521492,-0.606455,0.584482,3.804584,-47.150501,58.030300,,,,,,,,,,,,,,,,,,,,,,,,,
1577742279.195384,121.000000,0.000000,4261.025879,4329.230957,4169.743652,4113.846191,4204.615234,450.000000,4.000000,,,,0.000000,4.000000,4.000000,4.000000,4.000000,4.000000,,,,,,,,,,,,,,,,,,,,,,,,,,,,,,,,,,,,,
1577742279.203081,122.000000,0.000000,4294.871582,4336.922852,4186.666504,4135.897461,4231.282227,450.000000,4.000000,,,,0.000000,4.000000,4.000000,4.000000,4.000000,4.000000,61.000000,0.000000,0.314868,0.132324,0.874268,0.344971,0.538582,-0.608896,0.591318,3.304495,-47.220680,58.448071,,,,,,,,,,,,,,,,,,,,,,,,,
1577742279.210777,123.000000,0.000000,4273.846191,4315.384766,4163.077148,4119.487305,4212.307617,16211.000000,4.000000,,,,0.000000,4.000000,4.000000,4.000000,4.000000,4.000000,,,,,,,,,,,,,4.688639,11.777836,9.029643,5.890656,6.516691,1.771491,2.122982,1.704565,1.666867,3.032309,2.995742,8.205321,6.710667,4.803984,4.924524,4.242164,11.069645,8.028122,6.629217,6.849502,4.154635,11.680497,9.621101,6.209249,6.661233
1577742279.218574,124.000000,0.000000,4257.948730,4320.000000,4157.948730,4103.077148,4195.897461,450.000000,4.000000,,,,0.000000,4.000000,4.000000,4.000000,4.000000,4.000000,62.000000,0.000000,0.314970,0.132080,0.874268,0.344971,0.531258,-0.583993,0.591806,-0.016723,-47.343658,59.003506,,,,,,,,,,,,,,,,,,,,,,,,,
1577742279.226270,125.000000,0.000000,4271.282227,4354.871582,4173.846191,4106.153809,4201.538574,450.000000,4.000000,,,,0.000000,4.000000,4.000000,4.000000,4.000000,4.000000,,,,,,,,,,,,,,,,,,,,,,,,,,,,,,,,,,,,,
1577742279.234067,126.000000,0.000000,4263.077148,4346.666504,4170.256348,4101.538574,4192.307617,450.000000,4.000000,,,,0.000000,4.000000,4.000000,4.000000,4.000000,4.000000,63.000000,0.000000,0.314970,0.132080,0.874268,0.344971,0.527840,-0.605966,0.592294,0.941995,-47.573967,57.290234,,,,,,,,,,,,,,,,,,,,,,,,,
1577742279.241764,127.000000,0.000000,4225.641113,4306.666504,4151.794922,4075.897461,4163.589844,236.000000,4.000000,,,,0.000000,4.000000,4.000000,4.000000,4.000000,4.000000,,,,,,,,,,,,,,,,,,,,,,,,,,,,,,,,,,,,,
1577742279.249560,0.000000,0.000000,4219.487305,4316.410156,4160.512695,4078.461426,4161.025879,450.000000,4.000000,,,,0.000000,4.000000,4.000000,4.000000,4.000000,4.000000,0.000000,0.000000,0.314703,0.132080,0.874268,0.345215,0.524422,-0.607919,0.586923,-2.142972,-47.541985,57.901638,,,,,,,,,,,,,,,,,,,,,,,,,
1577742279.257257,1.000000,0.000000,4266.666504,4358.974121,4205.641113,4134.358887,4207.179688,450.000000,4.000000,,,,0.000000,4.000000,4.000000,4.000000,4.000000,4.000000,,,,,,,,,,,,,,,,,,,,,,,,,,,,,,,,,,,,,
1577742279.265053,2.000000,0.000000,4286.666504,4349.743652,4218.461426,4160.000000,4234.358887,16209.000000,4.000000,,,,0.000000,4.000000,4.000000,4.000000,4.000000,4.000000,1.000000,0.000000,0.314024,0.132080,0.874512,0.345215,0.521492,-0.599619,0.583017,-4.919444,-47.453384,56.477997,,,,,,,,,,,,,,,,,,,,,,,,,
1577742279.272850,3.000000,0.000000,4214.871582,4301.538574,4151.794922,4088.718018,4167.692383,450.000000,4.000000,,,,0.000000,4.000000,4.000000,4.000000,4.000000,4.000000,,,,,,,,,,,,,,,,,,,,,,,,,,,,,,,,,,,,,
1577742279.280546,4.000000,0.000000,4181.538574,4320.512695,4127.179688,4055.384521,4126.153809,16235.000000,4.000000,,,,0.000000,4.000000,4.000000,4.000000,4.000000,4.000000,2.000000,0.000000,0.314292,0.132080,0.874512,0.344971,0.542000,-0.610849,0.603525,-3.709715,-47.493275,56.991180,,,,,,,,,,,,,,,,,,,,,,,,,
1577742279.288343,5.000000,0.000000,4250.769043,4358.461426,4189.743652,4125.128418,4190.256348,450.000000,4.000000,,,,0.000000,4.000000,4.000000,4.000000,4.000000,4.000000,,,,,,,,,,,,,,,,,,,,,,,,,,,,,,,,,,,,,
1577742279.296039,6.000000,0.000000,4257.436035,4324.102539,4189.230957,4130.769043,4203.077148,16144.000000,4.000000,,,,0.000000,4.000000,4.000000,4.000000,4.000000,4.000000,3.000000,0.000000,0.314292,0.132080,0.874512,0.344971,0.526375,-0.619638,0.588388,-2.620959,-47.469360,57.512859,,,,,,,,,,,,,,,,,,,,,,,,,
1577742279.303736,7.000000,0.000000,4211.794922,4316.410156,4145.128418,4079.487061,4159.487305,450.000000,4.000000,,,,0.000000,4.000000,4.000000,4.000000,4.000000,4.000000,,,,,,,,,,,,,,,,,,,,,,,,,,,,,,,,,,,,,
1577742279.311532,8.000000,0.000000,4223.589844,4355.384766,4155.897461,4081.025635,4162.563965,450.000000,4.000000,,,,0.000000,4.000000,4.000000,4.000000,4.000000,4.000000,4.000000,0.000000,0.314560,0.132080,0.874512,0.344727,0.529305,-0.597665,0.582040,1.289874,-47.567471,58.042187,,,,,,,,,,,,,,,,,,,,,,,,,
1577742279.319229,9.000000,0.000000,4222.563965,4326.153809,4150.256348,4081.025635,4158.974121,16189.000000,4.000000,,,,0.000000,4.000000,4.000000,4.000000,4.000000,4.000000,,,,,,,,,,,,,,,,,,,,,,,,,,,,,,,,,,,,,
1577742279.327025,10.000000,0.000000,4186.666504,4290.769043,4114.358887,4060.512939,4132.820313,450.000000,4.000000,,,,0.000000,4.000000,4.000000,4.000000,4.000000,4.000000,5.000000,0.000000,0.314662,0.131836,0.874512,0.344727,0.522957,-0.597177,0.598642,2.058117,-47.595951,58.279320,,,,,,,,,,,,,,,,,,,,,,,,,
1577742279.334722,11.000000,0.000000,4195.384766,4334.871582,4131.794922,4078.974365,4149.743652,16209.000000,4.000000,,,,0.000000,4.000000,4.000000,4.000000,4.000000,4.000000,,,,,,,,,,,,,4.977121,16.210558,10.438967,6.176456,6.479764,1.681171,2.307882,1.849707,1.829475,3.018217,2.618221,11.415438,8.007111,5.076777,4.737001,4.188003,16.384399,10.192023,6.822936,6.767885,3.365084,15.942799,11.598907,6.560317,6.622095
1577742279.342518,12.000000,0.000000,4218.461426,4348.205078,4159.487305,4099.487305,4171.282227,450.000000,4.000000,,,,0.000000,4.000000,4.000000,4.000000,4.000000,4.000000,6.000000,0.000000,0.314662,0.131836,0.874512,0.344727,0.530282,-0.596201,0.590829,-1.018832,-47.681400,58.672184,,,,,,,,,,,,,,,,,,,,,,,,,
1577742279.350215,13.000000,0.000000,4224.615234,4320.000000,4159.487305,4103.589844,4175.897461,450.000000,4.000000,,,,0.000000,4.000000,4.000000,4.000000,4.000000,4.000000,,,,,,,,,,,,,,,,,,,,,,,,,,,,,,,,,,,,,
1577742279.358012,14.000000,0.000000,4236.922852,4318.974121,4165.128418,4115.897461,4187.692383,450.000000,4.000000,,,,0.000000,4.000000,4.000000,4.000000,4.000000,4.000000,7.000000,0.000000,0.314662,0.131836,0.874512,0.344727,0.533211,-0.599619,0.591806,-0.019718,-47.638676,58.906136,,,,,,,,,,,,,,,,,,,,,,,,,
1577742279.365708,15.000000,0.000000,4213.846191,4318.974121,4155.384766,4091.794922,4161.538574,16209.000000,4.000000,,,,0.000000,4.000000,4.000000,4.000000,4.000000,4.000000,,,,,,,,,,,,,,,,,,,,,,,,,,,,,,,,,,,,,
1577742279.373505,16.000000,0.000000,4193.333496,4327.179688,4151.794922,4071.281982,4143.589844,0.000000,4.000000,,,,0.000000,4.000000,4.000000,4.000000,4.000000,4.000000,8.000000,0.000000,0.314560,0.132080,0.874512,0.344727,0.539071,-0.602060,0.592294,0.759853,-47.600224,57.262413,,,,,,,,,,,,,,,,,,,,,,,,,
1577742279.381201,17.000000,0.000000,4236.922852,4350.769043,4183.077148,4112.307617,4187.692383,0.000000,4.000000,,,,0.000000,4.000000,4.000000,4.000000,4.000000,4.000000,,,,,,,,,,,,,,,,,,,,,,,,,,,,,,,,,,,,,
1577742279.388998,18.000000,0.000000,4251.794922,4315.384766,4177.948730,4122.051270,4197.436035,0.000000,4.000000,,,,0.000000,4.000000,4.000000,4.000000,4.000000,4.000000,9.000000,0.000000,0.314560,0.132080,0.874512,0.344727,0.528328,-0.595224,0.586435,4.392421,-47.625427,57.996231,,,,,,,,,,,,,,,,,,,,,,,,,
1577742279.396694,19.000000,0.000000,4202.563965,4274.871582,4129.743652,4067.179443,4144.102539,0.000000,4.000000,,,,0.000000,4.000000,4.000000,4.000000,4.000000,4.000000,,,,,,,,,,,,,,,,,,,,,,,,,,,,,,,,,,,,,
1577742279.404491,20.000000,0.000000,4193.333496,4318.461426,4131.282227,4058.461426,4134.358887,0.000000,4.000000,,,,0.000000,4.000000,4.000000,4.000000,4.000000,4.000000,10.000000,0.000000,0.314560,0.132080,0.874512,0.344727,0.528328,-0.608408,0.591806,0.902595,-47.648117,56.503315,,,,,,,,,,,,,,,,,,,,,,,,,
1577742279.412187,21.000000,0.000000,4233.333496,4354.871582,4168.717773,4117.948730,4178.974121,0.000000,4.000000,,,,0.000000,4.000000,4.000000,4.000000,4.000000,4.000000,,,,,,,,,,,,,,,,,,,,,,,,,,,,,,,,,,,,,
1577742279.419983,22.000000,0.000000,4236.922852,4330.256348,4169.230957,4144.102539,4187.692383,0.000000,4.000000,,,,0.000000,4.000000,4.000000,4.000000,4.000000,4.000000,11.000000,0.000000,0.314292,0.132080,0.874512,0.344971,0.528817,-0.605966,0.592294,1.589935,-47.728348,57.013966,,,,,,,,,,,,,,,,,,,,,,,,,
1577742279.427680,23.000000,0.000000,4204.102539,4291.282227,4150.256348,4104.102539,4155.897461,0.000000,4.000000,,,,0.000000,4.000000,4.000000,4.000000,4.000000,4.000000,,,,,,,,,,,,,,,,,,,,,,,,,,,,,,,,,,,,,
1577742279.435476,24.000000,0.000000,4177.436035,4292.820313,4140.512695,4071.281982,4131.794922,0.000000,4.000000,,,,0.000000,4.000000,4.000000,4.000000,4.000000,4.000000,12.000000,0.000000,0.314292,0.132080,0.874512,0.344971,0.535164,-0.616220,0.592294,-1.559827,-47.680927,57.473553,,,,,,,,,,,,,,,,,,,,,,,,,
