title:006, start timestamp:2019-12-31T00:45:01.908647+03:00, stop timestamp:2019-12-31T00:45:25.189277+03:00, headset type:INSIGHT, headset serial:A2D200FB, headset firmware:930, subject name:Qasim, channels:56, sampling rate:eeg_128;mot_64;pow_8, samples:2984      , version:2.0
Timestamp,EEG.Counter,EEG.Interpolated,EEG.AF3,EEG.T7,EEG.Pz,EEG.T8,EEG.AF4,EEG.RawCq,EEG.Battery,MarkerIndex,MarkerType,MarkerValueInt,EEG.MarkerHardware,CQ.AF3,CQ.T7,CQ.Pz,CQ.T8,CQ.AF4,MOT.CounterMems,MOT.InterpolatedMems,MOT.Q0,MOT.Q1,MOT.Q2,MOT.Q3,MOT.AccX,MOT.AccY,MOT.AccZ,MOT.MagX,MOT.MagY,MOT.MagZ,POW.AF3.Theta,POW.AF3.Alpha,POW.AF3.BetaL,POW.AF3.BetaH,POW.AF3.Gamma,POW.T7.Theta,POW.T7.Alpha,POW.T7.BetaL,POW.T7.BetaH,POW.T7.Gamma,POW.Pz.Theta,POW.Pz.Alpha,POW.Pz.BetaL,POW.Pz.BetaH,POW.Pz.Gamma,POW.T8.Theta,POW.T8.Alpha,POW.T8.BetaL,POW.T8.BetaH,POW.T8.Gamma,POW.AF4.Theta,POW.AF4.Alpha,POW.AF4.BetaL,POW.AF4.BetaH,POW.AF4.Gamma
1577742301.908647,91.000000,0.000000,4205.128418,4383.589844,4125.641113,4140.512695,4183.077148,16198.000000,4.000000,,,,0.000000,4.000000,4.000000,4.000000,4.000000,4.000000,,,,,,,,,,,,,142.213669,29.482019,11.572141,6.090774,3.957936,1.875258,4.035602,2.287438,2.299008,1.560351,5.285748,8.460567,3.755751,4.427230,2.484848,3.420290,10.529129,8.652980,6.176985,3.856183,53.720112,16.711889,9.362091,5.855744,3.628697
1577742301.916544,92.000000,0.000000,4214.871582,4373.846191,4138.461426,4152.820313,4197.436035,450.000000,4.000000,,,,0.000000,4.000000,4.000000,4.000000,4.000000,4.000000,46.000000,0.000000,0.297612,0.087646,0.881104,0.356934,0.527352,-0.583993,0.604501,15.182057,-48.116215,57.652523,,,,,,,,,,,,,,,,,,,,,,,,,
1577742301.924341,93.000000,0.000000,4194.358887,4345.641113,4126.666504,4131.794922,4179.487305,450.000000,4.000000,,,,0.000000,4.000000,4.000000,4.000000,4.000000,4.000000,,,,,,,,,,,,,,,,,,,,,,,,,,,,,,,,,,,,,
1577742301.932137,94.000000,0.000000,4180.000000,4361.025879,4118.461426,4119.487305,4168.205078,450.000000,4.000000,,,,0.000000,4.000000,4.000000,4.000000,4.000000,4.000000,47.000000,0.000000,0.297612,0.087646,0.881104,0.356934,0.540047,-0.600107,0.586435,14.620898,-47.910374,58.108070,,,,,,,,,,,,,,,,,,,,,,,,,
1577742301.939834,95.000000,0.000000,4161.538574,4390.256348,4101.538574,4109.743652,4152.307617,16198.000000,4.000000,,,,0.000000,4.000000,4.000000,4.000000,4.000000,4.000000,,,,,,,,,,,,,,,,,,,,,,,,,,,,,,,,,,,,,
1577742301.947630,96.000000,0.000000,4134.871582,4357.436035,4077.948730,4087.692383,4118.461426,450.000000,4.000000,,,,0.000000,4.000000,4.000000,4.000000,4.000000,4.000000,48.000000,0.000000,0.297319,0.087646,0.881104,0.357178,0.531258,-0.621103,0.587900,14.115854,-47.844749,56.544151,,,,,,,,,,,,,,,,,,,,,,,,,
1577742301.955327,97.000000,0.000000,4144.615234,4335.384766,4090.769287,4100.000000,4130.256348,450.000000,4.000000,,,,0.000000,4.000000,4.000000,4.000000,4.000000,4.000000,,,,,,,,,,,,,,,,,,,,,,,,,,,,,,,,,,,,,
1577742301.963224,98.000000,0.000000,4155.384766,4358.974121,4103.077148,4116.410156,4148.717773,450.000000,4.000000,,,,0.000000,4.000000,4.000000,4.000000,4.000000,4.000000,49.000000,0.000000,0.297319,0.087646,0.881104,0.357178,0.535653,-0.602548,0.569833,16.412821,-47.845505,57.170349,,,,,,,,,,,,,,,,,,,,,,,,,
1577742301.971021,99.000000,0.000000,4160.512695,4368.717773,4101.538574,4117.948730,4150.769043,16198.000000,4.000000,,,,0.000000,4.000000,4.000000,4.000000,4.000000,4.000000,,,,,,,,,,,,,,,,,,,,,,,,,,,,,,,,,,,,,
1577742301.978817,100.000000,0.000000,4208.205078,4372.307617,4132.820313,4157.436035,4191.794922,450.000000,4.000000,,,,0.000000,4.000000,4.000000,4.000000,4.000000,4.000000,50.000000,0.000000,0.297612,0.087646,0.881104,0.356934,0.528817,-0.605966,0.588388,11.720956,-47.965816,57.494667,,,,,,,,,,,,,,,,,,,,,,,,,
1577742301.986514,101.000000,0.000000,4210.769043,4358.974121,4127.692383,4164.102539,4189.743652,450.000000,4.000000,,,,0.000000,4.000000,4.000000,4.000000,4.000000,4.000000,,,,,,,,,,,,,,,,,,,,,,,,,,,,,,,,,,,,,
1577742301.994411,102.000000,0.000000,4141.025879,4334.358887,4061.538574,4092.307617,4129.230957,450.000000,4.000000,,,,0.000000,4.000000,4.000000,4.000000,4.000000,4.000000,51.000000,0.000000,0.297540,0.087891,0.881104,0.356934,0.535653,-0.598642,0.583993,7.677722,-48.014278,57.906185,,,,,,,,,,,,,,,,,,,,,,,,,
1577742302.002207,103.000000,0.000000,4139.487305,4353.333496,4064.615479,4081.538574,4131.282227,16198.000000,4.000000,,,,0.000000,4.000000,4.000000,4.000000,4.000000,4.000000,,,,,,,,,,,,,,,,,,,,,,,,,,,,,,,,,,,,,
1577742302.010104,104.000000,0.000000,4196.410156,4368.205078,4116.922852,4145.128418,4180.000000,450.000000,4.000000,,,,0.000000,4.000000,4.000000,4.000000,4.000000,4.000000,52.000000,0.000000,0.297540,0.087891,0.881104,0.356934,0.529305,-0.583505,0.581552,7.747365,-48.057896,58.396179,,,,,,,,,,,,,,,,,,,,,,,,,
1577742302.017901,105.000000,0.000000,4204.102539,4350.256348,4110.769043,4158.461426,4191.282227,450.000000,4.000000,,,,0.000000,4.000000,4.000000,4.000000,4.000000,4.000000,,,,,,,,,,,,,,,,,,,,,,,,,,,,,,,,,,,,,
1577742302.025797,106.000000,0.000000,4160.512695,4349.230957,4068.718018,4110.256348,4148.717773,450.000000,4.000000,,,,0.000000,4.000000,4.000000,4.000000,4.000000,4.000000,53.000000,0.000000,0.297247,0.087891,0.881104,0.357178,0.547860,-0.588876,0.593271,7.750228,-47.917706,58.597912,,,,,,,,,,,,,,,,,,,,,,,,,
1577742302.033594,107.000000,0.000000,4153.333496,4375.384766,4069.743652,4098.461426,4137.948730,16198.000000,4.000000,,,,0.000000,4.000000,4.000000,4.000000,4.000000,4.000000,,,,,,,,,,,,,151.093536,30.974909,12.114708,7.342808,4.281311,1.815803,4.239468,2.025097,2.350564,1.808100,5.639441,9.035335,3.396108,5.202607,2.651099,3.115823,11.240244,8.078411,7.118284,4.148394,56.411579,17.443741,8.764330,6.821546,3.962118
1577742302.041491,108.000000,0.000000,4186.666504,4382.051270,4099.487305,4130.256348,4170.256348,450.000000,4.000000,,,,0.000000,4.000000,4.000000,4.000000,4.000000,4.000000,54.000000,0.000000,0.297247,0.087891,0.881104,0.357178,0.529793,-0.608408,0.587411,7.812621,-48.030792,58.899105,,,,,,,,,,,,,,,,,,,,,,,,,
1577742302.049287,109.000000,0.000000,4173.846191,4347.179688,4091.794922,4116.922852,4153.333496,450.000000,4.000000,,,,0.000000,4.000000,4.000000,4.000000,4.000000,4.000000,,,,,,,,,,,,,,,,,,,,,,,,,,,,,,,,,,,,,
1577742302.056984,110.000000,0.000000,4168.717773,4334.358887,4085.641113,4104.102539,4140.000000,450.000000,4.000000,,,,0.000000,4.000000,4.000000,4.000000,4.000000,4.000000,55.000000,0.000000,0.297247,0.087891,0.881104,0.357178,0.528328,-0.602060,0.610849,10.739911,-47.953129,57.196270,,,,,,,,,,,,,,,,,,,,,,,,,
1577742302.064780,111.000000,0.000000,4167.179688,4350.256348,4077.435791,4096.922852,4129.743652,16198.000000,4.000000,,,,0.000000,4.000000,4.000000,4.000000,4.000000,4.000000,,,,,,,,,,,,,,,,,,,,,,,,,,,,,,,,,,,,,
1577742302.072477,112.000000,0.000000,4094.871826,4335.897461,4037.435791,4033.846191,4062.051270,450.000000,4.000000,,,,0.000000,4.000000,4.000000,4.000000,4.000000,4.000000,56.000000,0.000000,0.297247,0.087891,0.881104,0.357178,0.547860,-0.588876,0.593271,6.615336,-47.943043,55.723534,,,,,,,,,,,,,,,,,,,,,,,,,
1577742302.080273,113.000000,0.000000,4108.717773,4342.563965,4065.128174,4058.974365,4087.692383,450.000000,4.000000,,,,0.000000,4.000000,4.000000,4.000000,4.000000,4.000000,,,,,,,,,,,,,,,,,,,,,,,,,,,,,,,,,,,,,
1577742302.087970,114.000000,0.000000,4224.102539,4386.666504,4135.897461,4179.487305,4209.743652,450.000000,4.000000,,,,0.000000,4.000000,4.000000,4.000000,4.000000,4.000000,57.000000,0.000000,0.297247,0.087891,0.881104,0.357178,0.528328,-0.602060,0.610849,9.662355,-47.874153,54.338257,,,,,,,,,,,,,,,,,,,,,,,,,
1577742302.095767,115.000000,0.000000,4248.717773,4378.461426,4138.974121,4200.000000,4234.358887,16198.000000,4.000000,,,,0.000000,4.000000,4.000000,4.000000,4.000000,4.000000,,,,,,,,,,,,,,,,,,,,,,,,,,,,,,,,,,,,,
1577742302.103463,116.000000,0.000000,4212.307617,4342.563965,4125.128418,4166.153809,4200.000000,450.000000,4.000000,,,,0.000000,4.000000,4.000000,4.000000,4.000000,4.000000,58.000000,0.000000,0.296816,0.087891,0.881348,0.356934,0.537606,-0.621592,0.594736,5.645536,-47.871967,53.151321,,,,,,,,,,,,,,,,,,,,,,,,,
1577742302.111260,117.000000,0.000000,4204.102539,4330.769043,4123.077148,4162.563965,4192.820313,450.000000,4.000000,,,,0.000000,4.000000,4.000000,4.000000,4.000000,4.000000,,,,,,,,,,,,,,,,,,,,,,,,,,,,,,,,,,,,,
1577742302.118956,118.000000,0.000000,4198.461426,4331.794922,4113.846191,4155.384766,4185.128418,450.000000,4.000000,,,,0.000000,4.000000,4.000000,4.000000,4.000000,4.000000,59.000000,0.000000,0.296889,0.087646,0.881348,0.356934,0.527352,-0.622568,0.589853,5.858582,-47.929817,53.937355,,,,,,,,,,,,,,,,,,,,,,,,,
1577742302.126753,119.000000,0.000000,4192.820313,4351.282227,4117.436035,4155.384766,4183.589844,16198.000000,4.000000,,,,0.000000,4.000000,4.000000,4.000000,4.000000,4.000000,,,,,,,,,,,,,,,,,,,,,,,,,,,,,,,,,,,,,
1577742302.134450,120.000000,0.000000,4164.615234,4342.051270,4091.281982,4127.692383,4158.461426,450.000000,4.000000,,,,0.000000,4.000000,4.000000,4.000000,4.000000,4.000000,60.000000,0.000000,0.296750,0.087646,0.881592,0.356445,0.518563,-0.615732,0.600107,8.921461,-47.981880,54.584972,,,,,,,,,,,,,,,,,,,,,,,,,
1577742302.142246,121.000000,0.000000,4141.025879,4316.410156,4066.153809,4093.333252,4126.666504,450.000000,4.000000,,,,0.000000,4.000000,4.000000,4.000000,4.000000,4.000000,,,,,,,,,,,,,,,,,,,,,,,,,,,,,,,,,,,,,
1577742302.149943,122.000000,0.000000,4188.205078,4360.512695,4105.641113,4135.384766,4168.717773,450.000000,4.000000,,,,0.000000,4.000000,4.000000,4.000000,4.000000,4.000000,61.000000,0.000000,0.296318,0.087646,0.881836,0.356201,0.526375,-0.619150,0.591318,7.909685,-47.909103,55.167828,,,,,,,,,,,,,,,,,,,,,,,,,
1577742302.157839,123.000000,0.000000,4205.128418,4386.153809,4116.922852,4152.307617,4184.615234,16198.000000,4.000000,,,,0.000000,4.000000,4.000000,4.000000,4.000000,4.000000,,,,,,,,,,,,,139.013641,29.047012,13.054265,8.367458,4.684974,1.655084,4.033247,2.012390,2.428298,2.245018,5.913932,8.742058,3.499394,5.683930,2.987002,2.756461,11.117914,8.099731,7.822954,4.581762,52.035183,16.404417,8.754399,7.547453,4.439901
1577742302.165636,124.000000,0.000000,4175.897461,4332.820313,4100.000000,4120.512695,4153.333496,450.000000,4.000000,,,,0.000000,4.000000,4.000000,4.000000,4.000000,4.000000,62.000000,0.000000,0.296611,0.087646,0.881836,0.355957,0.525399,-0.603037,0.601083,10.767453,-47.903423,53.838120,,,,,,,,,,,,,,,,,,,,,,,,,
1577742302.173533,125.000000,0.000000,4197.948730,4326.153809,4128.205078,4145.641113,4175.897461,450.000000,4.000000,,,,0.000000,4.000000,4.000000,4.000000,4.000000,4.000000,,,,,,,,,,,,,,,,,,,,,,,,,,,,,,,,,,,,,
1577742302.181330,126.000000,0.000000,4214.358887,4366.666504,4137.436035,4163.077148,4191.282227,450.000000,4.000000,,,,0.000000,4.000000,4.000000,4.000000,4.000000,4.000000,63.000000,0.000000,0.296250,0.087402,0.882080,0.355713,0.521004,-0.591806,0.602060,6.640124,-47.838493,54.615292,,,,,,,,,,,,,,,,,,,,,,,,,
1577742302.189226,127.000000,0.000000,4182.051270,4351.794922,4107.692383,4124.102539,4154.358887,236.000000,4.000000,,,,0.000000,4.000000,4.000000,4.000000,4.000000,4.000000,,,,,,,,,,,,,,,,,,,,,,,,,,,,,,,,,,,,,
1577742302.197023,0.000000,0.000000,4163.077148,4317.948730,4100.512695,4110.256348,4141.538574,450.000000,4.000000,,,,0.000000,4.000000,4.000000,4.000000,4.000000,4.000000,0.000000,0.000000,0.296686,0.086914,0.882080,0.355469,0.523934,-0.587411,0.604990,2.985344,-47.899689,55.195114,,,,,,,,,,,,,,,,,,,,,,,,,
1577742302.204920,1.000000,0.000000,4167.179688,4317.948730,4108.205078,4126.666504,4151.794922,450.000000,4.000000,,,,0.000000,4.000000,4.000000,4.000000,4.000000,4.000000,,,,,,,,,,,,,,,,,,,,,,,,,,,,,,,,,,,,,
1577742302.212716,2.000000,0.000000,4184.102539,4347.692383,4121.538574,4143.589844,4161.538574,16204.000000,4.000000,,,,0.000000,4.000000,4.000000,4.000000,4.000000,4.000000,1.000000,0.000000,0.296536,0.086426,0.882080,0.355713,0.533700,-0.578622,0.603525,6.215916,-47.894951,55.716953,,,,,,,,,,,,,,,,,,,,,,,,,
1577742302.220613,3.000000,0.000000,4201.538574,4374.871582,4131.282227,4157.948730,4178.974121,450.000000,4.000000,,,,0.000000,4.000000,4.000000,4.000000,4.000000,4.000000,,,,,,,,,,,,,,,,,,,,,,,,,,,,,,,,,,,,,
1577742302.228409,4.000000,0.000000,4189.743652,4351.282227,4112.820313,4145.128418,4176.410156,16241.000000,4.000000,,,,0.000000,4.000000,4.000000,4.000000,4.000000,4.000000,2.000000,0.000000,0.296678,0.085938,0.882080,0.355713,0.539559,-0.565438,0.604013,8.465462,-47.950500,56.246426,,,,,,,,,,,,,,,,,,,,,,,,,
1577742302.236106,5.000000,0.000000,4172.307617,4308.205078,4106.153809,4129.743652,4161.025879,450.000000,4.000000,,,,0.000000,4.000000,4.000000,4.000000,4.000000,4.000000,,,,,,,,,,,,,,,,,,,,,,,,,,,,,,,,,,,,,
1577742302.243902,6.000000,0.000000,4170.256348,4310.256348,4116.410156,4131.794922,4156.922852,16147.000000,4.000000,,,,0.000000,4.000000,4.000000,4.000000,4.000000,4.000000,3.000000,0.000000,0.295799,0.085449,0.882324,0.355957,0.530282,-0.560555,0.609384,8.456331,-47.880863,56.782764,,,,,,,,,,,,,,,,,,,,,,,,,
1577742302.251599,7.000000,0.000000,4147.692383,4335.897461,4090.769287,4110.769043,4134.358887,450.000000,4.000000,,,,0.000000,4.000000,4.000000,4.000000,4.000000,4.000000,,,,,,,,,,,,,,,,,,,,,,,,,,,,,,,,,,,,,
1577742302.259396,8.000000,0.000000,4117.436035,4329.230957,4050.256348,4077.435791,4102.563965,450.000000,4.000000,,,,0.000000,4.000000,4.000000,4.000000,4.000000,4.000000,4.000000,0.000000,0.296303,0.085205,0.882080,0.356201,0.533700,-0.570809,0.601083,8.388297,-47.818192,57.325287,,,,,,,,,,,,,,,,,,,,,,,,,
1577742302.267092,9.000000,0.000000,4108.205078,4297.948730,4041.538574,4068.718018,4095.384521,16195.000000,4.000000,,,,0.000000,4.000000,4.000000,4.000000,4.000000,4.000000,,,,,,,,,,,,,,,,,,,,,,,,,,,,,,,,,,,,,
1577742302.274889,10.000000,0.000000,4123.589844,4301.025879,4066.666748,4091.794922,4115.384766,450.000000,4.000000,,,,0.000000,4.000000,4.000000,4.000000,4.000000,4.000000,5.000000,0.000000,0.296009,0.085205,0.882080,0.356445,0.530282,-0.575692,0.600595,4.618515,-47.941231,57.753742,,,,,,,,,,,,,,,,,,,,,,,,,
1577742302.282585,11.000000,0.000000,4145.641113,4325.128418,4086.666748,4115.897461,4140.512695,16204.000000,4.000000,,,,0.000000,4.000000,4.000000,4.000000,4.000000,4.000000,,,,,,,,,,,,,109.958244,24.617737,14.266112,9.009423,5.157426,1.398963,3.471136,2.190618,2.522771,2.791336,5.846609,7.718667,4.029906,5.796921,3.468529,2.345497,10.255857,8.736101,8.164046,5.132445,41.802937,14.135376,9.322181,7.938303,5.032570
1577742302.290382,12.000000,0.000000,4133.333496,4311.282227,4065.641113,4097.436035,4131.282227,450.000000,4.000000,,,,0.000000,4.000000,4.000000,4.000000,4.000000,4.000000,6.000000,0.000000,0.295939,0.085449,0.882080,0.356445,0.536141,-0.580575,0.615244,5.233340,-47.932339,58.139351,,,,,,,,,,,,,,,,,,,,,,,,,
1577742302.298079,13.000000,0.000000,4100.512695,4300.000000,4035.897461,4066.666748,4098.974121,450.000000,4.000000,,,,0.000000,4.000000,4.000000,4.000000,4.000000,4.000000,,,,,,,,,,,,,,,,,,,,,,,,,,,,,,,,,,,,,
1577742302.305875,14.000000,0.000000,4110.769043,4334.871582,4043.589844,4077.948730,4103.077148,450.000000,4.000000,,,,0.000000,4.000000,4.000000,4.000000,4.000000,4.000000,7.000000,0.000000,0.295868,0.085693,0.882080,0.356445,0.532235,-0.587900,0.614755,8.418559,-47.924335,58.606030,,,,,,,,,,,,,,,,,,,,,,,,,
1577742302.313572,15.000000,0.000000,4115.897461,4337.436035,4036.923096,4071.794922,4102.563965,16204.000000,4.000000,,,,0.000000,4.000000,4.000000,4.000000,4.000000,4.000000,,,,,,,,,,,,,,,,,,,,,,,,,,,,,,,,,,,,,
1577742302.321468,16.000000,0.000000,4105.641113,4315.384766,4022.051270,4054.871826,4094.871826,0.000000,4.000000,,,,0.000000,4.000000,4.000000,4.000000,4.000000,4.000000,8.000000,0.000000,0.295432,0.086182,0.882080,0.356689,0.521492,-0.584970,0.622080,11.225440,-47.917130,58.846592,,,,,,,,,,,,,,,,,,,,,,,,,
1577742302.329265,17.000000,0.000000,4144.615234,4337.436035,4052.307617,4101.538574,4136.922852,0.000000,4.000000,,,,0.000000,4.000000,4.000000,4.000000,4.000000,4.000000,,,,,,,,,,,,,,,,,,,,,,,,,,,,,,,,,,,,,
1577742302.337162,18.000000,0.000000,4137.948730,4333.846191,4041.025635,4100.000000,4128.717773,0.000000,4.000000,,,,0.000000,4.000000,4.000000,4.000000,4.000000,4.000000,9.000000,0.000000,0.295217,0.086914,0.882080,0.356689,0.527840,-0.604013,0.615244,11.179573,-47.910645,59.122917,,,,,,,,,,,,,,,,,,,,,,,,,
1577742302.344959,19.000000,0.000000,4070.256348,4300.512695,3985.128174,4025.641113,4053.846191,0.000000,4.000000,,,,0.000000,4.000000,4.000000,4.000000,4.000000,4.000000,,,,,,,,,,,,,,,,,,,,,,,,,,,,,,,,,,,,,
1577742302.352855,20.000000,0.000000,4105.641113,4325.128418,4022.564209,4055.384521,4081.025635,0.000000,4.000000,,,,0.000000,4.000000,4.000000,4.000000,4.000000,4.000000,10.000000,0.000000,0.295368,0.087402,0.882080,0.356445,0.524422,-0.603525,0.623056,7.130662,-47.904812,59.192162,,,,,,,,,,,,,,,,,,,,,,,,,
1577742302.360652,21.000000,0.000000,4198.461426,4362.563965,4103.589844,4153.846191,4177.436035,0.000000,4.000000,,,,0.000000,4.000000,4.000000,4.000000,4.000000,4.000000,,,,,,,,,,,,,,,,,,,,,,,,,,,,,,,,,,,,,
1577742302.368449,22.000000,0.000000,4201.538574,4358.461426,4103.077148,4165.641113,4185.128418,0.000000,4.000000,,,,0.000000,4.000000,4.000000,4.000000,4.000000,4.000000,11.000000,0.000000,0.295445,0.088135,0.882080,0.356201,0.525399,-0.605966,0.602548,3.367013,-48.079006,59.493744,,,,,,,,,,,,,,,,,,,,,,,,,
1577742302.376145,23.000000,0.000000,4168.717773,4341.025879,4060.512939,4121.025879,4141.538574,0.000000,4.000000,,,,0.000000,4.000000,4.000000,4.000000,4.000000,4.000000,,,,,,,,,,,,,,,,,,,,,,,,,,,,,,,,,,,,,
1577742302.384042,24.000000,0.000000,4165.641113,4326.153809,4055.897461,4105.128418,4134.871582,0.000000,4.000000,,,,0.000000,4.000000,4.000000,4.000000,4.000000,4.000000,12.000000,0.000000,0.295520,0.088867,0.882080,0.355957,0.530282,-0.600107,0.596689,0.099358,-48.116150,57.611813,,,,,,,,,,,,,,,,,,,,,,,,,
1577742302.391839,25.000000,0.000000,4165.128418,4326.153809,4072.820557,4113.846191,4145.128418,0.000000,4.000000,,,,0.000000,4.000000,4.000000,4.000000,4.000000,4.000000,,,,,,,,,,,,,,,,,,,,,,,,,,,,,,,,,,,,,
1577742302.399636,26.000000,0.000000,4157.948730,4334.871582,4069.743652,4110.769043,4139.487305,0.000000,4.000000,,,,0.000000,4.000000,4.000000,4.000000,4.000000,4.000000,13.000000,0.000000,0.295666,0.089355,0.882080,0.355713,0.533211,-0.598642,0.584482,0.867022,-48.089764,56.097523,,,,,,,,,,,,,,,,,,,,,,,,,
1577742302.407332,27.000000,0.000000,4169.230957,4333.846191,4070.769287,4114.871582,4146.666504,0.000000,4.000000,,,,0.000000,4.000000,4.000000,4.000000,4.000000,4.000000,,,,,,,,,,,,,74.259254,19.276613,15.400946,9.251113,5.680964,1.104345,2.705434,2.430718,2.608333,3.337293,5.389036,6.342431,4.812005,5.591179,4.016034,2.037860,9.052272,9.738898,8.146277,5.747050,29.310801,11.590231,10.217503,8.032481,5.674409
1577742302.415229,28.000000,0.000000,4184.102539,4318.461426,4076.923096,4131.282227,4163.077148,0.000000,4.000000,,,,0.000000,4.000000,4.000000,4.000000,4.000000,4.000000,14.000000,0.000000,0.295812,0.089844,0.882080,0.355469,0.530282,-0.612802,0.587411,4.369242,-48.125832,56.588940,,,,,,,,,,,,,,,,,,,,,,,,,
1577742302.423025,29.000000,0.000000,4163.589844,4302.051270,4053.333252,4110.769043,4142.563965,0.000000,4.000000,,,,0.000000,4.000000,4.000000,4.000000,4.000000,4.000000,,,,,,,,,,,,,,,,,,,,,,,,,,,,,,,,,,,,,
1577742302.430722,30.000000,0.000000,4137.436035,4310.769043,4025.641113,4078.461426,4111.794922,0.000000,4.000000,,,,0.000000,4.000000,4.000000,4.000000,4.000000,4.000000,15.000000,0.000000,0.295663,0.090332,0.882080,0.355469,0.532723,-0.584970,0.581552,7.581055,-47.978848,57.150841,,,,,,,,,,,,,,,,,,,,,,,,,
1577742302.438518,31.000000,0.000000,4163.077148,4344.102539,4041.025635,4103.077148,4138.461426,0.000000,4.000000,,,,0.000000,4.000000,4.000000,4.000000,4.000000,4.000000,,,,,,,,,,,,,,,,,,,,,,,,,,,,,,,,,,,,,
1577742302.446415,32.000000,0.000000,4193.333496,4352.820313,4063.076904,4143.077148,4175.384766,0.000000,4.000000,,,,0.000000,4.000000,4.000000,4.000000,4.000000,4.000000,16.000000,0.000000,0.295589,0.090576,0.882080,0.355469,0.524422,-0.595224,0.590341,7.600549,-47.726929,57.716373,,,,,,,,,,,,,,,,,,,,,,,,,
1577742302.454211,33.000000,0.000000,4153.333496,4308.717773,4031.794922,4118.461426,4141.025879,0.000000,4.000000,,,,0.000000,4.000000,4.000000,4.000000,4.000000,4.000000,,,,,,,,,,,,,,,,,,,,,,,,,,,,,,,,,,,,,
1577742302.462008,34.000000,0.000000,4129.743652,4303.077148,4015.897461,4104.102539,4118.974121,0.000000,4.000000,,,,0.000000,4.000000,4.000000,4.000000,4.000000,4.000000,17.000000,0.000000,0.295589,0.090576,0.882080,0.355469,0.529793,-0.602548,0.573739,3.670280,-47.739468,57.986088,,,,,,,,,,,,,,,,,,,,,,,,,
1577742302.469705,35.000000,0.000000,4182.563965,4355.384766,4050.769287,4151.282227,4165.641113,0.000000,4.000000,,,,0.000000,4.000000,4.000000,4.000000,4.000000,4.000000,,,,,,,,,,,,,,,,,,,,,,,,,,,,,,,,,,,,,
1577742302.477601,36.000000,0.000000,4204.102539,4362.563965,4053.333252,4164.615234,4185.641113,0.000000,4.000000,,,,0.000000,4.000000,4.000000,4.000000,4.000000,4.000000,18.000000,0.000000,0.295514,0.090820,0.882080,0.355469,0.521004,-0.598642,0.587411,4.260298,-47.810566,58.348461,,,,,,,,,,,,,,,,,,,,,,,,,
1577742302.485398,37.000000,0.000000,4189.743652,4337.948730,4038.974365,4146.666504,4170.256348,0.000000,4.000000,,,,0.000000,4.000000,4.000000,4.000000,4.000000,4.000000,,,,,,,,,,,,,,,,,,,,,,,,,,,,,,,,,,,,,
1577742302.493195,38.000000,0.000000,4198.974121,4341.538574,4053.846191,4156.410156,4176.410156,0.000000,4.000000,,,,0.000000,4.000000,4.000000,4.000000,4.000000,4.000000,19.000000,0.000000,0.295220,0.090820,0.882080,0.355713,0.517098,-0.603525,0.592782,4.552052,-47.754921,58.674599,,,,,,,,,,,,,,,,,,,,,,,,,
1577742302.500992,39.000000,0.000000,4187.692383,4342.051270,4038.974365,4149.230957,4168.717773,0.000000,4.000000,,,,0.000000,4.000000,4.000000,4.000000,4.000000,4.000000,,,,,,,,,,,,,,,,,,,,,,,,,,,,,,,,,,,,,
1577742302.508688,40.000000,0.000000,4138.974121,4313.846191,3988.205078,4102.051270,4121.025879,0.000000,4.000000,,,,0.000000,4.000000,4.000000,4.000000,4.000000,4.000000,20.000000,0.000000,0.295589,0.090576,0.882080,0.355469,0.529793,-0.602548,0.573739,5.053893,-47.824474,57.113842,,,,,,,,,,,,,,,,,,,,,,,,,
1577742302.516485,41.000000,0.000000,4139.487305,4326.666504,4000.512939,4106.153809,4122.051270,0.000000,4.000000,,,,0.000000,4.000000,4.000000,4.000000,4.000000,4.000000,,,,,,,,,,,,,,,,,,,,,,,,,,,,,,,,,,,,,
1577742302.524181,42.000000,0.000000,4189.230957,4367.179688,4050.256348,4164.615234,4180.000000,0.000000,4.000000,,,,0.000000,4.000000,4.000000,4.000000,4.000000,4.000000,21.000000,0.000000,0.295220,0.090820,0.882080,0.355713,0.517098,-0.603525,0.592782,5.266288,-47.767441,57.563442,,,,,,,,,,,,,,,,,,,,,,,,,
1577742302.531978,43.000000,0.000000,4180.000000,4352.820313,4025.128174,4155.897461,4170.769043,0.000000,4.000000,,,,0.000000,4.000000,4.000000,4.000000,4.000000,4.000000,,,,,,,,,,,,,42.206863,14.662702,16.123783,9.202597,6.208981,0.869840,1.931430,2.627842,2.671232,3.787792,4.791432,5.098344,5.652550,5.222227,4.518455,2.104847,8.104161,10.791223,7.900728,6.341711,18.053013,9.779609,11.184190,7.986354,6.267566
1577742302.539675,44.000000,0.000000,4135.897461,4326.153809,3982.564209,4094.871826,4117.436035,0.000000,4.000000,,,,0.000000,4.000000,4.000000,4.000000,4.000000,4.000000,22.000000,0.000000,0.295220,0.090820,0.882080,0.355713,0.526864,-0.599130,0.598642,5.577075,-47.835743,57.968082,,,,,,,,,,,,,,,,,,,,,,,,,
1577742302.547471,45.000000,0.000000,4143.077148,4334.358887,4012.307617,4098.974121,4128.205078,0.000000,4.000000,,,,0.000000,4.000000,4.000000,4.000000,4.000000,4.000000,,,,,,,,,,,,,,,,,,,,,,,,,,,,,,,,,,,,,
1577742302.555168,46.000000,0.000000,4170.769043,4348.717773,4046.666748,4139.487305,4159.487305,0.000000,4.000000,,,,0.000000,4.000000,4.000000,4.000000,4.000000,4.000000,23.000000,0.000000,0.295295,0.090576,0.882080,0.355713,0.524422,-0.604501,0.609873,8.608289,-47.897213,58.392071,,,,,,,,,,,,,,,,,,,,,,,,,
1577742302.562964,47.000000,0.000000,4172.820313,4355.384766,4037.948730,4141.025879,4160.512695,0.000000,4.000000,,,,0.000000,4.000000,4.000000,4.000000,4.000000,4.000000,,,,,,,,,,,,,,,,,,,,,,,,,,,,,,,,,,,,,
1577742302.570661,48.000000,0.000000,4168.205078,4346.666504,4045.641113,4137.948730,4160.000000,0.000000,4.000000,,,,0.000000,4.000000,4.000000,4.000000,4.000000,4.000000,24.000000,0.000000,0.295370,0.090332,0.882080,0.355713,0.517098,-0.598154,0.616709,8.644691,-47.892719,58.713844,,,,,,,,,,,,,,,,,,,,,,,,,
1577742302.578558,49.000000,0.000000,4141.025879,4311.794922,4042.564209,4118.974121,4134.358887,0.000000,4.000000,,,,0.000000,4.000000,4.000000,4.000000,4.000000,4.000000,,,,,,,,,,,,,,,,,,,,,,,,,,,,,,,,,,,,,
1577742302.586354,50.000000,0.000000,4116.922852,4323.589844,4021.538574,4080.512939,4106.666504,0.000000,4.000000,,,,0.000000,4.000000,4.000000,4.000000,4.000000,4.000000,25.000000,0.000000,0.295444,0.090088,0.882080,0.355713,0.514656,-0.591806,0.632822,4.669823,-47.769047,58.943630,,,,,,,,,,,,,,,,,,,,,,,,,
1577742302.594151,51.000000,0.000000,4166.666504,4384.102539,4061.538574,4123.589844,4155.384766,0.000000,4.000000,,,,0.000000,4.000000,4.000000,4.000000,4.000000,4.000000,,,,,,,,,,,,,,,,,,,,,,,,,,,,,,,,,,,,,
1577742302.601848,52.000000,0.000000,4210.769043,4373.333496,4101.025879,4186.666504,4201.025879,0.000000,4.000000,,,,0.000000,4.000000,4.000000,4.000000,4.000000,4.000000,26.000000,0.000000,0.295150,0.090088,0.882080,0.355957,0.526375,-0.582040,0.614267,7.791762,-47.837185,59.270065,,,,,,,,,,,,,,,,,,,,,,,,,
1577742302.609744,53.000000,0.000000,4173.333496,4318.461426,4067.692383,4153.846191,4163.589844,0.000000,4.000000,,,,0.000000,4.000000,4.000000,4.000000,4.000000,4.000000,,,,,,,,,,,,,,,,,,,,,,,,,,,,,,,,,,,,,
1577742302.617541,54.000000,0.000000,4129.230957,4313.846191,4029.230713,4100.512695,4114.358887,0.000000,4.000000,,,,0.000000,4.000000,4.000000,4.000000,4.000000,4.000000,27.000000,0.000000,0.295150,0.090088,0.882080,0.355957,0.525399,-0.572763,0.620615,10.780954,-47.719067,57.530132,,,,,,,,,,,,,,,,,,,,,,,,,
1577742302.625438,55.000000,0.000000,4134.871582,4339.487305,4037.435791,4112.820313,4122.051270,0.000000,4.000000,,,,0.000000,4.000000,4.000000,4.000000,4.000000,4.000000,,,,,,,,,,,,,,,,,,,,,,,,,,,,,,,,,,,,,
1577742302.633234,56.000000,0.000000,4158.461426,4356.410156,4066.666748,4151.282227,4155.384766,0.000000,4.000000,,,,0.000000,4.000000,4.000000,4.000000,4.000000,4.000000,28.000000,0.000000,0.294781,0.090332,0.882080,0.356201,0.517098,-0.596689,0.606943,6.652275,-47.792206,57.878288,,,,,,,,,,,,,,,,,,,,,,,,,
1577742302.640931,57.000000,0.000000,4156.410156,4340.512695,4074.871826,4153.333496,4156.922852,0.000000,4.000000,,,,0.000000,4.000000,4.000000,4.000000,4.000000,4.000000,,,,,,,,,,,,,,,,,,,,,,,,,,,,,,,,,,,,,
1577742302.648727,58.000000,0.000000,4132.307617,4324.102539,4049.743652,4120.512695,4132.820313,0.000000,4.000000,,,,0.000000,4.000000,4.000000,4.000000,4.000000,4.000000,29.000000,0.000000,0.295435,0.090576,0.881836,0.356201,0.541024,-0.593759,0.612314,2.936464,-47.678581,58.430889,,,,,,,,,,,,,,,,,,,,,,,,,
1577742302.656424,59.000000,0.000000,4142.051270,4350.256348,4047.692383,4124.102539,4142.051270,0.000000,4.000000,,,,0.000000,4.000000,4.000000,4.000000,4.000000,4.000000,,,,,,,,,,,,,20.834940,11.699858,16.325775,9.004583,6.680281,0.766927,1.306733,2.766115,2.707608,4.093992,4.468519,4.328166,6.434302,4.882463,4.887634,2.754767,7.850632,11.710429,7.614922,6.845004,10.562839,9.190613,12.093597,7.970717,6.730645
1577742302.664220,60.000000,0.000000,4171.794922,4357.948730,4077.435791,4158.974121,4173.846191,0.000000,4.000000,,,,0.000000,4.000000,4.000000,4.000000,4.000000,4.000000,30.000000,0.000000,0.294990,0.091064,0.881836,0.356445,0.516609,-0.595224,0.603037,3.540048,-47.695953,58.808598,,,,,,,,,,,,,,,,,,,,,,,,,
1577742302.671917,61.000000,0.000000,4150.256348,4320.000000,4068.718018,4141.538574,4160.512695,0.000000,4.000000,,,,0.000000,4.000000,4.000000,4.000000,4.000000,4.000000,,,,,,,,,,,,,,,,,,,,,,,,,,,,,,,,,,,,,
1577742302.679714,62.000000,0.000000,4116.410156,4327.179688,4038.461426,4104.615234,4127.692383,0.000000,4.000000,,,,0.000000,4.000000,4.000000,4.000000,4.000000,4.000000,31.000000,0.000000,0.295568,0.091553,0.881592,0.356445,0.521492,-0.604990,0.597177,6.834780,-47.711586,59.148537,,,,,,,,,,,,,,,,,,,,,,,,,
1577742302.687410,63.000000,0.000000,4151.794922,4375.384766,4065.641113,4137.436035,4152.307617,0.000000,4.000000,,,,0.000000,4.000000,4.000000,4.000000,4.000000,4.000000,,,,,,,,,,,,,,,,,,,,,,,,,,,,,,,,,,,,,
1577742302.695207,64.000000,0.000000,4187.692383,4359.487305,4097.436035,4172.820313,4186.153809,450.000000,4.000000,,,,0.000000,4.000000,4.000000,4.000000,4.000000,4.000000,32.000000,0.000000,0.295341,0.092285,0.881592,0.356445,0.522957,-0.589853,0.599619,3.280165,-47.725658,59.334850,,,,,,,,,,,,,,,,,,,,,,,,,
1577742302.702903,65.000000,0.000000,4156.410156,4323.589844,4073.333252,4143.077148,4164.615234,450.000000,4.000000,,,,0.000000,4.000000,4.000000,4.000000,4.000000,4.000000,,,,,,,,,,,,,,,,,,,,,,,,,,,,,,,,,,,,,
1577742302.710700,66.000000,0.000000,4128.717773,4352.307617,4050.769287,4114.871582,4134.358887,16209.000000,4.000000,,,,0.000000,4.000000,4.000000,4.000000,4.000000,4.000000,33.000000,0.000000,0.295111,0.093018,0.881592,0.356445,0.528328,-0.613779,0.597665,3.789563,-47.678505,57.588440,,,,,,,,,,,,,,,,,,,,,,,,,
1577742302.718396,67.000000,0.000000,4148.205078,4370.769043,4064.615479,4127.692383,4144.102539,450.000000,4.000000,,,,0.000000,4.000000,4.000000,4.000000,4.000000,4.000000,,,,,,,,,,,,,,,,,,,,,,,,,,,,,,,,,,,,,
1577742302.726293,68.000000,0.000000,4182.563965,4354.358887,4084.615479,4154.358887,4176.922852,16241.000000,4.000000,,,,0.000000,4.000000,4.000000,4.000000,4.000000,4.000000,34.000000,0.000000,0.295762,0.093262,0.881348,0.356445,0.528328,-0.613779,0.583993,4.367653,-47.695885,57.990578,,,,,,,,,,,,,,,,,,,,,,,,,
1577742302.734090,69.000000,0.000000,4192.307617,4363.589844,4082.564209,4165.641113,4192.307617,450.000000,4.000000,,,,0.000000,4.000000,4.000000,4.000000,4.000000,4.000000,,,,,,,,,,,,,,,,,,,,,,,,,,,,,,,,,,,,,
1577742302.741987,70.000000,0.000000,4156.410156,4372.307617,4052.820557,4130.769043,4160.000000,16143.000000,4.000000,,,,0.000000,4.000000,4.000000,4.000000,4.000000,4.000000,35.000000,0.000000,0.295608,0.093750,0.881348,0.356445,0.513680,-0.625498,0.590829,7.579625,-47.771339,58.352505,,,,,,,,,,,,,,,,,,,,,,,,,
1577742302.749783,71.000000,0.000000,4115.384766,4354.358887,4027.179443,4083.076904,4111.794922,450.000000,4.000000,,,,0.000000,4.000000,4.000000,4.000000,4.000000,4.000000,,,,,,,,,,,,,,,,,,,,,,,,,,,,,,,,,,,,,
1577742302.757680,72.000000,0.000000,4146.153809,4365.128418,4050.769287,4111.794922,4136.410156,450.000000,4.000000,,,,0.000000,4.000000,4.000000,4.000000,4.000000,4.000000,36.000000,0.000000,0.295902,0.093750,0.881348,0.356201,0.525887,-0.608896,0.597665,7.838524,-47.779434,58.738052,,,,,,,,,,,,,,,,,,,,,,,,,
1577742302.765477,73.000000,0.000000,4217.436035,4396.922852,4096.922852,4193.333496,4215.384766,16194.000000,4.000000,,,,0.000000,4.000000,4.000000,4.000000,4.000000,4.000000,,,,,,,,,,,,,,,,,,,,,,,,,,,,,,,,,,,,,
1577742302.773373,74.000000,0.000000,4186.666504,4367.692383,4067.692383,4160.512695,4190.769043,450.000000,4.000000,,,,0.000000,4.000000,4.000000,4.000000,4.000000,4.000000,37.000000,0.000000,0.295902,0.093750,0.881348,0.356201,0.532235,-0.604501,0.591806,4.123718,-47.607277,58.785969,,,,,,,,,,,,,,,,,,,,,,,,,
1577742302.781170,75.000000,0.000000,4103.077148,4322.051270,4005.128174,4056.410156,4099.487305,16208.000000,4.000000,,,,0.000000,4.000000,4.000000,4.000000,4.000000,4.000000,,,,,,,,,,,,,10.744400,10.257728,16.054253,8.785652,7.038332,0.884108,0.887897,2.855328,2.720514,4.262678,5.017043,4.106531,7.058331,4.713648,5.098173,3.992015,8.334386,12.404507,7.453599,7.228258,6.975181,9.579114,12.862757,8.092193,7.034611
1577742302.789067,76.000000,0.000000,4129.230957,4331.282227,4023.589844,4070.256348,4114.358887,450.000000,4.000000,,,,0.000000,4.000000,4.000000,4.000000,4.000000,4.000000,38.000000,0.000000,0.295608,0.093750,0.881348,0.356445,0.538094,-0.598642,0.587411,0.720578,-47.571960,59.068352,,,,,,,,,,,,,,,,,,,,,,,,,
1577742302.796864,77.000000,0.000000,4194.358887,4366.666504,4080.512939,4146.666504,4182.563965,450.000000,4.000000,,,,0.000000,4.000000,4.000000,4.000000,4.000000,4.000000,,,,,,,,,,,,,,,,,,,,,,,,,,,,,,,,,,,,,
1577742302.804760,78.000000,0.000000,4190.769043,4391.282227,4087.179443,4154.358887,4185.128418,450.000000,4.000000,,,,0.000000,4.000000,4.000000,4.000000,4.000000,4.000000,39.000000,0.000000,0.295608,0.093750,0.881348,0.356445,0.520027,-0.598154,0.591318,1.605566,-47.540180,59.262684,,,,,,,,,,,,,,,,,,,,,,,,,
1577742302.812557,79.000000,0.000000,4171.794922,4371.282227,4059.487061,4120.512695,4158.461426,16208.000000,4.000000,,,,0.000000,4.000000,4.000000,4.000000,4.000000,4.000000,,,,,,,,,,,,,,,,,,,,,,,,,,,,,,,,,,,,,
1577742302.820453,80.000000,0.000000,4180.512695,4342.051270,4045.641113,4102.051270,4150.769043,450.000000,4.000000,,,,0.000000,4.000000,4.000000,4.000000,4.000000,4.000000,40.000000,0.000000,0.295313,0.093750,0.881348,0.356689,0.519539,-0.615732,0.607919,2.342240,-47.691021,59.377769,,,,,,,,,,,,,,,,,,,,,,,,,
1577742302.828250,81.000000,0.000000,4192.820313,4356.410156,4062.564209,4115.384766,4161.538574,450.000000,4.000000,,,,0.000000,4.000000,4.000000,4.000000,4.000000,4.000000,,,,,,,,,,,,,,,,,,,,,,,,,,,,,,,,,,,,,
1577742302.836146,82.000000,0.000000,4207.692383,4381.025879,4090.769287,4155.897461,4193.846191,450.000000,4.000000,,,,0.000000,4.000000,4.000000,4.000000,4.000000,4.000000,41.000000,0.000000,0.295824,0.093506,0.881104,0.356934,0.541024,-0.618662,0.587900,3.065062,-47.647335,57.627068,,,,,,,,,,,,,,,,,,,,,,,,,
1577742302.843943,83.000000,0.000000,4204.102539,4365.128418,4092.820557,4165.128418,4203.077148,16208.000000,4.000000,,,,0.000000,4.000000,4.000000,4.000000,4.000000,4.000000,,,,,,,,,,,,,,,,,,,,,,,,,,,,,,,,,,,,,
1577742302.851640,84.000000,0.000000,4162.051270,4327.692383,4064.615479,4113.333496,4156.922852,450.000000,4.000000,,,,0.000000,4.000000,4.000000,4.000000,4.000000,4.000000,42.000000,0.000000,0.295824,0.093506,0.881104,0.356934,0.533211,-0.610849,0.595224,3.536155,-47.608013,57.965527,,,,,,,,,,,,,,,,,,,,,,,,,
1577742302.859436,85.000000,0.000000,4163.077148,4341.025879,4069.230713,4107.179688,4152.820313,450.000000,4.000000,,,,0.000000,4.000000,4.000000,4.000000,4.000000,4.000000,,,,,,,,,,,,,,,,,,,,,,,,,,,,,,,,,,,,,
1577742302.867133,86.000000,0.000000,4207.179688,4383.589844,4107.692383,4163.077148,4205.128418,450.000000,4.000000,,,,0.000000,4.000000,4.000000,4.000000,4.000000,4.000000,43.000000,0.000000,0.295529,0.093506,0.881104,0.357178,0.528328,-0.598154,0.594736,0.131956,-47.572628,56.415867,,,,,,,,,,,,,,,,,,,,,,,,,
1577742302.874929,87.000000,0.000000,4198.461426,4380.000000,4102.563965,4159.487305,4197.948730,16208.000000,4.000000,,,,0.000000,4.000000,4.000000,4.000000,4.000000,4.000000,,,,,,,,,,,,,,,,,,,,,,,,,,,,,,,,,,,,,
1577742302.882626,88.000000,0.000000,4154.358887,4351.282227,4061.025635,4098.461426,4145.641113,450.000000,4.000000,,,,0.000000,4.000000,4.000000,4.000000,4.000000,4.000000,44.000000,0.000000,0.294722,0.093750,0.881348,0.357178,0.517098,-0.598154,0.607919,3.827313,-47.540779,56.995079,,,,,,,,,,,,,,,,,,,,,,,,,
1577742302.890523,89.000000,0.000000,4156.410156,4368.205078,4056.410156,4094.871826,4149.230957,450.000000,4.000000,,,,0.000000,4.000000,4.000000,4.000000,4.000000,4.000000,,,,,,,,,,,,,,,,,,,,,,,,,,,,,,,,,,,,,
1577742302.898319,90.000000,0.000000,4209.743652,4402.051270,4103.077148,4156.410156,4206.666504,450.000000,4.000000,,,,0.000000,4.000000,4.000000,4.000000,4.000000,4.000000,45.000000,0.000000,0.294722,0.093750,0.881348,0.357178,0.510262,-0.618173,0.606943,6.315720,-47.571930,57.396736,,,,,,,,,,,,,,,,,,,,,,,,,
1577742302.906216,91.000000,0.000000,4222.563965,4367.692383,4114.871582,4168.717773,4213.846191,16208.000000,4.000000,,,,0.000000,4.000000,4.000000,4.000000,4.000000,4.000000,,,,,,,,,,,,,8.217347,9.603595,15.293926,8.608788,7.243871,1.215434,0.650282,2.878301,2.714649,4.346550,6.476304,4.288440,7.365140,4.740915,5.186285,5.554652,9.233143,12.673526,7.490047,7.504923,6.094406,10.250037,13.254038,8.342281,7.200339
1577742302.914013,92.000000,0.000000,4189.230957,4330.256348,4087.179443,4131.282227,4172.820313,450.000000,4.000000,,,,0.000000,4.000000,4.000000,4.000000,4.000000,4.000000,46.000000,0.000000,0.294940,0.093994,0.881348,0.356934,0.528328,-0.608896,0.604501,2.753195,-47.599964,55.844139,,,,,,,,,,,,,,,,,,,,,,,,,
1577742302.921809,93.000000,0.000000,4193.333496,4364.615234,4100.512695,4141.025879,4179.487305,450.000000,4.000000,,,,0.000000,4.000000,4.000000,4.000000,4.000000,4.000000,,,,,,,,,,,,,,,,,,,,,,,,,,,,,,,,,,,,,
1577742302.929506,94.000000,0.000000,4226.153809,4396.922852,4129.230957,4176.410156,4215.384766,450.000000,4.000000,,,,0.000000,4.000000,4.000000,4.000000,4.000000,4.000000,47.000000,0.000000,0.295236,0.093994,0.881348,0.356689,0.514656,-0.598642,0.600107,2.418060,-47.744827,56.301079,,,,,,,,,,,,,,,,,,,,,,,,,
1577742302.937303,95.000000,0.000000,4211.794922,4363.589844,4107.179688,4153.846191,4198.974121,16208.000000,4.000000,,,,0.000000,4.000000,4.000000,4.000000,4.000000,4.000000,,,,,,,,,,,,,,,,,,,,,,,,,,,,,,,,,,,,,
1577742302.944999,96.000000,0.000000,4182.051270,4340.000000,4085.641113,4115.897461,4167.179688,450.000000,4.000000,,,,0.000000,4.000000,4.000000,4.000000,4.000000,4.000000,48.000000,0.000000,0.294722,0.093750,0.881348,0.357178,0.510262,-0.618173,0.606943,3.013669,-47.695759,54.798229,,,,,,,,,,,,,,,,,,,,,,,,,
1577742302.952796,97.000000,0.000000,4196.410156,4370.256348,4103.077148,4123.589844,4178.461426,450.000000,4.000000,,,,0.000000,4.000000,4.000000,4.000000,4.000000,4.000000,,,,,,,,,,,,,,,,,,,,,,,,,,,,,,,,,,,,,
1577742302.960492,98.000000,0.000000,4193.333496,4372.307617,4092.820557,4117.948730,4169.743652,450.000000,4.000000,,,,0.000000,4.000000,4.000000,4.000000,4.000000,4.000000,49.000000,0.000000,0.295236,0.093994,0.881348,0.356689,0.514656,-0.598642,0.600107,2.652487,-47.831043,55.359760,,,,,,,,,,,,,,,,,,,,,,,,,
1577742302.968389,99.000000,0.000000,4189.743652,4355.384766,4083.076904,4110.256348,4160.512695,16208.000000,4.000000,,,,0.000000,4.000000,4.000000,4.000000,4.000000,4.000000,,,,,,,,,,,,,,,,,,,,,,,,,,,,,,,,,,,,,
1577742302.976186,100.000000,0.000000,4238.461426,4368.205078,4125.128418,4156.410156,4209.230957,450.000000,4.000000,,,,0.000000,4.000000,4.000000,4.000000,4.000000,4.000000,50.000000,0.000000,0.295158,0.094238,0.881348,0.356689,0.506355,-0.601572,0.601083,3.164838,-47.713539,55.984764,,,,,,,,,,,,,,,,,,,,,,,,,
1577742302.983983,101.000000,0.000000,4258.461426,4369.230957,4133.333496,4171.282227,4225.641113,450.000000,4.000000,,,,0.000000,4.000000,4.000000,4.000000,4.000000,4.000000,,,,,,,,,,,,,,,,,,,,,,,,,,,,,,,,,,,,,
1577742302.991679,102.000000,0.000000,4224.102539,4350.769043,4097.948730,4127.179688,4183.077148,450.000000,4.000000,,,,0.000000,4.000000,4.000000,4.000000,4.000000,4.000000,51.000000,0.000000,0.294349,0.094482,0.881592,0.356689,0.511727,-0.603037,0.604013,6.437276,-47.547966,54.573364,,,,,,,,,,,,,,,,,,,,,,,,,
1577742302.999576,103.000000,0.000000,4203.077148,4338.974121,4091.281982,4103.077148,4159.487305,16208.000000,4.000000,,,,0.000000,4.000000,4.000000,4.000000,4.000000,4.000000,,,,,,,,,,,,,,,,,,,,,,,,,,,,,,,,,,,,,
1577742303.007372,104.000000,0.000000,4213.846191,4338.461426,4109.230957,4116.922852,4170.769043,450.000000,4.000000,,,,0.000000,4.000000,4.000000,4.000000,4.000000,4.000000,52.000000,0.000000,0.294567,0.094727,0.881592,0.356445,0.526375,-0.607919,0.596689,9.561916,-47.578400,55.217194,,,,,,,,,,,,,,,,,,,,,,,,,
1577742303.015169,105.000000,0.000000,4229.230957,4342.563965,4118.974121,4135.384766,4188.717773,450.000000,4.000000,,,,0.000000,4.000000,4.000000,4.000000,4.000000,4.000000,,,,,,,,,,,,,,,,,,,,,,,,,,,,,,,,,,,,,
1577742303.022866,106.000000,0.000000,4226.666504,4361.025879,4110.256348,4136.410156,4189.743652,450.000000,4.000000,,,,0.000000,4.000000,4.000000,4.000000,4.000000,4.000000,53.000000,0.000000,0.294488,0.094971,0.881592,0.356445,0.508309,-0.594247,0.599130,9.502955,-47.605789,55.916275,,,,,,,,,,,,,,,,,,,,,,,,,
1577742303.030762,107.000000,0.000000,4228.205078,4379.487305,4106.153809,4138.461426,4195.384766,16208.000000,4.000000,,,,0.000000,4.000000,4.000000,4.000000,4.000000,4.000000,,,,,,,,,,,,,7.942950,9.024187,14.003492,8.422621,7.316864,1.684302,0.539767,2.794822,2.699951,4.411596,8.868035,4.658600,7.239025,4.875869,5.234699,7.062305,10.032382,12.285093,7.647564,7.755518,5.962509,10.513951,12.978164,8.575132,7.308973
1577742303.038559,108.000000,0.000000,4269.743652,4375.384766,4130.769043,4172.820313,4241.025879,450.000000,4.000000,,,,0.000000,4.000000,4.000000,4.000000,4.000000,4.000000,54.000000,0.000000,0.294409,0.095215,0.881592,0.356445,0.521492,-0.622568,0.598154,12.261212,-47.450993,56.365997,,,,,,,,,,,,,,,,,,,,,,,,,
1577742303.046356,109.000000,0.000000,4283.077148,4353.846191,4133.846191,4183.077148,4254.871582,450.000000,4.000000,,,,0.000000,4.000000,4.000000,4.000000,4.000000,4.000000,,,,,,,,,,,,,,,,,,,,,,,,,,,,,,,,,,,,,
1577742303.054153,110.000000,0.000000,4231.282227,4346.153809,4094.871826,4134.358887,4194.358887,450.000000,4.000000,,,,0.000000,4.000000,4.000000,4.000000,4.000000,4.000000,55.000000,0.000000,0.294330,0.095459,0.881592,0.356445,0.515633,-0.604013,0.601083,11.992137,-47.491123,56.830566,,,,,,,,,,,,,,,,,,,,,,,,,
1577742303.061849,111.000000,0.000000,4214.871582,4360.512695,4091.281982,4124.102539,4175.897461,16208.000000,4.000000,,,,0.000000,4.000000,4.000000,4.000000,4.000000,4.000000,,,,,,,,,,,,,,,,,,,,,,,,,,,,,,,,,,,,,
1577742303.069646,112.000000,0.000000,4239.487305,4342.051270,4121.025879,4160.000000,4210.769043,450.000000,4.000000,,,,0.000000,4.000000,4.000000,4.000000,4.000000,4.000000,56.000000,0.000000,0.294251,0.095703,0.881592,0.356445,0.519539,-0.592782,0.600107,11.630339,-47.587055,57.188862,,,,,,,,,,,,,,,,,,,,,,,,,
1577742303.077342,113.000000,0.000000,4237.948730,4327.692383,4121.025879,4161.538574,4210.769043,450.000000,4.000000,,,,0.000000,4.000000,4.000000,4.000000,4.000000,4.000000,,,,,,,,,,,,,,,,,,,,,,,,,,,,,,,,,,,,,
1577742303.085139,114.000000,0.000000,4235.384766,4363.589844,4115.384766,4151.794922,4202.563965,450.000000,4.000000,,,,0.000000,4.000000,4.000000,4.000000,4.000000,4.000000,57.000000,0.000000,0.294467,0.095947,0.881592,0.356201,0.521004,-0.596689,0.604013,7.476536,-47.553764,57.571144,,,,,,,,,,,,,,,,,,,,,,,,,
1577742303.092835,115.000000,0.000000,4233.846191,4373.333496,4108.205078,4147.692383,4204.102539,16208.000000,4.000000,,,,0.000000,4.000000,4.000000,4.000000,4.000000,4.000000,,,,,,,,,,,,,,,,,,,,,,,,,,,,,,,,,,,,,
1577742303.100632,116.000000,0.000000,4236.410156,4341.538574,4107.692383,4144.615234,4208.717773,450.000000,4.000000,,,,0.000000,4.000000,4.000000,4.000000,4.000000,4.000000,58.000000,0.000000,0.294307,0.096436,0.881592,0.356201,0.510750,-0.604501,0.604501,7.685928,-47.463985,57.975010,,,,,,,,,,,,,,,,,,,,,,,,,
1577742303.108329,117.000000,0.000000,4278.461426,4341.538574,4141.025879,4178.461426,4245.128418,450.000000,4.000000,,,,0.000000,4.000000,4.000000,4.000000,4.000000,4.000000,,,,,,,,,,,,,,,,,,,,,,,,,,,,,,,,,,,,,
1577742303.116125,118.000000,0.000000,4296.410156,4366.153809,4155.897461,4197.436035,4262.051270,450.000000,4.000000,,,,0.000000,4.000000,4.000000,4.000000,4.000000,4.000000,59.000000,0.000000,0.294227,0.096680,0.881592,0.356201,0.518074,-0.607431,0.596689,10.685703,-47.622448,58.278679,,,,,,,,,,,,,,,,,,,,,,,,,
1577742303.123822,119.000000,0.000000,4249.743652,4356.922852,4122.563965,4156.922852,4219.487305,16208.000000,4.000000,,,,0.000000,4.000000,4.000000,4.000000,4.000000,4.000000,,,,,,,,,,,,,,,,,,,,,,,,,,,,,,,,,,,,,
1577742303.131618,120.000000,0.000000,4221.538574,4339.487305,4103.589844,4135.384766,4194.871582,450.000000,4.000000,,,,0.000000,4.000000,4.000000,4.000000,4.000000,4.000000,60.000000,0.000000,0.294227,0.096680,0.881592,0.356201,0.525399,-0.601083,0.598154,12.488271,-47.585617,58.432346,,,,,,,,,,,,,,,,,,,,,,,,,
1577742303.139315,121.000000,0.000000,4238.461426,4337.436035,4116.922852,4158.974121,4216.410156,450.000000,4.000000,,,,0.000000,4.000000,4.000000,4.000000,4.000000,4.000000,,,,,,,,,,,,,,,,,,,,,,,,,,,,,,,,,,,,,
1577742303.147111,122.000000,0.000000,4232.307617,4338.461426,4111.794922,4154.358887,4207.692383,450.000000,4.000000,,,,0.000000,4.000000,4.000000,4.000000,4.000000,4.000000,61.000000,0.000000,0.294147,0.096924,0.881592,0.356201,0.521492,-0.604501,0.592782,12.196489,-47.552467,58.750095,,,,,,,,,,,,,,,,,,,,,,,,,
1577742303.154808,123.000000,0.000000,4218.461426,4352.820313,4110.769043,4142.563965,4194.358887,16208.000000,4.000000,,,,0.000000,4.000000,4.000000,4.000000,4.000000,4.000000,,,,,,,,,,,,,7.728712,8.217831,12.166188,8.175221,7.355569,2.164496,0.519852,2.604060,2.695129,4.511580,11.325681,5.001024,6.627676,4.984616,5.341396,8.094013,10.219364,11.126450,7.785541,8.117333,5.760031,9.967673,11.843845,8.628885,7.487948
1577742303.162605,124.000000,0.000000,4242.051270,4371.794922,4136.410156,4170.256348,4227.692383,450.000000,4.000000,,,,0.000000,4.000000,4.000000,4.000000,4.000000,4.000000,62.000000,0.000000,0.294147,0.096924,0.881592,0.356201,0.524910,-0.595224,0.601572,11.754440,-47.522636,59.095882,,,,,,,,,,,,,,,,,,,,,,,,,
1577742303.170301,125.000000,0.000000,4241.538574,4350.769043,4125.641113,4168.205078,4230.769043,450.000000,4.000000,,,,0.000000,4.000000,4.000000,4.000000,4.000000,4.000000,,,,,,,,,,,,,,,,,,,,,,,,,,,,,,,,,,,,,
1577742303.178198,126.000000,0.000000,4218.461426,4336.410156,4105.641113,4144.102539,4204.102539,450.000000,4.000000,,,,0.000000,4.000000,4.000000,4.000000,4.000000,4.000000,63.000000,0.000000,0.294582,0.096924,0.881348,0.356445,0.518563,-0.590341,0.594736,11.416411,-47.376156,59.407093,,,,,,,,,,,,,,,,,,,,,,,,,
1577742303.185995,127.000000,0.000000,4238.461426,4371.282227,4132.307617,4167.692383,4223.589844,236.000000,4.000000,,,,0.000000,4.000000,4.000000,4.000000,4.000000,4.000000,,,,,,,,,,,,,,,,,,,,,,,,,,,,,,,,,,,,,
1577742303.193891,0.000000,0.000000,4259.487305,4382.563965,4138.974121,4184.102539,4241.025879,450.000000,4.000000,,,,0.000000,4.000000,4.000000,4.000000,4.000000,4.000000,0.000000,0.000000,0.294502,0.097168,0.881348,0.356445,0.516121,-0.604013,0.595224,13.145908,-47.244324,57.713276,,,,,,,,,,,,,,,,,,,,,,,,,
1577742303.201688,1.000000,0.000000,4257.948730,4363.589844,4126.153809,4170.769043,4232.307617,450.000000,4.000000,,,,0.000000,4.000000,4.000000,4.000000,4.000000,4.000000,,,,,,,,,,,,,,,,,,,,,,,,,,,,,,,,,,,,,
1577742303.209585,2.000000,0.000000,4267.692383,4362.051270,4144.615234,4178.461426,4242.051270,16209.000000,4.000000,,,,0.000000,4.000000,4.000000,4.000000,4.000000,4.000000,1.000000,0.000000,0.294206,0.097168,0.881348,0.356689,0.522957,-0.598642,0.601572,12.668733,-47.305119,58.043114,,,,,,,,,,,,,,,,,,,,,,,,,
1577742303.217382,3.000000,0.000000,4272.307617,4344.615234,4150.256348,4183.077148,4251.794922,450.000000,4.000000,,,,0.000000,4.000000,4.000000,4.000000,4.000000,4.000000,,,,,,,,,,,,,,,,,,,,,,,,,,,,,,,,,,,,,
1577742303.225278,4.000000,0.000000,4275.897461,4335.384766,4141.025879,4185.128418,4255.897461,16242.000000,4.000000,,,,0.000000,4.000000,4.000000,4.000000,4.000000,4.000000,2.000000,0.000000,0.294206,0.097168,0.881348,0.356689,0.521981,-0.602548,0.593759,15.110412,-47.240208,58.459602,,,,,,,,,,,,,,,,,,,,,,,,,
1577742303.233074,5.000000,0.000000,4288.717773,4358.974121,4148.205078,4196.922852,4267.692383,450.000000,4.000000,,,,0.000000,4.000000,4.000000,4.000000,4.000000,4.000000,,,,,,,,,,,,,,,,,,,,,,,,,,,,,,,,,,,,,
1577742303.240971,6.000000,0.000000,4273.846191,4349.230957,4134.358887,4182.051270,4251.282227,16147.000000,4.000000,,,,0.000000,4.000000,4.000000,4.000000,4.000000,4.000000,3.000000,0.000000,0.293910,0.097168,0.881348,0.356934,0.523445,-0.600595,0.604501,10.668418,-47.241600,56.980164,,,,,,,,,,,,,,,,,,,,,,,,,
1577742303.248767,7.000000,0.000000,4249.230957,4329.230957,4109.743652,4155.897461,4226.153809,450.000000,4.000000,,,,0.000000,4.000000,4.000000,4.000000,4.000000,4.000000,,,,,,,,,,,,,,,,,,,,,,,,,,,,,,,,,,,,,
1577742303.256564,8.000000,0.000000,4253.846191,4355.384766,4111.794922,4147.179688,4226.666504,450.000000,4.000000,,,,0.000000,4.000000,4.000000,4.000000,4.000000,4.000000,4.000000,0.000000,0.294345,0.097168,0.881104,0.357178,0.521981,-0.595224,0.599619,6.670623,-47.242855,57.383312,,,,,,,,,,,,,,,,,,,,,,,,,
1577742303.264261,9.000000,0.000000,4267.179688,4368.717773,4124.615234,4148.205078,4232.820313,16194.000000,4.000000,,,,0.000000,4.000000,4.000000,4.000000,4.000000,4.000000,,,,,,,,,,,,,,,,,,,,,,,,,,,,,,,,,,,,,
1577742303.272057,10.000000,0.000000,4262.563965,4344.102539,4122.563965,4151.282227,4227.179688,450.000000,4.000000,,,,0.000000,4.000000,4.000000,4.000000,4.000000,4.000000,5.000000,0.000000,0.294345,0.097168,0.881104,0.357178,0.511727,-0.615244,0.599619,3.132423,-47.243980,55.832058,,,,,,,,,,,,,,,,,,,,,,,,,
1577742303.279754,11.000000,0.000000,4228.717773,4327.179688,4096.410156,4132.307617,4198.461426,16208.000000,4.000000,,,,0.000000,4.000000,4.000000,4.000000,4.000000,4.000000,,,,,,,,,,,,,7.546309,7.272149,10.009003,7.776468,7.452690,2.497139,0.544200,2.356191,2.708227,4.660033,13.077838,5.134309,5.591137,4.929559,5.545623,8.450233,9.563246,9.337306,7.734474,8.667821,5.480486,8.672431,10.006463,8.363535,7.813978
1577742303.287450,12.000000,0.000000,4204.615234,4342.563965,4082.564209,4108.717773,4175.384766,450.000000,4.000000,,,,0.000000,4.000000,4.000000,4.000000,4.000000,4.000000,6.000000,0.000000,0.294345,0.097168,0.881104,0.357178,0.513680,-0.603525,0.595712,0.007859,-47.244999,54.435928,,,,,,,,,,,,,,,,,,,,,,,,,
1577742303.295347,13.000000,0.000000,4256.922852,4370.256348,4127.692383,4150.769043,4218.974121,450.000000,4.000000,,,,0.000000,4.000000,4.000000,4.000000,4.000000,4.000000,,,,,,,,,,,,,,,,,,,,,,,,,,,,,,,,,,,,,
1577742303.303144,14.000000,0.000000,4325.641113,4385.641113,4173.333496,4217.948730,4286.153809,450.000000,4.000000,,,,0.000000,4.000000,4.000000,4.000000,4.000000,4.000000,7.000000,0.000000,0.294345,0.097168,0.881104,0.357178,0.516121,-0.622080,0.586923,0.904303,-47.186096,55.093502,,,,,,,,,,,,,,,,,,,,,,,,,
1577742303.311040,15.000000,0.000000,4297.948730,4370.256348,4136.922852,4192.307617,4265.641113,16208.000000,4.000000,,,,0.000000,4.000000,4.000000,4.000000,4.000000,4.000000,,,,,,,,,,,,,,,,,,,,,,,,,,,,,,,,,,,,,
1577742303.318837,16.000000,0.000000,4230.256348,4340.000000,4079.487061,4121.025879,4197.948730,0.000000,4.000000,,,,0.000000,4.000000,4.000000,4.000000,4.000000,4.000000,8.000000,0.000000,0.294345,0.097168,0.881104,0.357178,0.521492,-0.611826,0.596689,4.522426,-47.192902,55.685318,,,,,,,,,,,,,,,,,,,,,,,,,
1577742303.326734,17.000000,0.000000,4233.333496,4331.794922,4083.076904,4123.589844,4193.846191,0.000000,4.000000,,,,0.000000,4.000000,4.000000,4.000000,4.000000,4.000000,,,,,,,,,,,,,,,,,,,,,,,,,,,,,,,,,,,,,
1577742303.334531,18.000000,0.000000,4262.051270,4356.410156,4109.230957,4165.128418,4222.563965,0.000000,4.000000,,,,0.000000,4.000000,4.000000,4.000000,4.000000,4.000000,9.000000,0.000000,0.294345,0.097168,0.881104,0.357178,0.502937,-0.614755,0.604501,5.146860,-47.258839,56.517033,,,,,,,,,,,,,,,,,,,,,,,,,
1577742303.342427,19.000000,0.000000,4264.615234,4379.487305,4117.948730,4175.897461,4229.743652,0.000000,4.000000,,,,0.000000,4.000000,4.000000,4.000000,4.000000,4.000000,,,,,,,,,,,,,,,,,,,,,,,,,,,,,,,,,,,,,
1577742303.350224,20.000000,0.000000,4280.512695,4377.436035,4133.333496,4183.077148,4248.717773,0.000000,4.000000,,,,0.000000,4.000000,4.000000,4.000000,4.000000,4.000000,10.000000,0.000000,0.294264,0.097412,0.881104,0.357178,0.521492,-0.621103,0.596689,4.392912,-47.318184,56.966496,,,,,,,,,,,,,,,,,,,,,,,,,
1577742303.358121,21.000000,0.000000,4295.384766,4362.563965,4141.538574,4189.230957,4266.153809,0.000000,4.000000,,,,0.000000,4.000000,4.000000,4.000000,4.000000,4.000000,,,,,,,,,,,,,,,,,,,,,,,,,,,,,,,,,,,,,
1577742303.365917,22.000000,0.000000,4281.538574,4355.897461,4128.717773,4174.871582,4247.692383,0.000000,4.000000,,,,0.000000,4.000000,4.000000,4.000000,4.000000,4.000000,11.000000,0.000000,0.294264,0.097412,0.881104,0.357178,0.501961,-0.611337,0.609873,3.893806,-47.251965,57.430828,,,,,,,,,,,,,,,,,,,,,,,,,
1577742303.373714,23.000000,0.000000,4290.769043,4367.179688,4136.410156,4179.487305,4248.717773,0.000000,4.000000,,,,0.000000,4.000000,4.000000,4.000000,4.000000,4.000000,,,,,,,,,,,,,,,,,,,,,,,,,,,,,,,,,,,,,
1577742303.381411,24.000000,0.000000,4310.769043,4370.769043,4141.538574,4192.820313,4269.743652,0.000000,4.000000,,,,0.000000,4.000000,4.000000,4.000000,4.000000,4.000000,12.000000,0.000000,0.294264,0.097412,0.881104,0.357178,0.519539,-0.613779,0.610361,4.282025,-47.252182,57.788914,,,,,,,,,,,,,,,,,,,,,,,,,
1577742303.389207,25.000000,0.000000,4295.897461,4349.230957,4121.538574,4176.410156,4258.974121,0.000000,4.000000,,,,0.000000,4.000000,4.000000,4.000000,4.000000,4.000000,,,,,,,,,,,,,,,,,,,,,,,,,,,,,,,,,,,,,
1577742303.396904,26.000000,0.000000,4294.358887,4350.256348,4120.512695,4168.717773,4256.922852,0.000000,4.000000,,,,0.000000,4.000000,4.000000,4.000000,4.000000,4.000000,13.000000,0.000000,0.294264,0.097412,0.881104,0.357178,0.521492,-0.621103,0.596689,1.042500,-47.252377,58.171005,,,,,,,,,,,,,,,,,,,,,,,,,
1577742303.404800,27.000000,0.000000,4299.487305,4370.769043,4116.922852,4164.615234,4256.922852,0.000000,4.000000,,,,0.000000,4.000000,4.000000,4.000000,4.000000,4.000000,,,,,,,,,,,,,6.853204,6.315531,7.843452,7.136878,7.600998,2.583004,0.568409,2.123394,2.709407,4.815993,13.345558,4.992625,4.300871,4.632633,5.780840,8.064538,8.203937,7.251177,7.370529,9.311263,5.000047,6.954501,7.858593,7.713127,8.222176
1577742303.412597,28.000000,0.000000,4274.871582,4357.948730,4094.358887,4146.666504,4229.230957,0.000000,4.000000,,,,0.000000,4.000000,4.000000,4.000000,4.000000,4.000000,14.000000,0.000000,0.294264,0.097412,0.881104,0.357178,0.519539,-0.613779,0.610361,1.715850,-47.252556,58.455070,,,,,,,,,,,,,,,,,,,,,,,,,
1577742303.420394,29.000000,0.000000,4257.436035,4330.256348,4093.846191,4141.025879,4211.282227,0.000000,4.000000,,,,0.000000,4.000000,4.000000,4.000000,4.000000,4.000000,,,,,,,,,,,,,,,,,,,,,,,,,,,,,,,,,,,,,
1577742303.428090,30.000000,0.000000,4268.205078,4345.128418,4114.358887,4149.230957,4221.025879,0.000000,4.000000,,,,0.000000,4.000000,4.000000,4.000000,4.000000,4.000000,15.000000,0.000000,0.294264,0.097412,0.881104,0.357178,0.513191,-0.604990,0.601572,5.312633,-47.372345,58.830360,,,,,,,,,,,,,,,,,,,,,,,,,
1577742303.435887,31.000000,0.000000,4295.384766,4371.794922,4138.461426,4177.436035,4246.666504,0.000000,4.000000,,,,0.000000,4.000000,4.000000,4.000000,4.000000,4.000000,,,,,,,,,,,,,,,,,,,,,,,,,,,,,,,,,,,,,
1577742303.443583,32.000000,0.000000,4308.205078,4358.974121,4156.410156,4198.461426,4257.436035,0.000000,4.000000,,,,0.000000,4.000000,4.000000,4.000000,4.000000,4.000000,16.000000,0.000000,0.294560,0.097412,0.881104,0.356934,0.521981,-0.609384,0.600107,5.678600,-47.480152,59.108307,,,,,,,,,,,,,,,,,,,,,,,,,
1577742303.451280,33.000000,0.000000,4291.282227,4346.153809,4144.615234,4178.974121,4236.922852,0.000000,4.000000,,,,0.000000,4.000000,4.000000,4.000000,4.000000,4.000000,,,,,,,,,,,,,,,,,,,,,,,,,,,,,,,,,,,,,
1577742303.459076,34.000000,0.000000,4271.794922,4360.000000,4127.179688,4158.974121,4217.436035,0.000000,4.000000,,,,0.000000,4.000000,4.000000,4.000000,4.000000,4.000000,17.000000,0.000000,0.293829,0.097412,0.881348,0.356934,0.516121,-0.607919,0.591318,5.888340,-47.457554,59.298645,,,,,,,,,,,,,,,,,,,,,,,,,
1577742303.466773,35.000000,0.000000,4272.307617,4363.589844,4134.358887,4166.666504,4224.615234,0.000000,4.000000,,,,0.000000,4.000000,4.000000,4.000000,4.000000,4.000000,,,,,,,,,,,,,,,,,,,,,,,,,,,,,,,,,,,,,
1577742303.474570,36.000000,0.000000,4285.641113,4352.307617,4141.025879,4173.333496,4236.410156,0.000000,4.000000,,,,0.000000,4.000000,4.000000,4.000000,4.000000,4.000000,18.000000,0.000000,0.293829,0.097412,0.881348,0.356934,0.526864,-0.612314,0.598154,6.136921,-47.497025,59.709209,,,,,,,,,,,,,,,,,,,,,,,,,
1577742303.482266,37.000000,0.000000,4284.102539,4356.410156,4127.179688,4163.077148,4227.179688,0.000000,4.000000,,,,0.000000,4.000000,4.000000,4.000000,4.000000,4.000000,,,,,,,,,,,,,,,,,,,,,,,,,,,,,,,,,,,,,
1577742303.490063,38.000000,0.000000,4250.256348,4350.769043,4096.922852,4133.333496,4192.307617,0.000000,4.000000,,,,0.000000,4.000000,4.000000,4.000000,4.000000,4.000000,19.000000,0.000000,0.294126,0.097412,0.881348,0.356689,0.523445,-0.615244,0.592782,6.420459,-47.472736,59.839455,,,,,,,,,,,,,,,,,,,,,,,,,
1577742303.497759,39.000000,0.000000,4239.487305,4352.307617,4091.794922,4117.948730,4178.974121,0.000000,4.000000,,,,0.000000,4.000000,4.000000,4.000000,4.000000,4.000000,,,,,,,,,,,,,,,,,,,,,,,,,,,,,,,,,,,,,
1577742303.505556,40.000000,0.000000,4300.000000,4389.230957,4141.025879,4161.538574,4235.897461,0.000000,4.000000,,,,0.000000,4.000000,4.000000,4.000000,4.000000,4.000000,20.000000,0.000000,0.293689,0.097412,0.881592,0.356445,0.520027,-0.608896,0.604013,6.675644,-47.450878,58.102402,,,,,,,,,,,,,,,,,,,,,,,,,
1577742303.513253,41.000000,0.000000,4331.794922,4388.205078,4166.153809,4191.282227,4273.333496,0.000000,4.000000,,,,0.000000,4.000000,4.000000,4.000000,4.000000,4.000000,,,,,,,,,,,,,,,,,,,,,,,,,,,,,,,,,,,,,
1577742303.521049,42.000000,0.000000,4297.436035,4348.717773,4137.436035,4166.153809,4241.025879,0.000000,4.000000,,,,0.000000,4.000000,4.000000,4.000000,4.000000,4.000000,21.000000,0.000000,0.293986,0.097412,0.881592,0.356201,0.525399,-0.604013,0.600595,5.948264,-47.251759,58.393330,,,,,,,,,,,,,,,,,,,,,,,,,
1577742303.528746,43.000000,0.000000,4286.153809,4343.589844,4127.692383,4157.948730,4224.102539,0.000000,4.000000,,,,0.000000,4.000000,4.000000,4.000000,4.000000,4.000000,,,,,,,,,,,,,5.688750,5.451636,6.051532,6.286110,7.707591,2.429924,0.560307,1.978763,2.666555,4.900987,12.057030,4.572196,3.055513,4.128675,5.919951,7.205780,6.502319,5.359632,6.699302,9.817542,4.413428,5.236736,5.970529,6.775527,8.545791
1577742303.536542,44.000000,0.000000,4298.461426,4367.179688,4141.025879,4170.256348,4241.025879,0.000000,4.000000,,,,0.000000,4.000000,4.000000,4.000000,4.000000,4.000000,22.000000,0.000000,0.293986,0.097412,0.881592,0.356201,0.521981,-0.590341,0.601572,9.061991,-47.371628,56.741070,,,,,,,,,,,,,,,,,,,,,,,,,
1577742303.544239,45.000000,0.000000,4309.230957,4368.717773,4152.307617,4176.410156,4249.743652,0.000000,4.000000,,,,0.000000,4.000000,4.000000,4.000000,4.000000,4.000000,,,,,,,,,,,,,,,,,,,,,,,,,,,,,,,,,,,,,
1577742303.552035,46.000000,0.000000,4326.666504,4353.333496,4160.000000,4184.615234,4253.333496,0.000000,4.000000,,,,0.000000,4.000000,4.000000,4.000000,4.000000,4.000000,23.000000,0.000000,0.293986,0.097412,0.881592,0.356201,0.522469,-0.602060,0.606455,9.112837,-47.419693,57.347576,,,,,,,,,,,,,,,,,,,,,,,,,
1577742303.559732,47.000000,0.000000,4325.128418,4348.717773,4147.179688,4178.461426,4253.333496,0.000000,4.000000,,,,0.000000,4.000000,4.000000,4.000000,4.000000,4.000000,,,,,,,,,,,,,,,,,,,,,,,,,,,,,,,,,,,,,
1577742303.567629,48.000000,0.000000,4282.051270,4354.358887,4115.384766,4138.974121,4220.000000,0.000000,4.000000,,,,0.000000,4.000000,4.000000,4.000000,4.000000,4.000000,24.000000,0.000000,0.293986,0.097412,0.881592,0.356201,0.527352,-0.616220,0.605966,5.330416,-47.522770,57.713985,,,,,,,,,,,,,,,,,,,,,,,,,
1577742303.575425,49.000000,0.000000,4263.589844,4357.948730,4115.384766,4122.563965,4201.538574,0.000000,4.000000,,,,0.000000,4.000000,4.000000,4.000000,4.000000,4.000000,,,,,,,,,,,,,,,,,,,,,,,,,,,,,,,,,,,,,
1577742303.583322,50.000000,0.000000,4289.743652,4350.769043,4133.333496,4151.794922,4227.179688,0.000000,4.000000,,,,0.000000,4.000000,4.000000,4.000000,4.000000,4.000000,25.000000,0.000000,0.294281,0.097412,0.881592,0.355957,0.504402,-0.602548,0.592294,1.806606,-47.495907,58.283016,,,,,,,,,,,,,,,,,,,,,,,,,
1577742303.591119,51.000000,0.000000,4287.692383,4356.410156,4119.487305,4148.717773,4221.538574,0.000000,4.000000,,,,0.000000,4.000000,4.000000,4.000000,4.000000,4.000000,,,,,,,,,,,,,,,,,,,,,,,,,,,,,,,,,,,,,
1577742303.599015,52.000000,0.000000,4280.512695,4368.205078,4124.615234,4136.922852,4209.743652,0.000000,4.000000,,,,0.000000,4.000000,4.000000,4.000000,4.000000,4.000000,26.000000,0.000000,0.293468,0.097656,0.881836,0.355957,0.506844,-0.597177,0.610361,5.274683,-47.651176,58.555882,,,,,,,,,,,,,,,,,,,,,,,,,
1577742303.606812,53.000000,0.000000,4312.307617,4350.769043,4162.051270,4173.846191,4247.179688,0.000000,4.000000,,,,0.000000,4.000000,4.000000,4.000000,4.000000,4.000000,,,,,,,,,,,,,,,,,,,,,,,,,,,,,,,,,,,,,
1577742303.614708,54.000000,0.000000,4314.358887,4341.538574,4150.256348,4180.000000,4256.410156,0.000000,4.000000,,,,0.000000,4.000000,4.000000,4.000000,4.000000,4.000000,27.000000,0.000000,0.293468,0.097656,0.881836,0.355957,0.525887,-0.611337,0.599130,5.405183,-47.671288,58.801460,,,,,,,,,,,,,,,,,,,,,,,,,
1577742303.622505,55.000000,0.000000,4277.436035,4352.307617,4106.153809,4130.256348,4213.846191,0.000000,4.000000,,,,0.000000,4.000000,4.000000,4.000000,4.000000,4.000000,,,,,,,,,,,,,,,,,,,,,,,,,,,,,,,,,,,,,
1577742303.630401,56.000000,0.000000,4284.102539,4353.846191,4117.436035,4129.230957,4213.846191,0.000000,4.000000,,,,0.000000,4.000000,4.000000,4.000000,4.000000,4.000000,28.000000,0.000000,0.293468,0.097656,0.881836,0.355957,0.521492,-0.607431,0.597177,5.702080,-47.689388,59.022484,,,,,,,,,,,,,,,,,,,,,,,,,
1577742303.638198,57.000000,0.000000,4308.717773,4358.974121,4144.615234,4159.487305,4242.563965,0.000000,4.000000,,,,0.000000,4.000000,4.000000,4.000000,4.000000,4.000000,,,,,,,,,,,,,,,,,,,,,,,,,,,,,,,,,,,,,
1577742303.645994,58.000000,0.000000,4306.153809,4376.410156,4143.589844,4159.487305,4241.538574,0.000000,4.000000,,,,0.000000,4.000000,4.000000,4.000000,4.000000,4.000000,29.000000,0.000000,0.293468,0.097656,0.881836,0.355957,0.515633,-0.610849,0.595712,8.720795,-47.705677,59.341034,,,,,,,,,,,,,,,,,,,,,,,,,
1577742303.653791,59.000000,0.000000,4319.487305,4364.102539,4153.846191,4171.282227,4248.205078,0.000000,4.000000,,,,0.000000,4.000000,4.000000,4.000000,4.000000,4.000000,,,,,,,,,,,,,4.388400,4.784463,4.954285,5.413234,7.654492,2.125772,0.520989,1.959727,2.576016,4.841113,9.671996,3.990553,2.173636,3.566363,5.859377,6.182353,4.887561,4.103310,5.908220,9.954886,3.871452,3.886829,4.827732,5.818509,8.609393
1577742303.661487,60.000000,0.000000,4335.897461,4342.051270,4166.666504,4192.820313,4264.102539,0.000000,4.000000,,,,0.000000,4.000000,4.000000,4.000000,4.000000,4.000000,30.000000,0.000000,0.293468,0.097656,0.881836,0.355957,0.512703,-0.589853,0.603525,8.626314,-47.600708,59.448280,,,,,,,,,,,,,,,,,,,,,,,,,
1577742303.669284,61.000000,0.000000,4330.769043,4364.102539,4167.179688,4191.282227,4266.153809,0.000000,4.000000,,,,0.000000,4.000000,4.000000,4.000000,4.000000,4.000000,,,,,,,,,,,,,,,,,,,,,,,,,,,,,,,,,,,,,
1577742303.676981,62.000000,0.000000,4331.794922,4381.025879,4170.769043,4187.692383,4266.153809,0.000000,4.000000,,,,0.000000,4.000000,4.000000,4.000000,4.000000,4.000000,31.000000,0.000000,0.293468,0.097656,0.881836,0.355957,0.526864,-0.601083,0.602548,4.892546,-47.745499,59.724251,,,,,,,,,,,,,,,,,,,,,,,,,
1577742303.684777,63.000000,0.000000,4320.000000,4356.410156,4157.948730,4165.641113,4244.102539,0.000000,4.000000,,,,0.000000,4.000000,4.000000,4.000000,4.000000,4.000000,,,,,,,,,,,,,,,,,,,,,,,,,,,,,,,,,,,,,
1577742303.692474,64.000000,0.000000,4306.666504,4354.871582,4148.717773,4145.128418,4226.153809,450.000000,4.000000,,,,0.000000,4.000000,4.000000,4.000000,4.000000,4.000000,32.000000,0.000000,0.293468,0.097656,0.881836,0.355957,0.529793,-0.598154,0.602548,7.992213,-47.756176,59.972626,,,,,,,,,,,,,,,,,,,,,,,,,
1577742303.700270,65.000000,0.000000,4329.230957,4369.230957,4166.153809,4168.205078,4251.282227,450.000000,4.000000,,,,0.000000,4.000000,4.000000,4.000000,4.000000,4.000000,,,,,,,,,,,,,,,,,,,,,,,,,,,,,,,,,,,,,
1577742303.707967,66.000000,0.000000,4303.077148,4337.436035,4131.282227,4146.666504,4227.692383,16208.000000,4.000000,,,,0.000000,4.000000,4.000000,4.000000,4.000000,4.000000,33.000000,0.000000,0.293252,0.097412,0.881836,0.356201,0.531258,-0.613291,0.600595,8.209853,-47.705975,60.255974,,,,,,,,,,,,,,,,,,,,,,,,,
1577742303.715763,67.000000,0.000000,4233.846191,4315.897461,4080.512939,4086.666748,4161.025879,450.000000,4.000000,,,,0.000000,4.000000,4.000000,4.000000,4.000000,4.000000,,,,,,,,,,,,,,,,,,,,,,,,,,,,,,,,,,,,,
1577742303.723460,68.000000,0.000000,4273.846191,4364.615234,4136.410156,4130.769043,4203.077148,16242.000000,4.000000,,,,0.000000,4.000000,4.000000,4.000000,4.000000,4.000000,34.000000,0.000000,0.293252,0.097412,0.881836,0.356201,0.515145,-0.612314,0.601572,7.329052,-47.720604,60.451176,,,,,,,,,,,,,,,,,,,,,,,,,
1577742303.731257,69.000000,0.000000,4362.051270,4387.179688,4199.487305,4202.563965,4287.179688,450.000000,4.000000,,,,0.000000,4.000000,4.000000,4.000000,4.000000,4.000000,,,,,,,,,,,,,,,,,,,,,,,,,,,,,,,,,,,,,
1577742303.738953,70.000000,0.000000,4335.897461,4346.666504,4148.205078,4149.230957,4253.333496,16145.000000,4.000000,,,,0.000000,4.000000,4.000000,4.000000,4.000000,4.000000,35.000000,0.000000,0.293333,0.097168,0.881836,0.356201,0.523445,-0.604013,0.604990,3.545563,-47.793591,60.567039,,,,,,,,,,,,,,,,,,,,,,,,,
1577742303.746850,71.000000,0.000000,4292.820313,4338.461426,4100.512695,4086.666748,4199.487305,450.000000,4.000000,,,,0.000000,4.000000,4.000000,4.000000,4.000000,4.000000,,,,,,,,,,,,,,,,,,,,,,,,,,,,,,,,,,,,,
1577742303.754647,72.000000,0.000000,4358.974121,4374.871582,4144.615234,4135.384766,4257.948730,450.000000,4.000000,,,,0.000000,4.000000,4.000000,4.000000,4.000000,4.000000,36.000000,0.000000,0.293333,0.097168,0.881836,0.356201,0.506844,-0.612802,0.606943,4.088237,-47.919090,58.757229,,,,,,,,,,,,,,,,,,,,,,,,,
1577742303.762543,73.000000,0.000000,4436.922852,4374.871582,4177.948730,4182.563965,4326.153809,16195.000000,4.000000,,,,0.000000,4.000000,4.000000,4.000000,4.000000,4.000000,,,,,,,,,,,,,,,,,,,,,,,,,,,,,,,,,,,,,
1577742303.770340,74.000000,0.000000,4464.102539,4349.743652,4162.563965,4163.589844,4330.769043,450.000000,4.000000,,,,0.000000,4.000000,4.000000,4.000000,4.000000,4.000000,37.000000,0.000000,0.293710,0.096924,0.881836,0.355957,0.509773,-0.605478,0.597177,6.550551,-47.912411,58.982674,,,,,,,,,,,,,,,,,,,,,,,,,
1577742303.778237,75.000000,0.000000,4508.205078,4356.410156,4160.000000,4157.436035,4349.230957,16208.000000,4.000000,,,,0.000000,4.000000,4.000000,4.000000,4.000000,4.000000,,,,,,,,,,,,,3.404309,4.360979,4.731718,4.719425,7.346312,1.801508,0.470602,2.036027,2.439559,4.595789,6.989995,3.448456,1.919344,3.100017,5.554703,5.343338,3.729774,3.722820,5.184951,9.569097,3.663993,3.089172,4.651664,5.080398,8.290340
1577742303.786033,76.000000,0.000000,4572.820313,4357.436035,4171.794922,4180.000000,4392.307617,450.000000,4.000000,,,,0.000000,4.000000,4.000000,4.000000,4.000000,4.000000,38.000000,0.000000,0.293710,0.096924,0.881836,0.355957,0.501961,-0.598642,0.602548,9.604049,-47.966213,59.305202,,,,,,,,,,,,,,,,,,,,,,,,,
1577742303.793930,77.000000,0.000000,4614.871582,4344.615234,4183.077148,4193.333496,4421.025879,450.000000,4.000000,,,,0.000000,4.000000,4.000000,4.000000,4.000000,4.000000,,,,,,,,,,,,,,,,,,,,,,,,,,,,,,,,,,,,,
1577742303.801726,78.000000,0.000000,4627.692383,4362.563965,4197.948730,4196.410156,4432.307617,450.000000,4.000000,,,,0.000000,4.000000,4.000000,4.000000,4.000000,4.000000,39.000000,0.000000,0.293273,0.096924,0.882080,0.355713,0.502449,-0.585946,0.606455,9.540874,-47.895008,57.681389,,,,,,,,,,,,,,,,,,,,,,,,,
1577742303.809623,79.000000,0.000000,4616.922852,4379.487305,4200.512695,4186.666504,4422.051270,16208.000000,4.000000,,,,0.000000,4.000000,4.000000,4.000000,4.000000,4.000000,,,,,,,,,,,,,,,,,,,,,,,,,,,,,,,,,,,,,
1577742303.817419,80.000000,0.000000,4580.000000,4355.897461,4171.282227,4154.871582,4381.025879,450.000000,4.000000,,,,0.000000,4.000000,4.000000,4.000000,4.000000,4.000000,40.000000,0.000000,0.293273,0.096924,0.882080,0.355713,0.520027,-0.595224,0.599130,12.235524,-47.830921,58.074234,,,,,,,,,,,,,,,,,,,,,,,,,
1577742303.825316,81.000000,0.000000,4543.589844,4338.461426,4142.051270,4128.717773,4347.179688,450.000000,4.000000,,,,0.000000,4.000000,4.000000,4.000000,4.000000,4.000000,,,,,,,,,,,,,,,,,,,,,,,,,,,,,,,,,,,,,
1577742303.833112,82.000000,0.000000,4537.948730,4349.743652,4147.692383,4137.948730,4352.307617,450.000000,4.000000,,,,0.000000,4.000000,4.000000,4.000000,4.000000,4.000000,41.000000,0.000000,0.293710,0.096924,0.881836,0.355957,0.501961,-0.598642,0.602548,13.942924,-47.773243,58.487606,,,,,,,,,,,,,,,,,,,,,,,,,
1577742303.841009,83.000000,0.000000,4536.410156,4357.436035,4159.487305,4153.846191,4353.846191,16208.000000,4.000000,,,,0.000000,4.000000,4.000000,4.000000,4.000000,4.000000,,,,,,,,,,,,,,,,,,,,,,,,,,,,,,,,,,,,,
1577742303.848805,84.000000,0.000000,4486.666504,4333.846191,4133.846191,4121.538574,4304.102539,450.000000,4.000000,,,,0.000000,4.000000,4.000000,4.000000,4.000000,4.000000,42.000000,0.000000,0.293273,0.096924,0.882080,0.355713,0.520027,-0.595224,0.599130,16.197371,-47.721333,58.799831,,,,,,,,,,,,,,,,,,,,,,,,,
1577742303.856602,85.000000,0.000000,4422.563965,4308.205078,4104.102539,4076.410156,4247.179688,450.000000,4.000000,,,,0.000000,4.000000,4.000000,4.000000,4.000000,4.000000,,,,,,,,,,,,,,,,,,,,,,,,,,,,,,,,,,,,,
1577742303.864298,86.000000,0.000000,4420.000000,4343.589844,4126.666504,4100.000000,4254.358887,450.000000,4.000000,,,,0.000000,4.000000,4.000000,4.000000,4.000000,4.000000,43.000000,0.000000,0.293273,0.096924,0.882080,0.355713,0.522957,-0.603037,0.601572,15.474863,-47.614796,59.021015,,,,,,,,,,,,,,,,,,,,,,,,,
1577742303.871995,87.000000,0.000000,4434.871582,4373.333496,4151.794922,4140.000000,4272.820313,16208.000000,4.000000,,,,0.000000,4.000000,4.000000,4.000000,4.000000,4.000000,,,,,,,,,,,,,,,,,,,,,,,,,,,,,,,,,,,,,
1577742303.879792,88.000000,0.000000,4407.179688,4348.717773,4136.922852,4123.589844,4245.128418,450.000000,4.000000,,,,0.000000,4.000000,4.000000,4.000000,4.000000,4.000000,44.000000,0.000000,0.293353,0.096680,0.882080,0.355713,0.510750,-0.593271,0.590829,14.884422,-47.638546,59.279896,,,,,,,,,,,,,,,,,,,,,,,,,
1577742303.887488,89.000000,0.000000,4405.641113,4354.358887,4150.256348,4134.871582,4250.769043,450.000000,4.000000,,,,0.000000,4.000000,4.000000,4.000000,4.000000,4.000000,,,,,,,,,,,,,,,,,,,,,,,,,,,,,,,,,,,,,
1577742303.895385,90.000000,0.000000,4423.589844,4378.974121,4169.743652,4171.282227,4283.589844,450.000000,4.000000,,,,0.000000,4.000000,4.000000,4.000000,4.000000,4.000000,45.000000,0.000000,0.293057,0.096680,0.882080,0.355957,0.528817,-0.603037,0.604501,10.405212,-47.540291,59.572704,,,,,,,,,,,,,,,,,,,,,,,,,
1577742303.903182,91.000000,0.000000,4403.589844,4362.563965,4153.333496,4162.563965,4275.897461,16208.000000,4.000000,,,,0.000000,4.000000,4.000000,4.000000,4.000000,4.000000,,,,,,,,,,,,,3.194244,4.101349,5.208581,4.306674,6.777255,1.561647,0.430737,2.116522,2.275531,4.185267,4.644001,3.107974,2.354264,2.824338,5.047863,4.813103,3.146506,4.127202,4.637390,8.666863,3.954088,2.757288,5.261528,4.668793,7.592384
1577742303.911078,92.000000,0.000000,4361.025879,4341.025879,4131.794922,4128.717773,4237.436035,450.000000,4.000000,,,,0.000000,4.000000,4.000000,4.000000,4.000000,4.000000,46.000000,0.000000,0.293791,0.096680,0.881836,0.355957,0.509773,-0.593759,0.597177,6.493553,-47.571491,59.656784,,,,,,,,,,,,,,,,,,,,,,,,,
1577742303.918875,93.000000,0.000000,4324.615234,4341.025879,4127.179688,4105.641113,4207.179688,450.000000,4.000000,,,,0.000000,4.000000,4.000000,4.000000,4.000000,4.000000,,,,,,,,,,,,,,,,,,,,,,,,,,,,,,,,,,,,,
1577742303.926672,94.000000,0.000000,4341.025879,4347.179688,4163.077148,4136.922852,4234.358887,450.000000,4.000000,,,,0.000000,4.000000,4.000000,4.000000,4.000000,4.000000,47.000000,0.000000,0.293791,0.096680,0.881836,0.355957,0.506844,-0.609873,0.581064,2.793614,-47.539757,59.852089,,,,,,,,,,,,,,,,,,,,,,,,,
1577742303.934368,95.000000,0.000000,4394.358887,4367.179688,4212.820313,4198.974121,4293.333496,16208.000000,4.000000,,,,0.000000,4.000000,4.000000,4.000000,4.000000,4.000000,,,,,,,,,,,,,,,,,,,,,,,,,,,,,,,,,,,,,
1577742303.942165,96.000000,0.000000,4384.102539,4375.897461,4202.563965,4193.846191,4284.615234,450.000000,4.000000,,,,0.000000,4.000000,4.000000,4.000000,4.000000,4.000000,48.000000,0.000000,0.293791,0.096680,0.881836,0.355957,0.512215,-0.603037,0.589853,3.531114,-47.511192,59.968048,,,,,,,,,,,,,,,,,,,,,,,,,
1577742303.949862,97.000000,0.000000,4329.743652,4358.461426,4166.666504,4143.077148,4231.794922,450.000000,4.000000,,,,0.000000,4.000000,4.000000,4.000000,4.000000,4.000000,,,,,,,,,,,,,,,,,,,,,,,,,,,,,,,,,,,,,
1577742303.957758,98.000000,0.000000,4336.922852,4360.512695,4182.563965,4155.384766,4243.589844,450.000000,4.000000,,,,0.000000,4.000000,4.000000,4.000000,4.000000,4.000000,49.000000,0.000000,0.293414,0.096924,0.881836,0.356201,0.515633,-0.601572,0.607431,4.135048,-47.545303,58.158318,,,,,,,,,,,,,,,,,,,,,,,,,
1577742303.965555,99.000000,0.000000,4367.179688,4377.948730,4205.128418,4195.897461,4275.384766,16208.000000,4.000000,,,,0.000000,4.000000,4.000000,4.000000,4.000000,4.000000,,,,,,,,,,,,,,,,,,,,,,,,,,,,,,,,,,,,,
1577742303.973452,100.000000,0.000000,4344.102539,4370.256348,4189.743652,4183.589844,4248.717773,450.000000,4.000000,,,,0.000000,4.000000,4.000000,4.000000,4.000000,4.000000,50.000000,0.000000,0.293414,0.096924,0.881836,0.356201,0.515145,-0.608896,0.596201,4.618774,-47.576004,58.443653,,,,,,,,,,,,,,,,,,,,,,,,,
1577742303.981248,101.000000,0.000000,4322.051270,4347.692383,4182.563965,4166.666504,4226.153809,450.000000,4.000000,,,,0.000000,4.000000,4.000000,4.000000,4.000000,4.000000,,,,,,,,,,,,,,,,,,,,,,,,,,,,,,,,,,,,,
1577742303.989145,102.000000,0.000000,4295.897461,4344.102539,4168.717773,4153.333496,4208.205078,450.000000,4.000000,,,,0.000000,4.000000,4.000000,4.000000,4.000000,4.000000,51.000000,0.000000,0.293118,0.096924,0.881836,0.356445,0.517098,-0.594247,0.599130,5.113943,-47.663448,56.726547,,,,,,,,,,,,,,,,,,,,,,,,,
1577742303.996941,103.000000,0.000000,4258.461426,4362.051270,4141.025879,4128.205078,4174.871582,16208.000000,4.000000,,,,0.000000,4.000000,4.000000,4.000000,4.000000,4.000000,,,,,,,,,,,,,,,,,,,,,,,,,,,,,,,,,,,,,
1577742304.004838,104.000000,0.000000,4267.179688,4361.025879,4146.666504,4130.769043,4174.871582,450.000000,4.000000,,,,0.000000,4.000000,4.000000,4.000000,4.000000,4.000000,52.000000,0.000000,0.293198,0.096680,0.881836,0.356445,0.526864,-0.611826,0.611337,7.473686,-47.682331,57.155060,,,,,,,,,,,,,,,,,,,,,,,,,
1577742304.012634,105.000000,0.000000,4296.410156,4345.128418,4174.358887,4160.000000,4205.641113,450.000000,4.000000,,,,0.000000,4.000000,4.000000,4.000000,4.000000,4.000000,,,,,,,,,,,,,,,,,,,,,,,,,,,,,,,,,,,,,
1577742304.020531,106.000000,0.000000,4313.333496,4358.974121,4191.794922,4183.589844,4231.282227,450.000000,4.000000,,,,0.000000,4.000000,4.000000,4.000000,4.000000,4.000000,53.000000,0.000000,0.293414,0.096924,0.881836,0.356201,0.529305,-0.600107,0.604013,6.666502,-47.519882,57.600536,,,,,,,,,,,,,,,,,,,,,,,,,
1577742304.028427,107.000000,0.000000,4311.794922,4368.205078,4187.179688,4177.948730,4227.692383,16208.000000,4.000000,,,,0.000000,4.000000,4.000000,4.000000,4.000000,4.000000,,,,,,,,,,,,,5.890587,4.293993,5.931419,4.202439,6.059470,1.452275,0.418835,2.104946,2.119393,3.682378,3.079183,3.089166,3.300771,2.773913,4.460008,4.699740,3.127626,4.951672,4.301364,7.443333,5.659238,2.878506,6.152973,4.564759,6.670536
1577742304.036224,108.000000,0.000000,4290.256348,4356.410156,4169.743652,4158.461426,4206.153809,450.000000,4.000000,,,,0.000000,4.000000,4.000000,4.000000,4.000000,4.000000,54.000000,0.000000,0.293414,0.096924,0.881836,0.356201,0.532723,-0.600595,0.607431,6.717636,-47.553123,57.941650,,,,,,,,,,,,,,,,,,,,,,,,,
1577742304.044021,109.000000,0.000000,4284.615234,4365.128418,4176.922852,4165.641113,4208.717773,450.000000,4.000000,,,,0.000000,4.000000,4.000000,4.000000,4.000000,4.000000,,,,,,,,,,,,,,,,,,,,,,,,,,,,,,,,,,,,,
1577742304.051718,110.000000,0.000000,4298.461426,4374.871582,4201.025879,4185.128418,4223.077148,450.000000,4.000000,,,,0.000000,4.000000,4.000000,4.000000,4.000000,4.000000,55.000000,0.000000,0.293333,0.097168,0.881836,0.356201,0.516609,-0.616709,0.605966,5.806611,-47.463409,56.334560,,,,,,,,,,,,,,,,,,,,,,,,,
1577742304.059514,111.000000,0.000000,4289.743652,4358.974121,4200.000000,4174.358887,4209.230957,16208.000000,4.000000,,,,0.000000,4.000000,4.000000,4.000000,4.000000,4.000000,,,,,,,,,,,,,,,,,,,,,,,,,,,,,,,,,,,,,
1577742304.067211,112.000000,0.000000,4275.384766,4359.487305,4188.205078,4161.538574,4198.461426,450.000000,4.000000,,,,0.000000,4.000000,4.000000,4.000000,4.000000,4.000000,56.000000,0.000000,0.293630,0.097168,0.881836,0.355957,0.524910,-0.605478,0.600107,6.063365,-47.382668,54.947998,,,,,,,,,,,,,,,,,,,,,,,,,
1577742304.075007,113.000000,0.000000,4270.256348,4359.487305,4184.102539,4159.487305,4199.487305,450.000000,4.000000,,,,0.000000,4.000000,4.000000,4.000000,4.000000,4.000000,,,,,,,,,,,,,,,,,,,,,,,,,,,,,,,,,,,,,
1577742304.082704,114.000000,0.000000,4239.487305,4343.077148,4166.153809,4134.358887,4172.820313,450.000000,4.000000,,,,0.000000,4.000000,4.000000,4.000000,4.000000,4.000000,57.000000,0.000000,0.293549,0.097412,0.881836,0.355957,0.515145,-0.601572,0.596689,6.354259,-47.429630,55.554363,,,,,,,,,,,,,,,,,,,,,,,,,
1577742304.090500,115.000000,0.000000,4224.102539,4363.589844,4154.358887,4121.538574,4157.436035,16208.000000,4.000000,,,,0.000000,4.000000,4.000000,4.000000,4.000000,4.000000,,,,,,,,,,,,,,,,,,,,,,,,,,,,,,,,,,,,,
1577742304.098197,116.000000,0.000000,4243.077148,4380.512695,4161.538574,4138.461426,4171.794922,450.000000,4.000000,,,,0.000000,4.000000,4.000000,4.000000,4.000000,4.000000,58.000000,0.000000,0.293845,0.097412,0.881836,0.355713,0.526864,-0.608896,0.594247,6.735694,-47.412079,56.100094,,,,,,,,,,,,,,,,,,,,,,,,,
1577742304.105994,117.000000,0.000000,4262.563965,4366.666504,4179.487305,4154.358887,4190.769043,450.000000,4.000000,,,,0.000000,4.000000,4.000000,4.000000,4.000000,4.000000,,,,,,,,,,,,,,,,,,,,,,,,,,,,,,,,,,,,,
1577742304.113690,118.000000,0.000000,4284.102539,4373.333496,4207.179688,4175.384766,4217.436035,450.000000,4.000000,,,,0.000000,4.000000,4.000000,4.000000,4.000000,4.000000,59.000000,0.000000,0.293763,0.097656,0.881836,0.355713,0.533211,-0.600595,0.604013,7.019171,-47.515915,54.617348,,,,,,,,,,,,,,,,,,,,,,,,,
1577742304.121487,119.000000,0.000000,4300.000000,4384.615234,4218.974121,4195.384766,4237.436035,16208.000000,4.000000,,,,0.000000,4.000000,4.000000,4.000000,4.000000,4.000000,,,,,,,,,,,,,,,,,,,,,,,,,,,,,,,,,,,,,
1577742304.129183,120.000000,0.000000,4270.769043,4363.589844,4190.256348,4169.230957,4209.743652,450.000000,4.000000,,,,0.000000,4.000000,4.000000,4.000000,4.000000,4.000000,60.000000,0.000000,0.293763,0.097656,0.881836,0.355713,0.528328,-0.608896,0.583993,3.446116,-47.609371,55.316593,,,,,,,,,,,,,,,,,,,,,,,,,
1577742304.136980,121.000000,0.000000,4233.333496,4342.051270,4169.230957,4135.384766,4176.922852,450.000000,4.000000,,,,0.000000,4.000000,4.000000,4.000000,4.000000,4.000000,,,,,,,,,,,,,,,,,,,,,,,,,,,,,,,,,,,,,
1577742304.144676,122.000000,0.000000,4233.846191,4345.641113,4185.641113,4150.256348,4187.179688,450.000000,4.000000,,,,0.000000,4.000000,4.000000,4.000000,4.000000,4.000000,61.000000,0.000000,0.293763,0.097656,0.881836,0.355713,0.512215,-0.607431,0.601083,6.750242,-47.633663,55.886101,,,,,,,,,,,,,,,,,,,,,,,,,
1577742304.152573,123.000000,0.000000,4237.948730,4356.410156,4187.179688,4162.051270,4194.871582,16208.000000,4.000000,,,,0.000000,4.000000,4.000000,4.000000,4.000000,4.000000,,,,,,,,,,,,,15.452559,5.594561,6.476287,4.357246,5.383554,1.451952,0.435776,1.981286,1.996900,3.189102,2.645618,3.426861,4.474153,2.913672,3.948798,5.132778,3.637096,5.802380,4.168777,6.224836,10.710901,3.635340,6.832764,4.667945,5.780821
1577742304.160370,124.000000,0.000000,4234.871582,4362.051270,4174.871582,4158.974121,4191.794922,450.000000,4.000000,,,,0.000000,4.000000,4.000000,4.000000,4.000000,4.000000,62.000000,0.000000,0.293845,0.097412,0.881836,0.355713,0.534676,-0.597665,0.594736,3.144265,-47.655525,56.518291,,,,,,,,,,,,,,,,,,,,,,,,,
1577742304.168267,125.000000,0.000000,4220.512695,4348.717773,4169.230957,4152.820313,4183.589844,450.000000,4.000000,,,,0.000000,4.000000,4.000000,4.000000,4.000000,4.000000,,,,,,,,,,,,,,,,,,,,,,,,,,,,,,,,,,,,,
1577742304.176063,126.000000,0.000000,4206.153809,4348.205078,4161.025879,4140.000000,4172.307617,450.000000,4.000000,,,,0.000000,4.000000,4.000000,4.000000,4.000000,4.000000,63.000000,0.000000,0.293845,0.097412,0.881836,0.355713,0.518074,-0.598642,0.592294,-0.220745,-47.735016,57.027443,,,,,,,,,,,,,,,,,,,,,,,,,
1577742304.183960,127.000000,0.000000,4224.102539,4381.538574,4163.589844,4149.743652,4187.692383,236.000000,4.000000,,,,0.000000,4.000000,4.000000,4.000000,4.000000,4.000000,,,,,,,,,,,,,,,,,,,,,,,,,,,,,,,,,,,,,
1577742304.191757,0.000000,0.000000,4254.871582,4407.179688,4185.641113,4186.666504,4222.051270,450.000000,4.000000,,,,0.000000,4.000000,4.000000,4.000000,4.000000,4.000000,0.000000,0.000000,0.293845,0.097412,0.881836,0.355713,0.506844,-0.606943,0.607919,3.450067,-47.686928,57.485683,,,,,,,,,,,,,,,,,,,,,,,,,
1577742304.199653,1.000000,0.000000,4255.384766,4391.794922,4188.717773,4192.820313,4224.102539,450.000000,4.000000,,,,0.000000,4.000000,4.000000,4.000000,4.000000,4.000000,,,,,,,,,,,,,,,,,,,,,,,,,,,,,,,,,,,,,
1577742304.207450,2.000000,0.000000,4222.563965,4361.025879,4157.948730,4151.794922,4187.692383,16210.000000,4.000000,,,,0.000000,4.000000,4.000000,4.000000,4.000000,4.000000,1.000000,0.000000,0.293845,0.097412,0.881836,0.355713,0.508797,-0.604013,0.607919,6.813612,-47.703465,57.957912,,,,,,,,,,,,,,,,,,,,,,,,,
1577742304.215346,3.000000,0.000000,4212.820313,4371.794922,4153.846191,4139.487305,4183.589844,450.000000,4.000000,,,,0.000000,4.000000,4.000000,4.000000,4.000000,4.000000,,,,,,,,,,,,,,,,,,,,,,,,,,,,,,,,,,,,,
1577742304.223143,4.000000,0.000000,4231.282227,4391.794922,4177.436035,4161.025879,4208.717773,16244.000000,4.000000,,,,0.000000,4.000000,4.000000,4.000000,4.000000,4.000000,2.000000,0.000000,0.293845,0.097412,0.881836,0.355713,0.515633,-0.622568,0.608896,7.089297,-47.718349,58.323105,,,,,,,,,,,,,,,,,,,,,,,,,
1577742304.230839,5.000000,0.000000,4222.563965,4369.743652,4169.743652,4154.871582,4201.538574,450.000000,4.000000,,,,0.000000,4.000000,4.000000,4.000000,4.000000,4.000000,,,,,,,,,,,,,,,,,,,,,,,,,,,,,,,,,,,,,
1577742304.238636,6.000000,0.000000,4189.743652,4361.538574,4147.179688,4135.897461,4175.384766,16141.000000,4.000000,,,,0.000000,4.000000,4.000000,4.000000,4.000000,4.000000,3.000000,0.000000,0.293192,0.097168,0.882080,0.355713,0.539071,-0.619638,0.599130,7.277598,-47.731743,58.591961,,,,,,,,,,,,,,,,,,,,,,,,,
1577742304.246332,7.000000,0.000000,4200.512695,4393.333496,4159.487305,4149.743652,4182.051270,450.000000,4.000000,,,,0.000000,4.000000,4.000000,4.000000,4.000000,4.000000,,,,,,,,,,,,,,,,,,,,,,,,,,,,,,,,,,,,,
1577742304.254129,8.000000,0.000000,4239.487305,4389.743652,4186.153809,4175.384766,4212.307617,450.000000,4.000000,,,,0.000000,4.000000,4.000000,4.000000,4.000000,4.000000,4.000000,0.000000,0.293192,0.097168,0.882080,0.355713,0.522957,-0.609384,0.599619,7.506884,-47.683983,56.979656,,,,,,,,,,,,,,,,,,,,,,,,,
1577742304.261826,9.000000,0.000000,4221.538574,4358.974121,4180.512695,4159.487305,4196.922852,16189.000000,4.000000,,,,0.000000,4.000000,4.000000,4.000000,4.000000,4.000000,,,,,,,,,,,,,,,,,,,,,,,,,,,,,,,,,,,,,
1577742304.269622,10.000000,0.000000,4161.538574,4354.358887,4145.128418,4108.205078,4136.410156,450.000000,4.000000,,,,0.000000,4.000000,4.000000,4.000000,4.000000,4.000000,5.000000,0.000000,0.293273,0.096924,0.882080,0.355713,0.522469,-0.604990,0.602060,7.653426,-47.820446,57.382858,,,,,,,,,,,,,,,,,,,,,,,,,
1577742304.277319,11.000000,0.000000,4157.948730,4364.615234,4140.000000,4096.410156,4123.077148,16206.000000,4.000000,,,,0.000000,4.000000,4.000000,4.000000,4.000000,4.000000,,,,,,,,,,,,,35.011444,8.553276,6.737538,4.692122,4.927146,1.497483,0.463650,1.829927,1.902730,2.797746,3.184513,4.049139,5.577318,3.169412,3.639305,6.126908,4.610025,6.449903,4.208819,5.328632,20.460802,5.262125,7.101460,4.866313,5.170786
1577742304.285215,12.000000,0.000000,4210.256348,4370.256348,4185.641113,4143.077148,4175.897461,450.000000,4.000000,,,,0.000000,4.000000,4.000000,4.000000,4.000000,4.000000,6.000000,0.000000,0.293192,0.097168,0.882080,0.355713,0.539071,-0.619638,0.599130,10.656451,-47.763813,57.985001,,,,,,,,,,,,,,,,,,,,,,,,,
1577742304.293012,13.000000,0.000000,4229.230957,4365.128418,4206.153809,4168.717773,4204.615234,450.000000,4.000000,,,,0.000000,4.000000,4.000000,4.000000,4.000000,4.000000,,,,,,,,,,,,,,,,,,,,,,,,,,,,,,,,,,,,,
1577742304.300909,14.000000,0.000000,4213.846191,4370.256348,4177.436035,4153.846191,4193.846191,450.000000,4.000000,,,,0.000000,4.000000,4.000000,4.000000,4.000000,4.000000,7.000000,0.000000,0.293273,0.096924,0.882080,0.355713,0.522469,-0.604990,0.602060,10.488037,-47.892292,58.287666,,,,,,,,,,,,,,,,,,,,,,,,,
1577742304.308706,15.000000,0.000000,4217.948730,4391.794922,4171.282227,4153.333496,4196.410156,16206.000000,4.000000,,,,0.000000,4.000000,4.000000,4.000000,4.000000,4.000000,,,,,,,,,,,,,,,,,,,,,,,,,,,,,,,,,,,,,
1577742304.316602,16.000000,0.000000,4205.641113,4385.641113,4167.179688,4136.410156,4176.410156,0.000000,4.000000,,,,0.000000,4.000000,4.000000,4.000000,4.000000,4.000000,8.000000,0.000000,0.293273,0.096924,0.882080,0.355713,0.522957,-0.604013,0.605966,13.207602,-47.828476,58.799328,,,,,,,,,,,,,,,,,,,,,,,,,
1577742304.324399,17.000000,0.000000,4182.563965,4346.153809,4141.025879,4101.025879,4146.666504,0.000000,4.000000,,,,0.000000,4.000000,4.000000,4.000000,4.000000,4.000000,,,,,,,,,,,,,,,,,,,,,,,,,,,,,,,,,,,,,
1577742304.332296,18.000000,0.000000,4204.102539,4347.692383,4155.384766,4118.974121,4171.282227,0.000000,4.000000,,,,0.000000,4.000000,4.000000,4.000000,4.000000,4.000000,9.000000,0.000000,0.293353,0.096680,0.882080,0.355713,0.517098,-0.595712,0.602060,15.595394,-47.890675,59.200008,,,,,,,,,,,,,,,,,,,,,,,,,
1577742304.340092,19.000000,0.000000,4228.205078,4378.461426,4186.153809,4146.666504,4197.436035,0.000000,4.000000,,,,0.000000,4.000000,4.000000,4.000000,4.000000,4.000000,,,,,,,,,,,,,,,,,,,,,,,,,,,,,,,,,,,,,
1577742304.347989,20.000000,0.000000,4222.051270,4365.128418,4171.794922,4132.307617,4182.563965,0.000000,4.000000,,,,0.000000,4.000000,4.000000,4.000000,4.000000,4.000000,10.000000,0.000000,0.293353,0.096680,0.882080,0.355713,0.516121,-0.597177,0.614755,17.804222,-47.886837,59.440990,,,,,,,,,,,,,,,,,,,,,,,,,
1577742304.355786,21.000000,0.000000,4206.666504,4348.717773,4138.974121,4105.128418,4158.974121,0.000000,4.000000,,,,0.000000,4.000000,4.000000,4.000000,4.000000,4.000000,,,,,,,,,,,,,,,,,,,,,,,,,,,,,,,,,,,,,
1577742304.363683,22.000000,0.000000,4202.051270,4378.974121,4140.000000,4098.461426,4154.358887,0.000000,4.000000,,,,0.000000,4.000000,4.000000,4.000000,4.000000,4.000000,11.000000,0.000000,0.293353,0.096680,0.882080,0.355713,0.516609,-0.594736,0.600595,16.921030,-47.703934,57.743782,,,,,,,,,,,,,,,,,,,,,,,,,
1577742304.371479,23.000000,0.000000,4228.205078,4396.410156,4178.974121,4124.102539,4179.487305,0.000000,4.000000,,,,0.000000,4.000000,4.000000,4.000000,4.000000,4.000000,,,,,,,,,,,,,,,,,,,,,,,,,,,,,,,,,,,,,
1577742304.379376,24.000000,0.000000,4246.153809,4360.000000,4193.333496,4146.666504,4197.436035,0.000000,4.000000,,,,0.000000,4.000000,4.000000,4.000000,4.000000,4.000000,12.000000,0.000000,0.293353,0.096680,0.882080,0.355713,0.507820,-0.595224,0.610849,16.126158,-47.658955,56.335926,,,,,,,,,,,,,,,,,,,,,,,,,
1577742304.387173,25.000000,0.000000,4216.410156,4333.333496,4165.128418,4130.769043,4173.333496,0.000000,4.000000,,,,0.000000,4.000000,4.000000,4.000000,4.000000,4.000000,,,,,,,,,,,,,,,,,,,,,,,,,,,,,,,,,,,,,
1577742304.394970,26.000000,0.000000,4187.692383,4351.794922,4156.410156,4115.897461,4152.307617,0.000000,4.000000,,,,0.000000,4.000000,4.000000,4.000000,4.000000,4.000000,13.000000,0.000000,0.293353,0.096680,0.882080,0.355713,0.522957,-0.599130,0.616220,15.410772,-47.618473,55.068855,,,,,,,,,,,,,,,,,,,,,,,,,
1577742304.402666,27.000000,0.000000,4198.974121,4374.871582,4172.307617,4129.743652,4163.077148,0.000000,4.000000,,,,0.000000,4.000000,4.000000,4.000000,4.000000,4.000000,,,,,,,,,,,,,62.967785,13.023573,6.891026,5.066004,4.740125,1.543437,0.477429,1.782609,1.804274,2.553777,4.573978,4.796827,6.388619,3.437749,3.551170,7.673359,5.835439,6.838404,4.335146,4.894125,34.259129,7.706778,7.044589,5.026913,4.935515
1577742304.410563,28.000000,0.000000,4202.563965,4373.846191,4167.692383,4129.230957,4165.128418,0.000000,4.000000,,,,0.000000,4.000000,4.000000,4.000000,4.000000,4.000000,14.000000,0.000000,0.294086,0.096680,0.881836,0.355713,0.516121,-0.600107,0.599130,10.998558,-47.462410,55.663139,,,,,,,,,,,,,,,,,,,,,,,,,
1577742304.418359,29.000000,0.000000,4195.384766,4376.410156,4163.077148,4120.000000,4162.563965,0.000000,4.000000,,,,0.000000,4.000000,4.000000,4.000000,4.000000,4.000000,,,,,,,,,,,,,,,,,,,,,,,,,,,,,,,,,,,,,
1577742304.426256,30.000000,0.000000,4198.974121,4380.512695,4176.922852,4127.179688,4168.717773,0.000000,4.000000,,,,0.000000,4.000000,4.000000,4.000000,4.000000,4.000000,15.000000,0.000000,0.293791,0.096680,0.881836,0.355957,0.520027,-0.603525,0.603525,10.736117,-47.441582,54.343716,,,,,,,,,,,,,,,,,,,,,,,,,
1577742304.434052,31.000000,0.000000,4205.128418,4373.846191,4183.589844,4132.820313,4175.384766,0.000000,4.000000,,,,0.000000,4.000000,4.000000,4.000000,4.000000,4.000000,,,,,,,,,,,,,,,,,,,,,,,,,,,,,,,,,,,,,
1577742304.441849,32.000000,0.000000,4195.897461,4377.948730,4174.871582,4118.974121,4166.666504,0.000000,4.000000,,,,0.000000,4.000000,4.000000,4.000000,4.000000,4.000000,16.000000,0.000000,0.293791,0.096680,0.881836,0.355957,0.524422,-0.615244,0.607919,10.619552,-47.422840,55.010509,,,,,,,,,,,,,,,,,,,,,,,,,
1577742304.449545,33.000000,0.000000,4174.358887,4375.897461,4168.205078,4102.051270,4142.563965,0.000000,4.000000,,,,0.000000,4.000000,4.000000,4.000000,4.000000,4.000000,,,,,,,,,,,,,,,,,,,,,,,,,,,,,,,,,,,,,
1577742304.457442,34.000000,0.000000,4177.436035,4364.615234,4173.846191,4114.871582,4146.153809,0.000000,4.000000,,,,0.000000,4.000000,4.000000,4.000000,4.000000,4.000000,17.000000,0.000000,0.294006,0.096924,0.881836,0.355713,0.517098,-0.596201,0.595224,10.514642,-47.465782,55.790073,,,,,,,,,,,,,,,,,,,,,,,,,
1577742304.465239,35.000000,0.000000,4192.820313,4371.282227,4178.461426,4133.333496,4169.230957,0.000000,4.000000,,,,0.000000,4.000000,4.000000,4.000000,4.000000,4.000000,,,,,,,,,,,,,,,,,,,,,,,,,,,,,,,,,,,,,
1577742304.473036,36.000000,0.000000,4203.077148,4373.846191,4179.487305,4138.461426,4176.922852,0.000000,4.000000,,,,0.000000,4.000000,4.000000,4.000000,4.000000,4.000000,18.000000,0.000000,0.293710,0.096924,0.881836,0.355957,0.513191,-0.595224,0.592782,6.532225,-47.444618,56.491680,,,,,,,,,,,,,,,,,,,,,,,,,
1577742304.480832,37.000000,0.000000,4214.871582,4365.641113,4182.051270,4143.589844,4181.025879,0.000000,4.000000,,,,0.000000,4.000000,4.000000,4.000000,4.000000,4.000000,,,,,,,,,,,,,,,,,,,,,,,,,,,,,,,,,,,,,
1577742304.488529,38.000000,0.000000,4212.307617,4366.666504,4171.794922,4131.282227,4179.487305,0.000000,4.000000,,,,0.000000,4.000000,4.000000,4.000000,4.000000,4.000000,19.000000,0.000000,0.293710,0.096924,0.881836,0.355957,0.516609,-0.592782,0.604013,4.921957,-47.485386,57.123123,,,,,,,,,,,,,,,,,,,,,,,,,
1577742304.496326,39.000000,0.000000,4188.717773,4351.282227,4147.179688,4105.128418,4157.948730,0.000000,4.000000,,,,0.000000,4.000000,4.000000,4.000000,4.000000,4.000000,,,,,,,,,,,,,,,,,,,,,,,,,,,,,,,,,,,,,
1577742304.504022,40.000000,0.000000,4174.871582,4341.538574,4138.974121,4096.922852,4145.128418,0.000000,4.000000,,,,0.000000,4.000000,4.000000,4.000000,4.000000,4.000000,20.000000,0.000000,0.293414,0.096924,0.881836,0.356201,0.524422,-0.589853,0.589364,5.207361,-47.522076,57.511978,,,,,,,,,,,,,,,,,,,,,,,,,
1577742304.511819,41.000000,0.000000,4179.487305,4362.563965,4147.179688,4101.025879,4150.256348,0.000000,4.000000,,,,0.000000,4.000000,4.000000,4.000000,4.000000,4.000000,,,,,,,,,,,,,,,,,,,,,,,,,,,,,,,,,,,,,
1577742304.519515,42.000000,0.000000,4180.512695,4368.205078,4152.307617,4100.000000,4151.794922,0.000000,4.000000,,,,0.000000,4.000000,4.000000,4.000000,4.000000,4.000000,21.000000,0.000000,0.293851,0.096924,0.881592,0.356445,0.523445,-0.605478,0.584482,8.335361,-47.495285,57.861950,,,,,,,,,,,,,,,,,,,,,,,,,
1577742304.527312,43.000000,0.000000,4172.307617,4367.179688,4144.615234,4093.333252,4143.589844,0.000000,4.000000,,,,0.000000,4.000000,4.000000,4.000000,4.000000,4.000000,,,,,,,,,,,,,93.758919,18.018492,7.163251,5.398305,4.733454,1.576179,0.485002,1.918929,1.669214,2.439667,6.323696,5.487816,6.767239,3.666918,3.596879,9.483190,7.009264,6.994720,4.513357,4.832274,49.316814,10.513832,6.862342,5.118321,4.984217
1577742304.535008,44.000000,0.000000,4168.205078,4388.717773,4137.436035,4084.102539,4135.384766,0.000000,4.000000,,,,0.000000,4.000000,4.000000,4.000000,4.000000,4.000000,22.000000,0.000000,0.293635,0.096680,0.881592,0.356689,0.523445,-0.605478,0.610361,4.630688,-47.471169,58.296551,,,,,,,,,,,,,,,,,,,,,,,,,
1577742304.542805,45.000000,0.000000,4217.948730,4409.230957,4180.000000,4121.538574,4178.974121,0.000000,4.000000,,,,0.000000,4.000000,4.000000,4.000000,4.000000,4.000000,,,,,,,,,,,,,,,,,,,,,,,,,,,,,,,,,,,,,
1577742304.550502,46.000000,0.000000,4265.641113,4397.436035,4212.307617,4157.948730,4220.512695,0.000000,4.000000,,,,0.000000,4.000000,4.000000,4.000000,4.000000,4.000000,23.000000,0.000000,0.293715,0.096436,0.881592,0.356689,0.522957,-0.606455,0.612314,5.064850,-47.389652,56.773602,,,,,,,,,,,,,,,,,,,,,,,,,
1577742304.558298,47.000000,0.000000,4218.974121,4357.948730,4163.077148,4101.025879,4170.769043,0.000000,4.000000,,,,0.000000,4.000000,4.000000,4.000000,4.000000,4.000000,,,,,,,,,,,,,,,,,,,,,,,,,,,,,,,,,,,,,
1577742304.565995,48.000000,0.000000,4180.512695,4338.461426,4135.897461,4061.025635,4133.333496,0.000000,4.000000,,,,0.000000,4.000000,4.000000,4.000000,4.000000,4.000000,24.000000,0.000000,0.293499,0.096191,0.881592,0.356934,0.522957,-0.592782,0.615732,8.326733,-47.435913,57.197411,,,,,,,,,,,,,,,,,,,,,,,,,
1577742304.573891,49.000000,0.000000,4196.922852,4358.461426,4150.256348,4081.538574,4144.102539,0.000000,4.000000,,,,0.000000,4.000000,4.000000,4.000000,4.000000,4.000000,,,,,,,,,,,,,,,,,,,,,,,,,,,,,,,,,,,,,
1577742304.581688,50.000000,0.000000,4184.102539,4373.333496,4131.282227,4061.025635,4119.487305,0.000000,4.000000,,,,0.000000,4.000000,4.000000,4.000000,4.000000,4.000000,25.000000,0.000000,0.293282,0.095947,0.881592,0.357178,0.511238,-0.609384,0.595712,8.510921,-47.357922,57.578835,,,,,,,,,,,,,,,,,,,,,,,,,
1577742304.589585,51.000000,0.000000,4158.461426,4362.563965,4113.333496,4031.794922,4091.281982,0.000000,4.000000,,,,0.000000,4.000000,4.000000,4.000000,4.000000,4.000000,,,,,,,,,,,,,,,,,,,,,,,,,,,,,,,,,,,,,
1577742304.597382,52.000000,0.000000,4180.512695,4363.589844,4134.871582,4061.538574,4122.051270,0.000000,4.000000,,,,0.000000,4.000000,4.000000,4.000000,4.000000,4.000000,26.000000,0.000000,0.293797,0.095703,0.881348,0.357422,0.527840,-0.616220,0.596201,4.609245,-47.227913,55.888397,,,,,,,,,,,,,,,,,,,,,,,,,
1577742304.605278,53.000000,0.000000,4211.282227,4381.025879,4146.153809,4093.846191,4153.846191,0.000000,4.000000,,,,0.000000,4.000000,4.000000,4.000000,4.000000,4.000000,,,,,,,,,,,,,,,,,,,,,,,,,,,,,,,,,,,,,
1577742304.613075,54.000000,0.000000,4215.384766,4380.000000,4140.512695,4084.102539,4149.230957,0.000000,4.000000,,,,0.000000,4.000000,4.000000,4.000000,4.000000,4.000000,27.000000,0.000000,0.293797,0.095703,0.881348,0.357422,0.507332,-0.609873,0.586923,4.028690,-47.170719,56.520355,,,,,,,,,,,,,,,,,,,,,,,,,
1577742304.620971,55.000000,0.000000,4222.051270,4360.000000,4146.153809,4085.128174,4155.897461,0.000000,4.000000,,,,0.000000,4.000000,4.000000,4.000000,4.000000,4.000000,,,,,,,,,,,,,,,,,,,,,,,,,,,,,,,,,,,,,
1577742304.628768,56.000000,0.000000,4216.922852,4355.897461,4137.436035,4091.794922,4158.461426,0.000000,4.000000,,,,0.000000,4.000000,4.000000,4.000000,4.000000,4.000000,28.000000,0.000000,0.293797,0.095703,0.881348,0.357422,0.516609,-0.608896,0.594247,6.496958,-47.179062,57.089119,,,,,,,,,,,,,,,,,,,,,,,,,
1577742304.636464,57.000000,0.000000,4204.615234,4369.230957,4130.256348,4079.487061,4148.717773,0.000000,4.000000,,,,0.000000,4.000000,4.000000,4.000000,4.000000,4.000000,,,,,,,,,,,,,,,,,,,,,,,,,,,,,,,,,,,,,
1577742304.644261,58.000000,0.000000,4213.846191,4373.333496,4151.282227,4083.076904,4155.384766,0.000000,4.000000,,,,0.000000,4.000000,4.000000,4.000000,4.000000,4.000000,29.000000,0.000000,0.294094,0.095703,0.881348,0.357178,0.523445,-0.608408,0.598642,6.804308,-47.126755,57.601006,,,,,,,,,,,,,,,,,,,,,,,,,
1577742304.651957,59.000000,0.000000,4201.538574,4366.666504,4151.282227,4089.743652,4145.128418,0.000000,4.000000,,,,0.000000,4.000000,4.000000,4.000000,4.000000,4.000000,,,,,,,,,,,,,118.012901,22.090723,7.627516,5.675982,4.743774,1.608985,0.531628,2.210538,1.514024,2.402040,8.012555,5.969386,6.697413,3.849527,3.641373,11.095942,7.843228,6.963472,4.756068,4.902247,61.150356,12.989844,6.708767,5.200354,5.105221
1577742304.659754,60.000000,0.000000,4163.077148,4351.282227,4121.538574,4069.230713,4114.358887,0.000000,4.000000,,,,0.000000,4.000000,4.000000,4.000000,4.000000,4.000000,30.000000,0.000000,0.294094,0.095703,0.881348,0.357178,0.522957,-0.602548,0.591806,7.021108,-47.079678,56.027981,,,,,,,,,,,,,,,,,,,,,,,,,
1577742304.667450,61.000000,0.000000,4149.230957,4327.692383,4104.102539,4045.128174,4101.025879,0.000000,4.000000,,,,0.000000,4.000000,4.000000,4.000000,4.000000,4.000000,,,,,,,,,,,,,,,,,,,,,,,,,,,,,,,,,,,,,
1577742304.675247,62.000000,0.000000,4163.077148,4336.922852,4106.666504,4047.692383,4108.205078,0.000000,4.000000,,,,0.000000,4.000000,4.000000,4.000000,4.000000,4.000000,31.000000,0.000000,0.294173,0.095459,0.881348,0.357178,0.529305,-0.614755,0.605966,9.190135,-47.156940,56.645981,,,,,,,,,,,,,,,,,,,,,,,,,
1577742304.682944,63.000000,0.000000,4189.743652,4369.230957,4124.615234,4077.435791,4133.846191,0.000000,4.000000,,,,0.000000,4.000000,4.000000,4.000000,4.000000,4.000000,,,,,,,,,,,,,,,,,,,,,,,,,,,,,,,,,,,,,
1577742304.690741,64.000000,0.000000,4242.051270,4380.000000,4162.051270,4131.794922,4186.666504,450.000000,4.000000,,,,0.000000,4.000000,4.000000,4.000000,4.000000,4.000000,32.000000,0.000000,0.293797,0.095703,0.881348,0.357422,0.510750,-0.612314,0.597177,5.220538,-47.226475,55.168457,,,,,,,,,,,,,,,,,,,,,,,,,
1577742304.698537,65.000000,0.000000,4256.922852,4375.897461,4160.000000,4143.589844,4200.000000,450.000000,4.000000,,,,0.000000,4.000000,4.000000,4.000000,4.000000,4.000000,,,,,,,,,,,,,,,,,,,,,,,,,,,,,,,,,,,,,
1577742304.706234,66.000000,0.000000,4222.563965,4373.333496,4124.102539,4101.538574,4166.666504,16212.000000,4.000000,,,,0.000000,4.000000,4.000000,4.000000,4.000000,4.000000,33.000000,0.000000,0.293579,0.095459,0.881348,0.357666,0.518563,-0.617685,0.610361,5.476084,-47.229240,55.812595,,,,,,,,,,,,,,,,,,,,,,,,,
1577742304.714131,67.000000,0.000000,4238.461426,4364.102539,4137.948730,4105.641113,4180.000000,450.000000,4.000000,,,,0.000000,4.000000,4.000000,4.000000,4.000000,4.000000,,,,,,,,,,,,,,,,,,,,,,,,,,,,,,,,,,,,,
1577742304.721928,68.000000,0.000000,4281.538574,4362.563965,4172.307617,4148.717773,4219.487305,16237.000000,4.000000,,,,0.000000,4.000000,4.000000,4.000000,4.000000,4.000000,34.000000,0.000000,0.294173,0.095459,0.881348,0.357178,0.529305,-0.614755,0.605966,5.885521,-47.171917,56.272686,,,,,,,,,,,,,,,,,,,,,,,,,
1577742304.729724,69.000000,0.000000,4248.717773,4357.436035,4152.820313,4126.666504,4191.794922,450.000000,4.000000,,,,0.000000,4.000000,4.000000,4.000000,4.000000,4.000000,,,,,,,,,,,,,,,,,,,,,,,,,,,,,,,,,,,,,
1577742304.737621,70.000000,0.000000,4187.692383,4337.948730,4120.512695,4065.641113,4133.846191,16142.000000,4.000000,,,,0.000000,4.000000,4.000000,4.000000,4.000000,4.000000,35.000000,0.000000,0.293579,0.095459,0.881348,0.357666,0.518563,-0.617685,0.610361,6.074569,-47.180138,56.806400,,,,,,,,,,,,,,,,,,,,,,,,,
1577742304.745418,71.000000,0.000000,4215.384766,4362.563965,4156.922852,4091.281982,4155.897461,450.000000,4.000000,,,,0.000000,4.000000,4.000000,4.000000,4.000000,4.000000,,,,,,,,,,,,,,,,,,,,,,,,,,,,,,,,,,,,,
1577742304.753315,72.000000,0.000000,4266.666504,4393.846191,4196.410156,4147.179688,4204.102539,450.000000,4.000000,,,,0.000000,4.000000,4.000000,4.000000,4.000000,4.000000,36.000000,0.000000,0.293579,0.095459,0.881348,0.357666,0.522957,-0.608896,0.615732,2.416528,-47.127724,57.226929,,,,,,,,,,,,,,,,,,,,,,,,,
1577742304.761111,73.000000,0.000000,4248.717773,4345.641113,4170.256348,4135.897461,4194.871582,16190.000000,4.000000,,,,0.000000,4.000000,4.000000,4.000000,4.000000,4.000000,,,,,,,,,,,,,,,,,,,,,,,,,,,,,,,,,,,,,
1577742304.769008,74.000000,0.000000,4233.846191,4314.871582,4156.410156,4129.230957,4188.717773,450.000000,4.000000,,,,0.000000,4.000000,4.000000,4.000000,4.000000,4.000000,37.000000,0.000000,0.293579,0.095459,0.881348,0.357666,0.509773,-0.605966,0.608408,3.072106,-47.140366,57.784847,,,,,,,,,,,,,,,,,,,,,,,,,
1577742304.776805,75.000000,0.000000,4249.230957,4368.717773,4176.922852,4147.179688,4205.128418,16206.000000,4.000000,,,,0.000000,4.000000,4.000000,4.000000,4.000000,4.000000,,,,,,,,,,,,,127.665741,23.984043,8.246293,5.899944,4.624669,1.625224,0.678999,2.542818,1.399962,2.383071,9.028160,6.195593,6.299765,3.988428,3.572135,11.970177,8.172513,6.837784,5.058780,4.853848,65.709694,14.496103,6.708872,5.336376,5.080227
1577742304.784701,76.000000,0.000000,4257.948730,4398.461426,4180.000000,4142.563965,4212.307617,450.000000,4.000000,,,,0.000000,4.000000,4.000000,4.000000,4.000000,4.000000,38.000000,0.000000,0.293877,0.095459,0.881348,0.357422,0.519051,-0.620127,0.593759,3.482680,-47.151741,58.227161,,,,,,,,,,,,,,,,,,,,,,,,,
1577742304.792498,77.000000,0.000000,4258.974121,4358.974121,4163.589844,4133.846191,4214.871582,450.000000,4.000000,,,,0.000000,4.000000,4.000000,4.000000,4.000000,4.000000,,,,,,,,,,,,,,,,,,,,,,,,,,,,,,,,,,,,,
1577742304.800394,78.000000,0.000000,4269.743652,4341.538574,4169.743652,4148.205078,4225.641113,450.000000,4.000000,,,,0.000000,4.000000,4.000000,4.000000,4.000000,4.000000,39.000000,0.000000,0.293143,0.095459,0.881592,0.357422,0.523934,-0.598642,0.583993,6.842965,-47.161980,56.651337,,,,,,,,,,,,,,,,,,,,,,,,,
1577742304.808191,79.000000,0.000000,4270.769043,4364.102539,4181.538574,4149.743652,4226.666504,16206.000000,4.000000,,,,0.000000,4.000000,4.000000,4.000000,4.000000,4.000000,,,,,,,,,,,,,,,,,,,,,,,,,,,,,,,,,,,,,
1577742304.816087,80.000000,0.000000,4256.410156,4371.794922,4165.128418,4132.307617,4214.871582,450.000000,4.000000,,,,0.000000,4.000000,4.000000,4.000000,4.000000,4.000000,40.000000,0.000000,0.293223,0.095215,0.881592,0.357422,0.520027,-0.597177,0.600107,5.201622,-47.111382,57.147186,,,,,,,,,,,,,,,,,,,,,,,,,
1577742304.823884,81.000000,0.000000,4236.922852,4362.051270,4137.436035,4121.538574,4194.358887,450.000000,4.000000,,,,0.000000,4.000000,4.000000,4.000000,4.000000,4.000000,,,,,,,,,,,,,,,,,,,,,,,,,,,,,,,,,,,,,
1577742304.831580,82.000000,0.000000,4223.077148,4355.897461,4133.846191,4123.589844,4177.436035,450.000000,4.000000,,,,0.000000,4.000000,4.000000,4.000000,4.000000,4.000000,41.000000,0.000000,0.293520,0.095215,0.881592,0.357178,0.520027,-0.598154,0.600107,5.399244,-47.245289,57.414005,,,,,,,,,,,,,,,,,,,,,,,,,
1577742304.839377,83.000000,0.000000,4257.948730,4365.128418,4169.743652,4155.897461,4210.769043,16206.000000,4.000000,,,,0.000000,4.000000,4.000000,4.000000,4.000000,4.000000,,,,,,,,,,,,,,,,,,,,,,,,,,,,,,,,,,,,,
1577742304.847073,84.000000,0.000000,4303.077148,4380.512695,4198.974121,4183.589844,4258.461426,450.000000,4.000000,,,,0.000000,4.000000,4.000000,4.000000,4.000000,4.000000,42.000000,0.000000,0.293520,0.095215,0.881592,0.357178,0.510750,-0.607919,0.605478,1.868552,-47.425621,55.799862,,,,,,,,,,,,,,,,,,,,,,,,,
1577742304.854870,85.000000,0.000000,4298.461426,4369.230957,4197.948730,4176.922852,4256.410156,450.000000,4.000000,,,,0.000000,4.000000,4.000000,4.000000,4.000000,4.000000,,,,,,,,,,,,,,,,,,,,,,,,,,,,,,,,,,,,,
1577742304.862567,86.000000,0.000000,4276.410156,4345.128418,4194.871582,4165.641113,4235.897461,450.000000,4.000000,,,,0.000000,4.000000,4.000000,4.000000,4.000000,4.000000,43.000000,0.000000,0.293441,0.095459,0.881592,0.357178,0.527352,-0.600107,0.601083,5.450065,-47.348656,56.321045,,,,,,,,,,,,,,,,,,,,,,,,,
1577742304.870463,87.000000,0.000000,4280.000000,4358.461426,4204.615234,4180.000000,4246.666504,16206.000000,4.000000,,,,0.000000,4.000000,4.000000,4.000000,4.000000,4.000000,,,,,,,,,,,,,,,,,,,,,,,,,,,,,,,,,,,,,
1577742304.878260,88.000000,0.000000,4266.153809,4370.256348,4193.846191,4171.794922,4241.025879,450.000000,4.000000,,,,0.000000,4.000000,4.000000,4.000000,4.000000,4.000000,44.000000,0.000000,0.293441,0.095459,0.881592,0.357178,0.527352,-0.605966,0.588388,5.622842,-47.339203,54.876015,,,,,,,,,,,,,,,,,,,,,,,,,
1577742304.886157,89.000000,0.000000,4212.307617,4341.538574,4148.717773,4114.358887,4187.692383,450.000000,4.000000,,,,0.000000,4.000000,4.000000,4.000000,4.000000,4.000000,,,,,,,,,,,,,,,,,,,,,,,,,,,,,,,,,,,,,
1577742304.893953,90.000000,0.000000,4190.256348,4342.563965,4128.205078,4089.230713,4167.179688,450.000000,4.000000,,,,0.000000,4.000000,4.000000,4.000000,4.000000,4.000000,45.000000,0.000000,0.293441,0.095459,0.881592,0.357178,0.518074,-0.610849,0.605966,2.009974,-47.330696,55.549397,,,,,,,,,,,,,,,,,,,,,,,,,
1577742304.901850,91.000000,0.000000,4225.128418,4377.948730,4159.487305,4131.794922,4205.641113,16206.000000,4.000000,,,,0.000000,4.000000,4.000000,4.000000,4.000000,4.000000,,,,,,,,,,,,,118.986725,23.130962,8.999743,6.027260,4.337136,1.614514,0.989697,2.791478,1.392548,2.344218,9.001135,6.141652,5.750282,4.061803,3.362319,11.680791,7.953659,6.795534,5.352847,4.577945,61.271210,14.634997,7.020781,5.515676,4.811687
1577742304.909647,92.000000,0.000000,4277.948730,4373.333496,4201.025879,4190.769043,4255.897461,450.000000,4.000000,,,,0.000000,4.000000,4.000000,4.000000,4.000000,4.000000,46.000000,0.000000,0.293361,0.095703,0.881592,0.357178,0.521004,-0.595224,0.587900,4.680115,-47.382858,56.035809,,,,,,,,,,,,,,,,,,,,,,,,,
1577742304.917444,93.000000,0.000000,4275.384766,4340.000000,4189.230957,4186.666504,4253.333496,450.000000,4.000000,,,,0.000000,4.000000,4.000000,4.000000,4.000000,4.000000,,,,,,,,,,,,,,,,,,,,,,,,,,,,,,,,,,,,,
1577742304.925140,94.000000,0.000000,4222.563965,4329.230957,4138.461426,4132.820313,4205.128418,450.000000,4.000000,,,,0.000000,4.000000,4.000000,4.000000,4.000000,4.000000,47.000000,0.000000,0.293064,0.095703,0.881592,0.357422,0.518074,-0.616220,0.599619,1.221335,-47.489616,54.738934,,,,,,,,,,,,,,,,,,,,,,,,,
1577742304.933037,95.000000,0.000000,4193.846191,4340.000000,4115.897461,4108.205078,4175.384766,16206.000000,4.000000,,,,0.000000,4.000000,4.000000,4.000000,4.000000,4.000000,,,,,,,,,,,,,,,,,,,,,,,,,,,,,,,,,,,,,
1577742304.940834,96.000000,0.000000,4210.256348,4356.922852,4136.410156,4130.769043,4190.256348,450.000000,4.000000,,,,0.000000,4.000000,4.000000,4.000000,4.000000,4.000000,48.000000,0.000000,0.293361,0.095703,0.881592,0.357178,0.517098,-0.586435,0.590829,4.807754,-47.525883,55.545654,,,,,,,,,,,,,,,,,,,,,,,,,
1577742304.948730,97.000000,0.000000,4224.102539,4346.153809,4150.769043,4157.436035,4206.153809,450.000000,4.000000,,,,0.000000,4.000000,4.000000,4.000000,4.000000,4.000000,,,,,,,,,,,,,,,,,,,,,,,,,,,,,,,,,,,,,
1577742304.956527,98.000000,0.000000,4188.205078,4316.922852,4125.128418,4132.307617,4173.846191,450.000000,4.000000,,,,0.000000,4.000000,4.000000,4.000000,4.000000,4.000000,49.000000,0.000000,0.293797,0.095703,0.881348,0.357422,0.522957,-0.605966,0.596201,5.164394,-47.558525,56.152073,,,,,,,,,,,,,,,,,,,,,,,,,
1577742304.964424,99.000000,0.000000,4183.077148,4336.922852,4132.307617,4126.666504,4170.256348,16206.000000,4.000000,,,,0.000000,4.000000,4.000000,4.000000,4.000000,4.000000,,,,,,,,,,,,,,,,,,,,,,,,,,,,,,,,,,,,,
1577742304.972220,100.000000,0.000000,4233.846191,4372.307617,4175.897461,4179.487305,4219.487305,450.000000,4.000000,,,,0.000000,4.000000,4.000000,4.000000,4.000000,4.000000,50.000000,0.000000,0.293718,0.095947,0.881348,0.357422,0.529305,-0.604013,0.594247,8.416323,-47.468269,56.697845,,,,,,,,,,,,,,,,,,,,,,,,,
1577742304.980117,101.000000,0.000000,4229.743652,4363.077148,4164.102539,4182.563965,4211.794922,450.000000,4.000000,,,,0.000000,4.000000,4.000000,4.000000,4.000000,4.000000,,,,,,,,,,,,,,,,,,,,,,,,,,,,,,,,,,,,,
1577742304.987914,102.000000,0.000000,4173.333496,4333.333496,4121.025879,4119.487305,4156.922852,450.000000,4.000000,,,,0.000000,4.000000,4.000000,4.000000,4.000000,4.000000,51.000000,0.000000,0.293718,0.095947,0.881348,0.357422,0.520027,-0.601083,0.596201,11.163612,-47.387043,55.215137,,,,,,,,,,,,,,,,,,,,,,,,,
1577742304.995810,103.000000,0.000000,4155.897461,4321.025879,4119.487305,4096.922852,4147.692383,16206.000000,4.000000,,,,0.000000,4.000000,4.000000,4.000000,4.000000,4.000000,,,,,,,,,,,,,,,,,,,,,,,,,,,,,,,,,,,,,
1577742305.003607,104.000000,0.000000,4155.897461,4327.179688,4125.641113,4109.230957,4149.743652,450.000000,4.000000,,,,0.000000,4.000000,4.000000,4.000000,4.000000,4.000000,52.000000,0.000000,0.293718,0.095947,0.881348,0.357422,0.507820,-0.623056,0.608896,13.815619,-47.254120,55.974239,,,,,,,,,,,,,,,,,,,,,,,,,
1577742305.011303,105.000000,0.000000,4168.717773,4344.102539,4133.846191,4118.974121,4153.333496,450.000000,4.000000,,,,0.000000,4.000000,4.000000,4.000000,4.000000,4.000000,,,,,,,,,,,,,,,,,,,,,,,,,,,,,,,,,,,,,
1577742305.019200,106.000000,0.000000,4221.538574,4351.794922,4168.205078,4159.487305,4203.589844,450.000000,4.000000,,,,0.000000,4.000000,4.000000,4.000000,4.000000,4.000000,53.000000,0.000000,0.293718,0.095947,0.881348,0.357422,0.523445,-0.593759,0.600107,12.314426,-47.254124,56.657429,,,,,,,,,,,,,,,,,,,,,,,,,
1577742305.026997,107.000000,0.000000,4232.307617,4347.179688,4172.307617,4181.538574,4222.051270,16206.000000,4.000000,,,,0.000000,4.000000,4.000000,4.000000,4.000000,4.000000,,,,,,,,,,,,,95.425331,19.941492,9.952001,6.015616,3.956353,1.560022,1.469807,2.870241,1.523829,2.285326,7.906924,5.827859,5.288280,4.041740,3.077152,10.188991,7.262096,7.080203,5.541638,4.140923,49.327824,13.469593,7.823301,5.676224,4.355291
1577742305.034794,108.000000,0.000000,4200.512695,4343.589844,4146.666504,4167.692383,4192.820313,450.000000,4.000000,,,,0.000000,4.000000,4.000000,4.000000,4.000000,4.000000,54.000000,0.000000,0.292984,0.095947,0.881592,0.357422,0.519051,-0.614755,0.588388,11.980214,-47.134495,57.152668,,,,,,,,,,,,,,,,,,,,,,,,,
1577742305.042490,109.000000,0.000000,4175.384766,4304.615234,4117.436035,4143.077148,4164.615234,450.000000,4.000000,,,,0.000000,4.000000,4.000000,4.000000,4.000000,4.000000,,,,,,,,,,,,,,,,,,,,,,,,,,,,,,,,,,,,,
1577742305.050287,110.000000,0.000000,4139.487305,4278.974121,4085.128174,4105.641113,4129.230957,450.000000,4.000000,,,,0.000000,4.000000,4.000000,4.000000,4.000000,4.000000,55.000000,0.000000,0.292904,0.096191,0.881592,0.357422,0.503426,-0.614267,0.599130,11.619608,-47.206272,57.718014,,,,,,,,,,,,,,,,,,,,,,,,,
1577742305.057983,111.000000,0.000000,4131.794922,4333.333496,4087.179443,4108.717773,4121.538574,16206.000000,4.000000,,,,0.000000,4.000000,4.000000,4.000000,4.000000,4.000000,,,,,,,,,,,,,,,,,,,,,,,,,,,,,,,,,,,,,
1577742305.065780,112.000000,0.000000,4137.948730,4361.538574,4095.897461,4127.692383,4129.743652,450.000000,4.000000,,,,0.000000,4.000000,4.000000,4.000000,4.000000,4.000000,56.000000,0.000000,0.293638,0.096191,0.881348,0.357422,0.516609,-0.604990,0.601572,11.175431,-47.211060,58.226826,,,,,,,,,,,,,,,,,,,,,,,,,
1577742305.073477,113.000000,0.000000,4120.512695,4317.436035,4089.230713,4115.384766,4121.025879,450.000000,4.000000,,,,0.000000,4.000000,4.000000,4.000000,4.000000,4.000000,,,,,,,,,,,,,,,,,,,,,,,,,,,,,,,,,,,,,
1577742305.081273,114.000000,0.000000,4122.563965,4317.436035,4111.282227,4117.436035,4130.256348,450.000000,4.000000,,,,0.000000,4.000000,4.000000,4.000000,4.000000,4.000000,57.000000,0.000000,0.293638,0.096191,0.881348,0.357422,0.522957,-0.596689,0.594736,7.126935,-47.155552,58.624943,,,,,,,,,,,,,,,,,,,,,,,,,
1577742305.088970,115.000000,0.000000,4144.102539,4351.794922,4135.897461,4133.846191,4145.128418,16206.000000,4.000000,,,,0.000000,4.000000,4.000000,4.000000,4.000000,4.000000,,,,,,,,,,,,,,,,,,,,,,,,,,,,,,,,,,,,,
1577742305.096766,116.000000,0.000000,4158.974121,4347.179688,4140.512695,4146.153809,4158.461426,450.000000,4.000000,,,,0.000000,4.000000,4.000000,4.000000,4.000000,4.000000,58.000000,0.000000,0.293638,0.096191,0.881348,0.357422,0.529793,-0.609384,0.598154,9.285379,-47.344856,58.923431,,,,,,,,,,,,,,,,,,,,,,,,,
1577742305.104463,117.000000,0.000000,4177.948730,4340.000000,4147.179688,4161.538574,4182.563965,450.000000,4.000000,,,,0.000000,4.000000,4.000000,4.000000,4.000000,4.000000,,,,,,,,,,,,,,,,,,,,,,,,,,,,,,,,,,,,,
1577742305.112259,118.000000,0.000000,4181.025879,4333.846191,4135.384766,4144.102539,4180.000000,450.000000,4.000000,,,,0.000000,4.000000,4.000000,4.000000,4.000000,4.000000,59.000000,0.000000,0.293718,0.095947,0.881348,0.357422,0.515145,-0.605478,0.594736,8.237211,-47.335785,59.072437,,,,,,,,,,,,,,,,,,,,,,,,,
1577742305.119956,119.000000,0.000000,4157.948730,4313.846191,4106.153809,4115.897461,4148.717773,16206.000000,4.000000,,,,0.000000,4.000000,4.000000,4.000000,4.000000,4.000000,,,,,,,,,,,,,,,,,,,,,,,,,,,,,,,,,,,,,
1577742305.127753,120.000000,0.000000,4131.794922,4315.384766,4088.205078,4116.922852,4125.641113,450.000000,4.000000,,,,0.000000,4.000000,4.000000,4.000000,4.000000,4.000000,60.000000,0.000000,0.293718,0.095947,0.881348,0.357422,0.515145,-0.608408,0.602548,8.191090,-47.327621,59.206547,,,,,,,,,,,,,,,,,,,,,,,,,
1577742305.135449,121.000000,0.000000,4124.615234,4321.025879,4082.564209,4107.692383,4119.487305,450.000000,4.000000,,,,0.000000,4.000000,4.000000,4.000000,4.000000,4.000000,,,,,,,,,,,,,,,,,,,,,,,,,,,,,,,,,,,,,
1577742305.143246,122.000000,0.000000,4133.846191,4310.256348,4092.820557,4089.743652,4124.615234,450.000000,4.000000,,,,0.000000,4.000000,4.000000,4.000000,4.000000,4.000000,61.000000,0.000000,0.293718,0.095947,0.881348,0.357422,0.521981,-0.613291,0.587900,4.261581,-47.200642,57.652412,,,,,,,,,,,,,,,,,,,,,,,,,
1577742305.150942,123.000000,0.000000,4114.358887,4318.461426,4093.333252,4079.487061,4102.563965,16206.000000,4.000000,,,,0.000000,4.000000,4.000000,4.000000,4.000000,4.000000,,,,,,,,,,,,,65.061523,15.601937,11.196414,5.870057,3.614722,1.450826,2.026423,2.778330,1.773752,2.239902,6.079582,5.310449,5.045481,3.927711,2.824239,7.855014,6.274330,7.881671,5.550152,3.709445,33.739368,11.433753,9.212045,5.751606,3.861891
1577742305.158839,124.000000,0.000000,4102.563965,4348.205078,4093.333252,4084.615479,4091.794922,450.000000,4.000000,,,,0.000000,4.000000,4.000000,4.000000,4.000000,4.000000,62.000000,0.000000,0.293420,0.095947,0.881348,0.357666,0.515145,-0.616220,0.604013,4.672839,-47.265808,57.928524,,,,,,,,,,,,,,,,,,,,,,,,,
1577742305.166636,125.000000,0.000000,4170.769043,4363.077148,4150.256348,4145.128418,4167.692383,450.000000,4.000000,,,,0.000000,4.000000,4.000000,4.000000,4.000000,4.000000,,,,,,,,,,,,,,,,,,,,,,,,,,,,,,,,,,,,,
1577742305.174532,126.000000,0.000000,4209.743652,4343.077148,4186.666504,4188.717773,4214.871582,450.000000,4.000000,,,,0.000000,4.000000,4.000000,4.000000,4.000000,4.000000,63.000000,0.000000,0.293718,0.095947,0.881348,0.357422,0.515145,-0.608408,0.602548,5.162601,-47.264641,56.262932,,,,,,,,,,,,,,,,,,,,,,,,,
1577742305.182329,127.000000,0.000000,4147.692383,4312.820313,4135.897461,4139.487305,4154.871582,236.000000,4.000000,,,,0.000000,4.000000,4.000000,4.000000,4.000000,4.000000,,,,,,,,,,,,,,,,,,,,,,,,,,,,,,,,,,,,,
1577742305.190225,0.000000,0.000000,4124.615234,4316.922852,4110.769043,4106.666504,4129.743652,450.000000,4.000000,,,,0.000000,4.000000,4.000000,4.000000,4.000000,4.000000,0.000000,0.000000,0.293420,0.095947,0.881348,0.357666,0.515145,-0.616220,0.604013,5.483756,-47.323406,56.677990,,,,,,,,,,,,,,,,,,,,,,,,,
1577742305.198022,1.000000,0.000000,4188.205078,4324.102539,4163.077148,4165.641113,4191.794922,450.000000,4.000000,,,,0.000000,4.000000,4.000000,4.000000,4.000000,4.000000,,,,,,,,,,,,,,,,,,,,,,,,,,,,,,,,,,,,,
1577742305.205918,2.000000,0.000000,4202.051270,4299.487305,4171.794922,4190.769043,4210.256348,16212.000000,4.000000,,,,0.000000,4.000000,4.000000,4.000000,4.000000,4.000000,1.000000,0.000000,0.293420,0.095947,0.881348,0.357666,0.526864,-0.606943,0.599130,5.892426,-47.316479,55.137451,,,,,,,,,,,,,,,,,,,,,,,,,
1577742305.213715,3.000000,0.000000,4146.153809,4298.974121,4115.384766,4132.307617,4161.025879,450.000000,4.000000,,,,0.000000,4.000000,4.000000,4.000000,4.000000,4.000000,,,,,,,,,,,,,,,,,,,,,,,,,,,,,,,,,,,,,
1577742305.221411,4.000000,0.000000,4122.563965,4328.205078,4088.718018,4098.974121,4129.743652,16245.000000,4.000000,,,,0.000000,4.000000,4.000000,4.000000,4.000000,4.000000,2.000000,0.000000,0.293638,0.096191,0.881348,0.357422,0.514168,-0.609384,0.596689,2.312415,-47.310246,55.904320,,,,,,,,,,,,,,,,,,,,,,,,,
1577742305.229208,5.000000,0.000000,4139.487305,4324.615234,4101.538574,4125.641113,4135.897461,450.000000,4.000000,,,,0.000000,4.000000,4.000000,4.000000,4.000000,4.000000,,,,,,,,,,,,,,,,,,,,,,,,,,,,,,,,,,,,,
1577742305.236904,6.000000,0.000000,4155.384766,4301.538574,4122.563965,4146.666504,4157.436035,16151.000000,4.000000,,,,0.000000,4.000000,4.000000,4.000000,4.000000,4.000000,3.000000,0.000000,0.292904,0.096191,0.881592,0.357422,0.522469,-0.604501,0.603525,5.670095,-47.484081,56.415054,,,,,,,,,,,,,,,,,,,,,,,,,
1577742305.244701,7.000000,0.000000,4154.358887,4304.102539,4134.871582,4137.436035,4167.179688,450.000000,4.000000,,,,0.000000,4.000000,4.000000,4.000000,4.000000,4.000000,,,,,,,,,,,,,,,,,,,,,,,,,,,,,,,,,,,,,
1577742305.252398,8.000000,0.000000,4151.794922,4312.820313,4138.461426,4134.358887,4165.128418,450.000000,4.000000,,,,0.000000,4.000000,4.000000,4.000000,4.000000,4.000000,4.000000,0.000000,0.292904,0.096191,0.881592,0.357422,0.525887,-0.604013,0.600107,4.146040,-47.461086,56.874718,,,,,,,,,,,,,,,,,,,,,,,,,
1577742305.260294,9.000000,0.000000,4148.717773,4291.794922,4131.794922,4117.948730,4157.436035,16196.000000,4.000000,,,,0.000000,4.000000,4.000000,4.000000,4.000000,4.000000,,,,,,,,,,,,,,,,,,,,,,,,,,,,,,,,,,,,,
1577742305.268091,10.000000,0.000000,4124.615234,4276.410156,4114.358887,4083.076904,4130.256348,450.000000,4.000000,,,,0.000000,4.000000,4.000000,4.000000,4.000000,4.000000,5.000000,0.000000,0.292824,0.096436,0.881592,0.357422,0.519539,-0.594736,0.600107,4.568851,-47.440392,57.348228,,,,,,,,,,,,,,,,,,,,,,,,,
1577742305.275888,11.000000,0.000000,4131.282227,4321.025879,4123.589844,4117.948730,4136.922852,16211.000000,4.000000,,,,0.000000,4.000000,4.000000,4.000000,4.000000,4.000000,,,,,,,,,,,,,36.732166,11.474530,12.782099,5.712896,3.441732,1.296475,2.500390,2.581470,2.087029,2.256163,4.156924,4.701319,5.068928,3.814904,2.702107,5.385633,5.220300,9.221986,5.432429,3.467773,18.983648,9.161412,11.149441,5.771269,3.502020
