title:007, start timestamp:2019-12-31T00:47:34.813271+03:00, stop timestamp:2019-12-31T00:47:59.495492+03:00, headset type:INSIGHT, headset serial:A2D200FB, headset firmware:930, subject name:Qasim, channels:56, sampling rate:eeg_128;mot_64;pow_8, samples:3170      , version:2.0
Timestamp,EEG.Counter,EEG.Interpolated,EEG.AF3,EEG.T7,EEG.Pz,EEG.T8,EEG.AF4,EEG.RawCq,EEG.Battery,MarkerIndex,MarkerType,MarkerValueInt,EEG.MarkerHardware,CQ.AF3,CQ.T7,CQ.Pz,CQ.T8,CQ.AF4,MOT.CounterMems,MOT.InterpolatedMems,MOT.Q0,MOT.Q1,MOT.Q2,MOT.Q3,MOT.AccX,MOT.AccY,MOT.AccZ,MOT.MagX,MOT.MagY,MOT.MagZ,POW.AF3.Theta,POW.AF3.Alpha,POW.AF3.BetaL,POW.AF3.BetaH,POW.AF3.Gamma,POW.T7.Theta,POW.T7.Alpha,POW.T7.BetaL,POW.T7.BetaH,POW.T7.Gamma,POW.Pz.Theta,POW.Pz.Alpha,POW.Pz.BetaL,POW.Pz.BetaH,POW.Pz.Gamma,POW.T8.Theta,POW.T8.Alpha,POW.T8.BetaL,POW.T8.BetaH,POW.T8.Gamma,POW.AF4.Theta,POW.AF4.Alpha,POW.AF4.BetaL,POW.AF4.BetaH,POW.AF4.Gamma
1577742454.813271,116.000000,0.000000,4253.333496,4340.512695,4097.436035,4365.641113,4229.230957,450.000000,4.000000,,,,0.000000,4.000000,4.000000,4.000000,4.000000,4.000000,58.000000,0.000000,0.212780,-0.094238,0.879883,0.414307,0.519539,-0.603037,0.598154,16.622519,-47.566463,56.574848,,,,,,,,,,,,,,,,,,,,,,,,,
1577742454.820967,117.000000,0.000000,4268.205078,4368.205078,4112.307617,4390.256348,4248.205078,450.000000,4.000000,,,,0.000000,4.000000,4.000000,4.000000,4.000000,4.000000,,,,,,,,,,,,,,,,,,,,,,,,,,,,,,,,,,,,,
1577742454.828764,118.000000,0.000000,4224.615234,4330.769043,4082.051270,4344.615234,4209.230957,450.000000,4.000000,,,,0.000000,4.000000,4.000000,4.000000,4.000000,4.000000,59.000000,0.000000,0.211877,-0.093994,0.880127,0.414307,0.525399,-0.611337,0.601572,15.797682,-47.595047,57.078346,,,,,,,,,,,,,,,,,,,,,,,,,
1577742454.836460,119.000000,0.000000,4228.205078,4310.769043,4089.230713,4334.871582,4210.256348,16210.000000,4.000000,,,,0.000000,4.000000,4.000000,4.000000,4.000000,4.000000,,,,,,,,,,,,,,,,,,,,,,,,,,,,,,,,,,,,,
1577742454.844157,120.000000,0.000000,4275.897461,4340.512695,4124.615234,4378.974121,4251.794922,450.000000,4.000000,,,,0.000000,4.000000,4.000000,4.000000,4.000000,4.000000,60.000000,0.000000,0.211985,-0.093750,0.880127,0.414307,0.522957,-0.621592,0.595224,11.286961,-47.620773,57.411865,,,,,,,,,,,,,,,,,,,,,,,,,
1577742454.851953,121.000000,0.000000,4285.128418,4348.717773,4126.153809,4388.717773,4262.051270,450.000000,4.000000,,,,0.000000,4.000000,4.000000,4.000000,4.000000,4.000000,,,,,,,,,,,,,,,,,,,,,,,,,,,,,,,,,,,,,
1577742454.859649,122.000000,0.000000,4264.615234,4332.307617,4105.128418,4357.948730,4252.820313,450.000000,4.000000,,,,0.000000,4.000000,4.000000,4.000000,4.000000,4.000000,61.000000,0.000000,0.211663,-0.093262,0.880371,0.414063,0.529793,-0.603037,0.593271,13.866817,-47.703739,57.712029,,,,,,,,,,,,,,,,,,,,,,,,,
1577742454.867346,123.000000,0.000000,4248.205078,4322.051270,4093.333252,4330.769043,4239.487305,16210.000000,4.000000,,,,0.000000,4.000000,4.000000,4.000000,4.000000,4.000000,,,,,,,,,,,,,3.803336,12.256042,10.585462,6.394532,4.569806,0.921019,1.219508,2.300742,1.926155,1.992977,21.681921,9.666356,9.509737,5.404896,3.254810,4.400497,7.548205,15.284338,6.486528,5.009705,5.147397,9.912346,12.833272,6.221020,4.708858
1577742454.875142,124.000000,0.000000,4242.563965,4320.512695,4083.076904,4315.384766,4227.692383,450.000000,4.000000,,,,0.000000,4.000000,4.000000,4.000000,4.000000,4.000000,62.000000,0.000000,0.211770,-0.093018,0.880371,0.414063,0.527840,-0.618173,0.594247,13.197920,-47.718594,58.101810,,,,,,,,,,,,,,,,,,,,,,,,,
1577742454.882939,125.000000,0.000000,4220.000000,4318.974121,4052.820557,4283.589844,4205.128418,450.000000,4.000000,,,,0.000000,4.000000,4.000000,4.000000,4.000000,4.000000,,,,,,,,,,,,,,,,,,,,,,,,,,,,,,,,,,,,,
1577742454.890635,126.000000,0.000000,4207.692383,4326.666504,4044.615479,4268.717773,4195.897461,450.000000,4.000000,,,,0.000000,4.000000,4.000000,4.000000,4.000000,4.000000,63.000000,0.000000,0.211985,-0.093750,0.880127,0.414307,0.522957,-0.621592,0.595224,12.835174,-47.672150,58.512428,,,,,,,,,,,,,,,,,,,,,,,,,
1577742454.898432,127.000000,0.000000,4264.102539,4348.717773,4097.948730,4326.666504,4249.743652,236.000000,4.000000,,,,0.000000,4.000000,4.000000,4.000000,4.000000,4.000000,,,,,,,,,,,,,,,,,,,,,,,,,,,,,,,,,,,,,
1577742454.906128,0.000000,0.000000,4327.179688,4366.153809,4152.307617,4393.333496,4308.717773,450.000000,4.000000,,,,0.000000,4.000000,4.000000,4.000000,4.000000,4.000000,0.000000,0.000000,0.211770,-0.093018,0.880371,0.414063,0.527840,-0.618173,0.594247,12.269441,-47.690163,58.822166,,,,,,,,,,,,,,,,,,,,,,,,,
1577742454.913924,1.000000,0.000000,4296.922852,4338.461426,4124.615234,4363.077148,4278.974121,450.000000,4.000000,,,,0.000000,4.000000,4.000000,4.000000,4.000000,4.000000,,,,,,,,,,,,,,,,,,,,,,,,,,,,,,,,,,,,,
1577742454.921621,2.000000,0.000000,4240.512695,4288.205078,4063.076904,4291.794922,4215.897461,16205.000000,4.000000,,,,0.000000,4.000000,4.000000,4.000000,4.000000,4.000000,1.000000,0.000000,0.211770,-0.093018,0.880371,0.414063,0.521492,-0.609384,0.593759,11.939727,-47.586746,59.220562,,,,,,,,,,,,,,,,,,,,,,,,,
1577742454.929417,3.000000,0.000000,4270.256348,4294.358887,4071.794922,4307.692383,4232.307617,450.000000,4.000000,,,,0.000000,4.000000,4.000000,4.000000,4.000000,4.000000,,,,,,,,,,,,,,,,,,,,,,,,,,,,,,,,,,,,,
1577742454.937113,4.000000,0.000000,4336.410156,4336.922852,4116.922852,4364.615234,4286.153809,16239.000000,4.000000,,,,0.000000,4.000000,4.000000,4.000000,4.000000,4.000000,2.000000,0.000000,0.211770,-0.093018,0.880371,0.414063,0.516609,-0.605966,0.589853,14.394492,-47.613300,59.339859,,,,,,,,,,,,,,,,,,,,,,,,,
1577742454.944910,5.000000,0.000000,4361.025879,4341.025879,4112.820313,4362.051270,4293.846191,450.000000,4.000000,,,,0.000000,4.000000,4.000000,4.000000,4.000000,4.000000,,,,,,,,,,,,,,,,,,,,,,,,,,,,,,,,,,,,,
1577742454.952606,6.000000,0.000000,4362.051270,4329.743652,4079.487061,4317.948730,4285.128418,16156.000000,4.000000,,,,0.000000,4.000000,4.000000,4.000000,4.000000,4.000000,3.000000,0.000000,0.211770,-0.093018,0.880371,0.414063,0.537118,-0.600595,0.598642,13.672827,-47.637199,59.566856,,,,,,,,,,,,,,,,,,,,,,,,,
1577742454.960402,7.000000,0.000000,4386.153809,4343.589844,4074.871826,4297.948730,4299.487305,450.000000,4.000000,,,,0.000000,4.000000,4.000000,4.000000,4.000000,4.000000,,,,,,,,,,,,,,,,,,,,,,,,,,,,,,,,,,,,,
1577742454.968099,8.000000,0.000000,4431.794922,4354.358887,4089.230713,4312.307617,4325.128418,450.000000,4.000000,,,,0.000000,4.000000,4.000000,4.000000,4.000000,4.000000,4.000000,0.000000,0.211770,-0.093018,0.880371,0.414063,0.529305,-0.605966,0.582040,15.176682,-47.718525,59.771152,,,,,,,,,,,,,,,,,,,,,,,,,
1577742454.975895,9.000000,0.000000,4486.666504,4349.743652,4110.769043,4348.717773,4377.436035,16190.000000,4.000000,,,,0.000000,4.000000,4.000000,4.000000,4.000000,4.000000,,,,,,,,,,,,,,,,,,,,,,,,,,,,,,,,,,,,,
1577742454.983591,10.000000,0.000000,4516.922852,4341.538574,4115.384766,4360.000000,4409.230957,450.000000,4.000000,,,,0.000000,4.000000,4.000000,4.000000,4.000000,4.000000,5.000000,0.000000,0.211663,-0.093262,0.880371,0.414063,0.534188,-0.625010,0.593759,14.556244,-47.731899,59.955021,,,,,,,,,,,,,,,,,,,,,,,,,
1577742454.991388,11.000000,0.000000,4507.179688,4331.282227,4097.948730,4328.205078,4381.025879,16205.000000,4.000000,,,,0.000000,4.000000,4.000000,4.000000,4.000000,4.000000,,,,,,,,,,,,,3.189751,11.464434,11.693853,6.315707,4.633169,1.065107,1.064343,2.685539,1.942195,1.816546,17.859095,9.492493,10.322405,5.399549,3.317449,3.214936,6.622019,16.960773,6.406926,5.246916,5.667201,8.692625,13.986500,6.072277,4.748211
1577742454.999084,12.000000,0.000000,4518.974121,4332.820313,4113.846191,4340.000000,4387.179688,450.000000,4.000000,,,,0.000000,4.000000,4.000000,4.000000,4.000000,4.000000,6.000000,0.000000,0.212032,-0.093506,0.880371,0.413818,0.528817,-0.609873,0.609873,10.050036,-47.624310,58.206409,,,,,,,,,,,,,,,,,,,,,,,,,
1577742455.006780,13.000000,0.000000,4517.436035,4332.820313,4124.102539,4363.077148,4402.563965,450.000000,4.000000,,,,0.000000,4.000000,4.000000,4.000000,4.000000,4.000000,,,,,,,,,,,,,,,,,,,,,,,,,,,,,,,,,,,,,
1577742455.014577,14.000000,0.000000,4474.358887,4327.692383,4101.538574,4338.974121,4369.230957,450.000000,4.000000,,,,0.000000,4.000000,4.000000,4.000000,4.000000,4.000000,7.000000,0.000000,0.212401,-0.093750,0.880371,0.413574,0.530282,-0.609384,0.599130,12.813400,-47.647106,56.692474,,,,,,,,,,,,,,,,,,,,,,,,,
1577742455.022273,15.000000,0.000000,4471.794922,4331.794922,4113.333496,4347.692383,4365.641113,16205.000000,4.000000,,,,0.000000,4.000000,4.000000,4.000000,4.000000,4.000000,,,,,,,,,,,,,,,,,,,,,,,,,,,,,,,,,,,,,
1577742455.030069,16.000000,0.000000,4479.487305,4339.487305,4133.333496,4364.102539,4375.384766,0.000000,4.000000,,,,0.000000,4.000000,4.000000,4.000000,4.000000,4.000000,8.000000,0.000000,0.212293,-0.093994,0.880371,0.413574,0.521981,-0.602060,0.606943,12.309660,-47.547997,57.244026,,,,,,,,,,,,,,,,,,,,,,,,,
1577742455.037766,17.000000,0.000000,4424.615234,4329.230957,4102.563965,4325.641113,4325.641113,0.000000,4.000000,,,,0.000000,4.000000,4.000000,4.000000,4.000000,4.000000,,,,,,,,,,,,,,,,,,,,,,,,,,,,,,,,,,,,,
1577742455.045562,18.000000,0.000000,4388.717773,4314.358887,4091.281982,4317.948730,4290.769043,0.000000,4.000000,,,,0.000000,4.000000,4.000000,4.000000,4.000000,4.000000,9.000000,0.000000,0.211646,-0.094238,0.880615,0.413330,0.531746,-0.596689,0.604990,11.975924,-47.458794,57.680607,,,,,,,,,,,,,,,,,,,,,,,,,
1577742455.053258,19.000000,0.000000,4405.128418,4318.461426,4122.051270,4352.307617,4304.615234,0.000000,4.000000,,,,0.000000,4.000000,4.000000,4.000000,4.000000,4.000000,,,,,,,,,,,,,,,,,,,,,,,,,,,,,,,,,,,,,
1577742455.061055,20.000000,0.000000,4412.307617,4349.230957,4135.897461,4363.077148,4310.769043,0.000000,4.000000,,,,0.000000,4.000000,4.000000,4.000000,4.000000,4.000000,10.000000,0.000000,0.212551,-0.094482,0.880371,0.413330,0.518074,-0.586435,0.608408,7.787564,-47.617775,58.013714,,,,,,,,,,,,,,,,,,,,,,,,,
1577742455.068751,21.000000,0.000000,4404.615234,4371.794922,4129.230957,4367.692383,4310.256348,0.000000,4.000000,,,,0.000000,4.000000,4.000000,4.000000,4.000000,4.000000,,,,,,,,,,,,,,,,,,,,,,,,,,,,,,,,,,,,,
1577742455.076547,22.000000,0.000000,4387.692383,4347.692383,4115.384766,4357.436035,4302.563965,0.000000,4.000000,,,,0.000000,4.000000,4.000000,4.000000,4.000000,4.000000,11.000000,0.000000,0.212443,-0.094727,0.880371,0.413330,0.522469,-0.582040,0.593759,4.018039,-47.820671,58.313507,,,,,,,,,,,,,,,,,,,,,,,,,
1577742455.084244,23.000000,0.000000,4367.179688,4323.077148,4105.641113,4327.179688,4285.641113,0.000000,4.000000,,,,0.000000,4.000000,4.000000,4.000000,4.000000,4.000000,,,,,,,,,,,,,,,,,,,,,,,,,,,,,,,,,,,,,
1577742455.092040,24.000000,0.000000,4346.153809,4334.358887,4095.897461,4310.256348,4269.743652,0.000000,4.000000,,,,0.000000,4.000000,4.000000,4.000000,4.000000,4.000000,12.000000,0.000000,0.211858,-0.094971,0.880371,0.413574,0.535164,-0.589853,0.602548,7.264973,-47.823833,56.729050,,,,,,,,,,,,,,,,,,,,,,,,,
1577742455.099737,25.000000,0.000000,4336.922852,4345.641113,4097.436035,4325.128418,4266.153809,0.000000,4.000000,,,,0.000000,4.000000,4.000000,4.000000,4.000000,4.000000,,,,,,,,,,,,,,,,,,,,,,,,,,,,,,,,,,,,,
1577742455.107433,26.000000,0.000000,4340.512695,4330.256348,4115.897461,4353.333496,4271.282227,0.000000,4.000000,,,,0.000000,4.000000,4.000000,4.000000,4.000000,4.000000,13.000000,0.000000,0.211748,-0.095215,0.880371,0.413574,0.527352,-0.585946,0.594736,9.409613,-47.886497,57.336758,,,,,,,,,,,,,,,,,,,,,,,,,
1577742455.115230,27.000000,0.000000,4317.948730,4311.794922,4108.205078,4342.563965,4248.205078,0.000000,4.000000,,,,0.000000,4.000000,4.000000,4.000000,4.000000,4.000000,,,,,,,,,,,,,2.944155,10.312739,11.811804,6.128897,4.761695,1.424038,0.885674,2.828063,2.042367,1.775763,15.418440,8.959606,9.988262,5.272508,3.441396,2.783904,5.974871,17.075403,6.246128,5.529682,6.635659,7.336744,13.841613,5.869227,4.790341
1577742455.122926,28.000000,0.000000,4291.794922,4336.410156,4090.769287,4322.563965,4221.025879,0.000000,4.000000,,,,0.000000,4.000000,4.000000,4.000000,4.000000,4.000000,14.000000,0.000000,0.212285,-0.095215,0.880127,0.413818,0.536629,-0.572274,0.607431,12.057573,-47.942890,55.730343,,,,,,,,,,,,,,,,,,,,,,,,,
1577742455.130723,29.000000,0.000000,4312.307617,4359.487305,4111.282227,4354.358887,4243.589844,0.000000,4.000000,,,,0.000000,4.000000,4.000000,4.000000,4.000000,4.000000,,,,,,,,,,,,,,,,,,,,,,,,,,,,,,,,,,,,,
1577742455.138419,30.000000,0.000000,4320.512695,4333.333496,4133.333496,4372.307617,4261.538574,0.000000,4.000000,,,,0.000000,4.000000,4.000000,4.000000,4.000000,4.000000,15.000000,0.000000,0.211809,-0.095215,0.880127,0.414063,0.523445,-0.576181,0.618662,11.749046,-47.874016,56.378105,,,,,,,,,,,,,,,,,,,,,,,,,
1577742455.146216,31.000000,0.000000,4263.077148,4302.051270,4110.256348,4309.230957,4202.051270,0.000000,4.000000,,,,0.000000,4.000000,4.000000,4.000000,4.000000,4.000000,,,,,,,,,,,,,,,,,,,,,,,,,,,,,,,,,,,,,
1577742455.153913,32.000000,0.000000,4233.846191,4314.871582,4095.897461,4273.846191,4163.077148,0.000000,4.000000,,,,0.000000,4.000000,4.000000,4.000000,4.000000,4.000000,16.000000,0.000000,0.211441,-0.094971,0.880127,0.414307,0.519051,-0.596201,0.604990,11.411557,-47.871845,56.841461,,,,,,,,,,,,,,,,,,,,,,,,,
1577742455.161709,33.000000,0.000000,4270.256348,4354.358887,4117.436035,4315.384766,4208.205078,0.000000,4.000000,,,,0.000000,4.000000,4.000000,4.000000,4.000000,4.000000,,,,,,,,,,,,,,,,,,,,,,,,,,,,,,,,,,,,,
1577742455.169406,34.000000,0.000000,4260.512695,4357.948730,4107.179688,4312.307617,4211.794922,0.000000,4.000000,,,,0.000000,4.000000,4.000000,4.000000,4.000000,4.000000,17.000000,0.000000,0.211441,-0.094971,0.880127,0.414307,0.514168,-0.598642,0.594736,13.859324,-47.810074,55.344391,,,,,,,,,,,,,,,,,,,,,,,,,
1577742455.177202,35.000000,0.000000,4197.948730,4318.461426,4070.256348,4260.000000,4148.205078,0.000000,4.000000,,,,0.000000,4.000000,4.000000,4.000000,4.000000,4.000000,,,,,,,,,,,,,,,,,,,,,,,,,,,,,,,,,,,,,
1577742455.184899,36.000000,0.000000,4209.230957,4310.769043,4090.256348,4278.461426,4154.358887,0.000000,4.000000,,,,0.000000,4.000000,4.000000,4.000000,4.000000,4.000000,18.000000,0.000000,0.211499,-0.094971,0.879883,0.414795,0.525399,-0.595224,0.588388,13.370622,-47.754478,56.030750,,,,,,,,,,,,,,,,,,,,,,,,,
1577742455.192695,37.000000,0.000000,4254.358887,4335.897461,4126.153809,4321.538574,4200.000000,0.000000,4.000000,,,,0.000000,4.000000,4.000000,4.000000,4.000000,4.000000,,,,,,,,,,,,,,,,,,,,,,,,,,,,,,,,,,,,,
1577742455.200392,38.000000,0.000000,4230.769043,4321.025879,4107.692383,4293.846191,4185.641113,0.000000,4.000000,,,,0.000000,4.000000,4.000000,4.000000,4.000000,4.000000,19.000000,0.000000,0.211130,-0.094727,0.879883,0.415039,0.518563,-0.593759,0.597177,12.870975,-47.704445,56.708290,,,,,,,,,,,,,,,,,,,,,,,,,
1577742455.208188,39.000000,0.000000,4215.384766,4301.025879,4098.974121,4280.512695,4174.358887,0.000000,4.000000,,,,0.000000,4.000000,4.000000,4.000000,4.000000,4.000000,,,,,,,,,,,,,,,,,,,,,,,,,,,,,,,,,,,,,
1577742455.215884,40.000000,0.000000,4225.641113,4316.922852,4104.102539,4300.512695,4178.974121,0.000000,4.000000,,,,0.000000,4.000000,4.000000,4.000000,4.000000,4.000000,20.000000,0.000000,0.211775,-0.094482,0.879639,0.415283,0.504402,-0.593271,0.601572,12.481108,-47.599598,57.198444,,,,,,,,,,,,,,,,,,,,,,,,,
1577742455.223681,41.000000,0.000000,4196.922852,4330.769043,4076.923096,4281.538574,4151.794922,0.000000,4.000000,,,,0.000000,4.000000,4.000000,4.000000,4.000000,4.000000,,,,,,,,,,,,,,,,,,,,,,,,,,,,,,,,,,,,,
1577742455.231377,42.000000,0.000000,4191.282227,4324.615234,4077.435791,4276.922852,4147.692383,0.000000,4.000000,,,,0.000000,4.000000,4.000000,4.000000,4.000000,4.000000,21.000000,0.000000,0.211405,-0.094238,0.879639,0.415527,0.530770,-0.594736,0.606455,14.104135,-47.565052,57.400318,,,,,,,,,,,,,,,,,,,,,,,,,
1577742455.239074,43.000000,0.000000,4228.205078,4310.256348,4123.589844,4320.000000,4186.153809,0.000000,4.000000,,,,0.000000,4.000000,4.000000,4.000000,4.000000,4.000000,,,,,,,,,,,,,4.213738,9.246935,11.051734,5.869487,4.910884,1.871024,0.738068,2.693574,2.140882,1.856292,15.013857,8.333589,8.709963,5.012691,3.589470,2.712412,5.839867,15.700791,5.993176,5.758098,8.277389,6.141462,12.559271,5.627596,4.786100
1577742455.246870,44.000000,0.000000,4220.512695,4322.051270,4143.077148,4337.436035,4186.666504,0.000000,4.000000,,,,0.000000,4.000000,4.000000,4.000000,4.000000,4.000000,22.000000,0.000000,0.211569,-0.093994,0.879395,0.416016,0.535164,-0.598154,0.584482,13.590951,-47.653591,57.821270,,,,,,,,,,,,,,,,,,,,,,,,,
1577742455.254567,45.000000,0.000000,4198.974121,4352.307617,4129.230957,4321.538574,4166.666504,0.000000,4.000000,,,,0.000000,4.000000,4.000000,4.000000,4.000000,4.000000,,,,,,,,,,,,,,,,,,,,,,,,,,,,,,,,,,,,,
1577742455.262363,46.000000,0.000000,4225.128418,4339.487305,4133.846191,4324.615234,4188.205078,0.000000,4.000000,,,,0.000000,4.000000,4.000000,4.000000,4.000000,4.000000,23.000000,0.000000,0.211305,-0.093506,0.879395,0.416260,0.543465,-0.599130,0.592782,13.129086,-47.673462,58.020679,,,,,,,,,,,,,,,,,,,,,,,,,
1577742455.270060,47.000000,0.000000,4221.538574,4301.538574,4142.563965,4321.025879,4182.563965,0.000000,4.000000,,,,0.000000,4.000000,4.000000,4.000000,4.000000,4.000000,,,,,,,,,,,,,,,,,,,,,,,,,,,,,,,,,,,,,
1577742455.277857,48.000000,0.000000,4176.922852,4314.358887,4133.333496,4293.333496,4134.358887,0.000000,4.000000,,,,0.000000,4.000000,4.000000,4.000000,4.000000,4.000000,24.000000,0.000000,0.211039,-0.093018,0.879395,0.416504,0.530770,-0.624033,0.582040,12.593778,-47.631531,58.319778,,,,,,,,,,,,,,,,,,,,,,,,,
1577742455.285553,49.000000,0.000000,4168.205078,4345.641113,4125.641113,4290.256348,4120.000000,0.000000,4.000000,,,,0.000000,4.000000,4.000000,4.000000,4.000000,4.000000,,,,,,,,,,,,,,,,,,,,,,,,,,,,,,,,,,,,,
1577742455.293350,50.000000,0.000000,4181.538574,4330.256348,4126.666504,4306.153809,4134.871582,0.000000,4.000000,,,,0.000000,4.000000,4.000000,4.000000,4.000000,4.000000,25.000000,0.000000,0.210879,-0.092285,0.879395,0.416748,0.520027,-0.631846,0.583993,12.351261,-47.653606,58.588970,,,,,,,,,,,,,,,,,,,,,,,,,
1577742455.301046,51.000000,0.000000,4178.461426,4303.589844,4129.743652,4303.077148,4142.051270,0.000000,4.000000,,,,0.000000,4.000000,4.000000,4.000000,4.000000,4.000000,,,,,,,,,,,,,,,,,,,,,,,,,,,,,,,,,,,,,
1577742455.308843,52.000000,0.000000,4172.307617,4311.794922,4132.820313,4291.794922,4137.436035,0.000000,4.000000,,,,0.000000,4.000000,4.000000,4.000000,4.000000,4.000000,26.000000,0.000000,0.210662,-0.091553,0.879639,0.416504,0.513680,-0.629892,0.586435,8.125367,-47.613659,58.831238,,,,,,,,,,,,,,,,,,,,,,,,,
1577742455.316540,53.000000,0.000000,4193.846191,4337.948730,4158.974121,4318.461426,4156.922852,0.000000,4.000000,,,,0.000000,4.000000,4.000000,4.000000,4.000000,4.000000,,,,,,,,,,,,,,,,,,,,,,,,,,,,,,,,,,,,,
1577742455.324336,54.000000,0.000000,4224.102539,4336.410156,4188.205078,4354.871582,4189.743652,0.000000,4.000000,,,,0.000000,4.000000,4.000000,4.000000,4.000000,4.000000,27.000000,0.000000,0.211039,-0.093018,0.879395,0.416504,0.530770,-0.624033,0.582040,7.133384,-47.517891,58.989468,,,,,,,,,,,,,,,,,,,,,,,,,
1577742455.332033,55.000000,0.000000,4212.820313,4318.461426,4175.897461,4341.025879,4180.512695,0.000000,4.000000,,,,0.000000,4.000000,4.000000,4.000000,4.000000,4.000000,,,,,,,,,,,,,,,,,,,,,,,,,,,,,,,,,,,,,
1577742455.339829,56.000000,0.000000,4206.153809,4341.025879,4167.179688,4331.794922,4170.769043,0.000000,4.000000,,,,0.000000,4.000000,4.000000,4.000000,4.000000,4.000000,28.000000,0.000000,0.210662,-0.091553,0.879639,0.416504,0.513680,-0.629892,0.586435,3.429277,-47.491516,59.191689,,,,,,,,,,,,,,,,,,,,,,,,,
1577742455.347526,57.000000,0.000000,4231.282227,4352.820313,4187.692383,4353.846191,4191.282227,0.000000,4.000000,,,,0.000000,4.000000,4.000000,4.000000,4.000000,4.000000,,,,,,,,,,,,,,,,,,,,,,,,,,,,,,,,,,,,,
1577742455.355223,58.000000,0.000000,4198.461426,4305.128418,4167.179688,4321.538574,4157.948730,0.000000,4.000000,,,,0.000000,4.000000,4.000000,4.000000,4.000000,4.000000,29.000000,0.000000,0.210873,-0.091064,0.879639,0.416504,0.504402,-0.631846,0.584970,5.957487,-47.587410,59.373688,,,,,,,,,,,,,,,,,,,,,,,,,
1577742455.363020,59.000000,0.000000,4155.384766,4293.333496,4140.000000,4284.615234,4117.948730,0.000000,4.000000,,,,0.000000,4.000000,4.000000,4.000000,4.000000,4.000000,,,,,,,,,,,,,8.427333,8.645394,9.855822,5.644832,5.047204,2.218701,0.693422,2.359731,2.199334,2.031819,16.232468,7.852968,6.997325,4.700842,3.737909,2.780084,6.240143,13.395233,5.750807,5.895882,10.758740,5.381334,10.692774,5.426010,4.737378
1577742455.370816,60.000000,0.000000,4188.717773,4339.487305,4150.769043,4320.000000,4148.717773,0.000000,4.000000,,,,0.000000,4.000000,4.000000,4.000000,4.000000,4.000000,30.000000,0.000000,0.210064,-0.090576,0.879883,0.416504,0.505867,-0.628428,0.595224,6.139338,-47.733528,59.477669,,,,,,,,,,,,,,,,,,,,,,,,,
1577742455.378613,61.000000,0.000000,4208.717773,4359.487305,4131.282227,4337.948730,4162.563965,0.000000,4.000000,,,,0.000000,4.000000,4.000000,4.000000,4.000000,4.000000,,,,,,,,,,,,,,,,,,,,,,,,,,,,,,,,,,,,,
1577742455.386310,62.000000,0.000000,4179.487305,4348.205078,4091.794922,4315.384766,4137.948730,0.000000,4.000000,,,,0.000000,4.000000,4.000000,4.000000,4.000000,4.000000,31.000000,0.000000,0.210756,-0.090088,0.879883,0.416260,0.508309,-0.625986,0.588876,9.233957,-47.865036,59.631069,,,,,,,,,,,,,,,,,,,,,,,,,
1577742455.394006,63.000000,0.000000,4181.025879,4343.589844,4096.410156,4320.000000,4143.077148,0.000000,4.000000,,,,0.000000,4.000000,4.000000,4.000000,4.000000,4.000000,,,,,,,,,,,,,,,,,,,,,,,,,,,,,,,,,,,,,
1577742455.401803,64.000000,0.000000,4211.794922,4347.692383,4111.794922,4340.512695,4165.641113,450.000000,4.000000,,,,0.000000,4.000000,4.000000,4.000000,4.000000,4.000000,32.000000,0.000000,0.210427,-0.089600,0.880127,0.416016,0.497078,-0.633310,0.604990,12.078930,-47.863762,59.948578,,,,,,,,,,,,,,,,,,,,,,,,,
1577742455.409499,65.000000,0.000000,4211.794922,4349.743652,4096.410156,4333.846191,4162.051270,450.000000,4.000000,,,,0.000000,4.000000,4.000000,4.000000,4.000000,4.000000,,,,,,,,,,,,,,,,,,,,,,,,,,,,,,,,,,,,,
1577742455.417296,66.000000,0.000000,4177.436035,4330.256348,4074.871826,4302.563965,4138.974121,16210.000000,4.000000,,,,0.000000,4.000000,4.000000,4.000000,4.000000,4.000000,33.000000,0.000000,0.211012,-0.089355,0.880127,0.415771,0.504402,-0.647471,0.586923,11.648636,-47.982246,59.995071,,,,,,,,,,,,,,,,,,,,,,,,,
1577742455.424993,67.000000,0.000000,4174.358887,4319.487305,4086.153809,4297.436035,4135.897461,450.000000,4.000000,,,,0.000000,4.000000,4.000000,4.000000,4.000000,4.000000,,,,,,,,,,,,,,,,,,,,,,,,,,,,,,,,,,,,,
1577742455.432789,68.000000,0.000000,4222.051270,4356.922852,4124.102539,4332.820313,4174.871582,16239.000000,4.000000,,,,0.000000,4.000000,4.000000,4.000000,4.000000,4.000000,34.000000,0.000000,0.210474,-0.089355,0.880371,0.415527,0.505867,-0.635752,0.600107,14.132510,-47.969250,60.156548,,,,,,,,,,,,,,,,,,,,,,,,,
1577742455.440486,69.000000,0.000000,4235.384766,4370.256348,4137.948730,4342.051270,4194.871582,450.000000,4.000000,,,,0.000000,4.000000,4.000000,4.000000,4.000000,4.000000,,,,,,,,,,,,,,,,,,,,,,,,,,,,,,,,,,,,,
1577742455.448282,70.000000,0.000000,4193.333496,4322.563965,4125.641113,4309.743652,4163.077148,16159.000000,4.000000,,,,0.000000,4.000000,4.000000,4.000000,4.000000,4.000000,35.000000,0.000000,0.211059,-0.089111,0.880371,0.415283,0.499031,-0.614755,0.588876,13.676305,-47.957554,60.242058,,,,,,,,,,,,,,,,,,,,,,,,,
1577742455.455979,71.000000,0.000000,4197.436035,4320.000000,4133.846191,4308.205078,4164.615234,450.000000,4.000000,,,,0.000000,4.000000,4.000000,4.000000,4.000000,4.000000,,,,,,,,,,,,,,,,,,,,,,,,,,,,,,,,,,,,,
1577742455.463775,72.000000,0.000000,4220.512695,4367.179688,4136.922852,4311.794922,4186.153809,450.000000,4.000000,,,,0.000000,4.000000,4.000000,4.000000,4.000000,4.000000,36.000000,0.000000,0.211000,-0.089111,0.880615,0.414795,0.527840,-0.619150,0.584482,13.265720,-47.827396,60.558281,,,,,,,,,,,,,,,,,,,,,,,,,
1577742455.471472,73.000000,0.000000,4168.717773,4350.256348,4096.922852,4256.410156,4137.436035,16201.000000,4.000000,,,,0.000000,4.000000,4.000000,4.000000,4.000000,4.000000,,,,,,,,,,,,,,,,,,,,,,,,,,,,,,,,,,,,,
1577742455.479269,74.000000,0.000000,4116.410156,4309.230957,4066.153809,4204.615234,4080.512939,450.000000,4.000000,,,,0.000000,4.000000,4.000000,4.000000,4.000000,4.000000,37.000000,0.000000,0.211480,-0.089111,0.880615,0.414551,0.521981,-0.603525,0.588876,12.836379,-47.650440,60.783066,,,,,,,,,,,,,,,,,,,,,,,,,
1577742455.486965,75.000000,0.000000,4139.487305,4331.282227,4082.564209,4216.410156,4096.922852,16217.000000,4.000000,,,,0.000000,4.000000,4.000000,4.000000,4.000000,4.000000,,,,,,,,,,,,,16.479307,8.734548,8.681437,5.558388,5.152525,2.317913,0.789787,1.953888,2.238267,2.274690,17.508314,7.583529,5.408587,4.465556,3.864212,2.904979,6.984841,10.956741,5.663152,5.962204,14.083158,5.279976,8.836205,5.355930,4.685300
1577742455.494762,76.000000,0.000000,4155.384766,4358.974121,4088.205078,4225.641113,4118.461426,450.000000,4.000000,,,,0.000000,4.000000,4.000000,4.000000,4.000000,4.000000,38.000000,0.000000,0.211582,-0.088867,0.880615,0.414551,0.519051,-0.606455,0.593271,14.483694,-47.670628,60.865742,,,,,,,,,,,,,,,,,,,,,,,,,
1577742455.502458,77.000000,0.000000,4128.717773,4337.948730,4064.102539,4194.871582,4099.487305,450.000000,4.000000,,,,0.000000,4.000000,4.000000,4.000000,4.000000,4.000000,,,,,,,,,,,,,,,,,,,,,,,,,,,,,,,,,,,,,
1577742455.510155,78.000000,0.000000,4129.743652,4323.077148,4063.589844,4180.512695,4097.948730,450.000000,4.000000,,,,0.000000,4.000000,4.000000,4.000000,4.000000,4.000000,39.000000,0.000000,0.211044,-0.088867,0.880859,0.414307,0.520516,-0.615244,0.602060,12.915693,-47.688793,60.999966,,,,,,,,,,,,,,,,,,,,,,,,,
1577742455.517952,79.000000,0.000000,4173.333496,4362.051270,4106.153809,4216.410156,4137.948730,16217.000000,4.000000,,,,0.000000,4.000000,4.000000,4.000000,4.000000,4.000000,,,,,,,,,,,,,,,,,,,,,,,,,,,,,,,,,,,,,
1577742455.525748,80.000000,0.000000,4199.487305,4396.410156,4134.871582,4244.102539,4168.205078,450.000000,4.000000,,,,0.000000,4.000000,4.000000,4.000000,4.000000,4.000000,40.000000,0.000000,0.211146,-0.088623,0.880859,0.414307,0.517098,-0.610849,0.594736,12.282093,-47.525696,61.001137,,,,,,,,,,,,,,,,,,,,,,,,,
1577742455.533445,81.000000,0.000000,4175.897461,4374.358887,4111.794922,4210.256348,4155.897461,450.000000,4.000000,,,,0.000000,4.000000,4.000000,4.000000,4.000000,4.000000,,,,,,,,,,,,,,,,,,,,,,,,,,,,,,,,,,,,,
1577742455.541141,82.000000,0.000000,4145.641113,4331.794922,4080.000000,4162.051270,4126.666504,450.000000,4.000000,,,,0.000000,4.000000,4.000000,4.000000,4.000000,4.000000,41.000000,0.000000,0.211625,-0.088623,0.880859,0.414063,0.512215,-0.609873,0.601083,11.891299,-47.378910,59.207729,,,,,,,,,,,,,,,,,,,,,,,,,
1577742455.548938,83.000000,0.000000,4142.563965,4323.589844,4078.461426,4153.846191,4115.384766,16217.000000,4.000000,,,,0.000000,4.000000,4.000000,4.000000,4.000000,4.000000,,,,,,,,,,,,,,,,,,,,,,,,,,,,,,,,,,,,,
1577742455.556634,84.000000,0.000000,4154.358887,4353.846191,4098.461426,4167.179688,4130.769043,450.000000,4.000000,,,,0.000000,4.000000,4.000000,4.000000,4.000000,4.000000,42.000000,0.000000,0.211625,-0.088623,0.880859,0.414063,0.522957,-0.611826,0.595712,11.539584,-47.306618,59.388123,,,,,,,,,,,,,,,,,,,,,,,,,
1577742455.564431,85.000000,0.000000,4156.922852,4365.641113,4107.692383,4169.743652,4138.974121,450.000000,4.000000,,,,0.000000,4.000000,4.000000,4.000000,4.000000,4.000000,,,,,,,,,,,,,,,,,,,,,,,,,,,,,,,,,,,,,
1577742455.572128,86.000000,0.000000,4160.000000,4356.410156,4108.717773,4177.436035,4135.384766,450.000000,4.000000,,,,0.000000,4.000000,4.000000,4.000000,4.000000,4.000000,43.000000,0.000000,0.210708,-0.088379,0.881104,0.414063,0.510750,-0.588388,0.602548,11.223041,-47.361187,57.696201,,,,,,,,,,,,,,,,,,,,,,,,,
1577742455.579924,87.000000,0.000000,4173.333496,4358.461426,4121.025879,4195.384766,4148.205078,16217.000000,4.000000,,,,0.000000,4.000000,4.000000,4.000000,4.000000,4.000000,,,,,,,,,,,,,,,,,,,,,,,,,,,,,,,,,,,,,
1577742455.587621,88.000000,0.000000,4168.717773,4367.179688,4126.153809,4188.717773,4151.282227,450.000000,4.000000,,,,0.000000,4.000000,4.000000,4.000000,4.000000,4.000000,44.000000,0.000000,0.210811,-0.088135,0.881104,0.414063,0.510262,-0.595712,0.594736,13.809290,-47.350479,58.087566,,,,,,,,,,,,,,,,,,,,,,,,,
1577742455.595417,89.000000,0.000000,4170.769043,4367.179688,4124.615234,4185.641113,4149.743652,450.000000,4.000000,,,,0.000000,4.000000,4.000000,4.000000,4.000000,4.000000,,,,,,,,,,,,,,,,,,,,,,,,,,,,,,,,,,,,,
1577742455.603114,90.000000,0.000000,4194.358887,4363.077148,4128.717773,4210.256348,4163.589844,450.000000,4.000000,,,,0.000000,4.000000,4.000000,4.000000,4.000000,4.000000,45.000000,0.000000,0.210912,-0.087891,0.881104,0.414063,0.531258,-0.603037,0.590829,13.205960,-47.400661,58.439793,,,,,,,,,,,,,,,,,,,,,,,,,
1577742455.610910,91.000000,0.000000,4174.871582,4348.205078,4107.692383,4193.846191,4140.000000,16217.000000,4.000000,,,,0.000000,4.000000,4.000000,4.000000,4.000000,4.000000,,,,,,,,,,,,,27.704473,9.445664,7.890114,5.609825,5.220074,2.131778,1.007054,1.620249,2.292043,2.553102,17.608229,7.447219,4.357420,4.366283,3.933316,3.057344,7.732442,9.175611,5.764946,5.986512,17.944731,5.894547,7.511657,5.424697,4.674153
1577742455.618607,92.000000,0.000000,4126.666504,4340.000000,4070.769287,4149.743652,4092.820557,450.000000,4.000000,,,,0.000000,4.000000,4.000000,4.000000,4.000000,4.000000,46.000000,0.000000,0.211014,-0.087646,0.881104,0.414063,0.528817,-0.602548,0.585946,9.133858,-47.445824,56.842705,,,,,,,,,,,,,,,,,,,,,,,,,
1577742455.626404,93.000000,0.000000,4124.615234,4345.641113,4063.589844,4152.820313,4090.769287,450.000000,4.000000,,,,0.000000,4.000000,4.000000,4.000000,4.000000,4.000000,,,,,,,,,,,,,,,,,,,,,,,,,,,,,,,,,,,,,
1577742455.634100,94.000000,0.000000,4150.256348,4337.948730,4079.487061,4172.820313,4114.358887,450.000000,4.000000,,,,0.000000,4.000000,4.000000,4.000000,4.000000,4.000000,47.000000,0.000000,0.211216,-0.087158,0.881104,0.414063,0.518074,-0.617197,0.586923,11.929025,-47.426655,57.259602,,,,,,,,,,,,,,,,,,,,,,,,,
1577742455.641797,95.000000,0.000000,4157.948730,4341.025879,4101.025879,4173.846191,4121.538574,16217.000000,4.000000,,,,0.000000,4.000000,4.000000,4.000000,4.000000,4.000000,,,,,,,,,,,,,,,,,,,,,,,,,,,,,,,,,,,,,
1577742455.649593,96.000000,0.000000,4172.307617,4374.358887,4126.666504,4193.333496,4138.461426,450.000000,4.000000,,,,0.000000,4.000000,4.000000,4.000000,4.000000,4.000000,48.000000,0.000000,0.211417,-0.086670,0.881104,0.414063,0.531746,-0.623056,0.601572,11.513721,-47.529034,55.840347,,,,,,,,,,,,,,,,,,,,,,,,,
1577742455.657390,97.000000,0.000000,4184.615234,4378.974121,4116.410156,4205.641113,4153.846191,450.000000,4.000000,,,,0.000000,4.000000,4.000000,4.000000,4.000000,4.000000,,,,,,,,,,,,,,,,,,,,,,,,,,,,,,,,,,,,,
1577742455.665087,98.000000,0.000000,4173.333496,4348.205078,4080.512939,4183.589844,4146.153809,450.000000,4.000000,,,,0.000000,4.000000,4.000000,4.000000,4.000000,4.000000,49.000000,0.000000,0.212094,-0.086182,0.881104,0.413818,0.518074,-0.623545,0.591806,14.011086,-47.441730,54.563019,,,,,,,,,,,,,,,,,,,,,,,,,
1577742455.672783,99.000000,0.000000,4204.102539,4347.179688,4100.000000,4201.025879,4176.922852,16217.000000,4.000000,,,,0.000000,4.000000,4.000000,4.000000,4.000000,4.000000,,,,,,,,,,,,,,,,,,,,,,,,,,,,,,,,,,,,,
1577742455.680580,100.000000,0.000000,4276.922852,4377.436035,4151.794922,4262.563965,4249.743652,450.000000,4.000000,,,,0.000000,4.000000,4.000000,4.000000,4.000000,4.000000,50.000000,0.000000,0.212193,-0.085938,0.881104,0.413818,0.520027,-0.618173,0.588876,16.198900,-47.303341,55.267700,,,,,,,,,,,,,,,,,,,,,,,,,
1577742455.688276,101.000000,0.000000,4289.230957,4375.897461,4144.102539,4266.153809,4268.717773,450.000000,4.000000,,,,0.000000,4.000000,4.000000,4.000000,4.000000,4.000000,,,,,,,,,,,,,,,,,,,,,,,,,,,,,,,,,,,,,
1577742455.696073,102.000000,0.000000,4237.948730,4332.820313,4103.077148,4214.871582,4223.589844,450.000000,4.000000,,,,0.000000,4.000000,4.000000,4.000000,4.000000,4.000000,51.000000,0.000000,0.212291,-0.085693,0.881104,0.413818,0.523445,-0.605478,0.594736,15.356610,-47.358234,56.021542,,,,,,,,,,,,,,,,,,,,,,,,,
1577742455.703769,103.000000,0.000000,4213.846191,4318.974121,4095.384521,4190.769043,4191.794922,16217.000000,4.000000,,,,0.000000,4.000000,4.000000,4.000000,4.000000,4.000000,,,,,,,,,,,,,,,,,,,,,,,,,,,,,,,,,,,,,
1577742455.711566,104.000000,0.000000,4228.205078,4358.974121,4109.743652,4214.358887,4202.563965,450.000000,4.000000,,,,0.000000,4.000000,4.000000,4.000000,4.000000,4.000000,52.000000,0.000000,0.212390,-0.085449,0.881104,0.413818,0.528817,-0.609384,0.589364,14.837811,-47.467457,56.520557,,,,,,,,,,,,,,,,,,,,,,,,,
1577742455.719263,105.000000,0.000000,4220.000000,4368.717773,4107.692383,4233.846191,4205.128418,450.000000,4.000000,,,,0.000000,4.000000,4.000000,4.000000,4.000000,4.000000,,,,,,,,,,,,,,,,,,,,,,,,,,,,,,,,,,,,,
1577742455.727059,106.000000,0.000000,4180.512695,4334.871582,4083.076904,4209.743652,4174.358887,450.000000,4.000000,,,,0.000000,4.000000,4.000000,4.000000,4.000000,4.000000,53.000000,0.000000,0.211913,-0.085449,0.881104,0.414063,0.535653,-0.611337,0.588876,14.131629,-47.326496,57.149113,,,,,,,,,,,,,,,,,,,,,,,,,
1577742455.734756,107.000000,0.000000,4169.230957,4331.794922,4078.974365,4196.922852,4160.512695,16217.000000,4.000000,,,,0.000000,4.000000,4.000000,4.000000,4.000000,4.000000,,,,,,,,,,,,,39.318207,10.543398,7.563150,5.660625,5.246017,1.731729,1.277895,1.456863,2.368078,2.838612,16.052767,7.463847,3.979908,4.342737,3.901907,3.186169,8.149491,8.413890,5.906991,5.968453,21.218496,7.145770,6.916876,5.507438,4.714032
1577742455.742552,108.000000,0.000000,4200.000000,4359.487305,4111.794922,4236.922852,4191.282227,450.000000,4.000000,,,,0.000000,4.000000,4.000000,4.000000,4.000000,4.000000,54.000000,0.000000,0.211913,-0.085449,0.881104,0.414063,0.517586,-0.616709,0.595712,13.555882,-47.259445,57.834446,,,,,,,,,,,,,,,,,,,,,,,,,
1577742455.750349,109.000000,0.000000,4212.820313,4367.692383,4125.641113,4257.436035,4209.743652,450.000000,4.000000,,,,0.000000,4.000000,4.000000,4.000000,4.000000,4.000000,,,,,,,,,,,,,,,,,,,,,,,,,,,,,,,,,,,,,
1577742455.758045,110.000000,0.000000,4208.717773,4360.000000,4126.153809,4243.589844,4211.282227,450.000000,4.000000,,,,0.000000,4.000000,4.000000,4.000000,4.000000,4.000000,55.000000,0.000000,0.211337,-0.085693,0.881104,0.414307,0.515145,-0.610361,0.592294,13.157339,-47.258911,58.391430,,,,,,,,,,,,,,,,,,,,,,,,,
1577742455.765842,111.000000,0.000000,4218.974121,4350.256348,4138.461426,4247.692383,4222.563965,16217.000000,4.000000,,,,0.000000,4.000000,4.000000,4.000000,4.000000,4.000000,,,,,,,,,,,,,,,,,,,,,,,,,,,,,,,,,,,,,
1577742455.773539,112.000000,0.000000,4212.307617,4357.436035,4125.128418,4250.769043,4213.846191,450.000000,4.000000,,,,0.000000,4.000000,4.000000,4.000000,4.000000,4.000000,56.000000,0.000000,0.211913,-0.085449,0.881104,0.414063,0.535653,-0.611337,0.588876,11.662159,-47.437881,58.593639,,,,,,,,,,,,,,,,,,,,,,,,,
1577742455.781235,113.000000,0.000000,4196.410156,4369.743652,4102.051270,4243.589844,4192.307617,450.000000,4.000000,,,,0.000000,4.000000,4.000000,4.000000,4.000000,4.000000,,,,,,,,,,,,,,,,,,,,,,,,,,,,,,,,,,,,,
1577742455.789032,114.000000,0.000000,4203.077148,4356.922852,4111.794922,4255.897461,4193.333496,450.000000,4.000000,,,,0.000000,4.000000,4.000000,4.000000,4.000000,4.000000,57.000000,0.000000,0.211337,-0.085693,0.881104,0.414307,0.515145,-0.610361,0.592294,11.452989,-47.419506,59.074703,,,,,,,,,,,,,,,,,,,,,,,,,
1577742455.796728,115.000000,0.000000,4193.333496,4350.769043,4109.230957,4249.230957,4180.000000,16217.000000,4.000000,,,,0.000000,4.000000,4.000000,4.000000,4.000000,4.000000,,,,,,,,,,,,,,,,,,,,,,,,,,,,,,,,,,,,,
1577742455.804525,116.000000,0.000000,4167.692383,4372.820313,4083.076904,4224.102539,4152.307617,450.000000,4.000000,,,,0.000000,4.000000,4.000000,4.000000,4.000000,4.000000,58.000000,0.000000,0.211337,-0.085693,0.881104,0.414307,0.509285,-0.608896,0.591806,7.436553,-47.402969,57.354309,,,,,,,,,,,,,,,,,,,,,,,,,
1577742455.812222,117.000000,0.000000,4188.205078,4375.384766,4098.461426,4250.256348,4167.179688,450.000000,4.000000,,,,0.000000,4.000000,4.000000,4.000000,4.000000,4.000000,,,,,,,,,,,,,,,,,,,,,,,,,,,,,,,,,,,,,
1577742455.820018,118.000000,0.000000,4226.153809,4357.436035,4134.358887,4293.333496,4199.487305,450.000000,4.000000,,,,0.000000,4.000000,4.000000,4.000000,4.000000,4.000000,59.000000,0.000000,0.211337,-0.085693,0.881104,0.414307,0.504891,-0.614755,0.597177,7.530312,-47.268456,57.540600,,,,,,,,,,,,,,,,,,,,,,,,,
1577742455.827715,119.000000,0.000000,4200.512695,4349.743652,4116.922852,4267.692383,4180.000000,16217.000000,4.000000,,,,0.000000,4.000000,4.000000,4.000000,4.000000,4.000000,,,,,,,,,,,,,,,,,,,,,,,,,,,,,,,,,,,,,
1577742455.835411,120.000000,0.000000,4157.948730,4355.897461,4099.487305,4235.384766,4148.717773,450.000000,4.000000,,,,0.000000,4.000000,4.000000,4.000000,4.000000,4.000000,60.000000,0.000000,0.210957,-0.085449,0.881104,0.414551,0.516121,-0.608408,0.601083,10.485834,-47.386654,57.947521,,,,,,,,,,,,,,,,,,,,,,,,,
1577742455.843108,121.000000,0.000000,4186.153809,4373.333496,4131.794922,4270.769043,4178.974121,450.000000,4.000000,,,,0.000000,4.000000,4.000000,4.000000,4.000000,4.000000,,,,,,,,,,,,,,,,,,,,,,,,,,,,,,,,,,,,,
1577742455.850905,122.000000,0.000000,4225.641113,4367.692383,4140.512695,4302.051270,4218.461426,450.000000,4.000000,,,,0.000000,4.000000,4.000000,4.000000,4.000000,4.000000,61.000000,0.000000,0.211974,-0.085449,0.880859,0.414551,0.525887,-0.627939,0.594247,12.788269,-47.469147,58.523731,,,,,,,,,,,,,,,,,,,,,,,,,
1577742455.858702,123.000000,0.000000,4205.641113,4338.461426,4106.153809,4283.589844,4203.589844,16217.000000,4.000000,,,,0.000000,4.000000,4.000000,4.000000,4.000000,4.000000,,,,,,,,,,,,,47.684937,11.685551,7.523537,5.510479,5.219642,1.270244,1.508117,1.490579,2.442822,3.117667,13.378508,7.723464,4.202472,4.267018,3.744913,3.273745,8.125689,8.538012,5.855484,5.872296,22.889496,8.870922,6.938295,5.418118,4.766626
1577742455.866398,124.000000,0.000000,4172.307617,4345.641113,4084.102539,4266.153809,4173.333496,450.000000,4.000000,,,,0.000000,4.000000,4.000000,4.000000,4.000000,4.000000,62.000000,0.000000,0.211974,-0.085449,0.880859,0.414551,0.521004,-0.617197,0.593271,12.466488,-47.447643,56.918247,,,,,,,,,,,,,,,,,,,,,,,,,
1577742455.874195,125.000000,0.000000,4186.666504,4389.743652,4099.487305,4288.717773,4186.153809,450.000000,4.000000,,,,0.000000,4.000000,4.000000,4.000000,4.000000,4.000000,,,,,,,,,,,,,,,,,,,,,,,,,,,,,,,,,,,,,
1577742455.881892,126.000000,0.000000,4240.000000,4396.410156,4143.077148,4350.769043,4232.820313,450.000000,4.000000,,,,0.000000,4.000000,4.000000,4.000000,4.000000,4.000000,63.000000,0.000000,0.211875,-0.085693,0.880859,0.414551,0.513680,-0.621103,0.602548,12.057254,-47.248848,55.353683,,,,,,,,,,,,,,,,,,,,,,,,,
1577742455.889688,127.000000,0.000000,4260.000000,4351.282227,4158.974121,4380.512695,4244.615234,236.000000,4.000000,,,,0.000000,4.000000,4.000000,4.000000,4.000000,4.000000,,,,,,,,,,,,,,,,,,,,,,,,,,,,,,,,,,,,,
1577742455.897385,0.000000,0.000000,4228.205078,4346.666504,4130.769043,4354.871582,4215.384766,450.000000,4.000000,,,,0.000000,4.000000,4.000000,4.000000,4.000000,4.000000,0.000000,0.000000,0.210858,-0.085693,0.881104,0.414551,0.516121,-0.615244,0.587900,14.500266,-47.369007,54.065205,,,,,,,,,,,,,,,,,,,,,,,,,
1577742455.905181,1.000000,0.000000,4216.922852,4378.974121,4125.128418,4347.179688,4209.743652,450.000000,4.000000,,,,0.000000,4.000000,4.000000,4.000000,4.000000,4.000000,,,,,,,,,,,,,,,,,,,,,,,,,,,,,,,,,,,,,
1577742455.912878,2.000000,0.000000,4229.743652,4374.871582,4140.512695,4360.000000,4224.102539,16214.000000,4.000000,,,,0.000000,4.000000,4.000000,4.000000,4.000000,4.000000,1.000000,0.000000,0.211337,-0.085693,0.881104,0.414307,0.520516,-0.611826,0.604990,10.298733,-47.297707,54.759853,,,,,,,,,,,,,,,,,,,,,,,,,
1577742455.920674,3.000000,0.000000,4210.769043,4353.333496,4123.589844,4336.922852,4207.692383,450.000000,4.000000,,,,0.000000,4.000000,4.000000,4.000000,4.000000,4.000000,,,,,,,,,,,,,,,,,,,,,,,,,,,,,,,,,,,,,
1577742455.928371,4.000000,0.000000,4175.384766,4353.846191,4100.000000,4307.692383,4179.487305,16239.000000,4.000000,,,,0.000000,4.000000,4.000000,4.000000,4.000000,4.000000,2.000000,0.000000,0.211337,-0.085693,0.881104,0.414307,0.518074,-0.598642,0.596201,13.037228,-47.412979,55.444851,,,,,,,,,,,,,,,,,,,,,,,,,
1577742455.936168,5.000000,0.000000,4173.846191,4359.487305,4106.666504,4309.230957,4181.025879,450.000000,4.000000,,,,0.000000,4.000000,4.000000,4.000000,4.000000,4.000000,,,,,,,,,,,,,,,,,,,,,,,,,,,,,,,,,,,,,
1577742455.943864,6.000000,0.000000,4194.358887,4354.358887,4121.025879,4323.589844,4196.922852,16153.000000,4.000000,,,,0.000000,4.000000,4.000000,4.000000,4.000000,4.000000,3.000000,0.000000,0.211815,-0.085693,0.881104,0.414063,0.516609,-0.595712,0.588876,12.570920,-47.337280,56.001534,,,,,,,,,,,,,,,,,,,,,,,,,
1577742455.951561,7.000000,0.000000,4208.205078,4358.974121,4126.666504,4330.769043,4203.589844,450.000000,4.000000,,,,0.000000,4.000000,4.000000,4.000000,4.000000,4.000000,,,,,,,,,,,,,,,,,,,,,,,,,,,,,,,,,,,,,
1577742455.959358,8.000000,0.000000,4211.794922,4366.153809,4123.077148,4324.615234,4201.025879,450.000000,4.000000,,,,0.000000,4.000000,4.000000,4.000000,4.000000,4.000000,4.000000,0.000000,0.211815,-0.085693,0.881104,0.414063,0.523934,-0.604501,0.591806,14.304596,-47.388783,56.681992,,,,,,,,,,,,,,,,,,,,,,,,,
1577742455.967055,9.000000,0.000000,4211.282227,4369.230957,4120.000000,4324.615234,4203.077148,16196.000000,4.000000,,,,0.000000,4.000000,4.000000,4.000000,4.000000,4.000000,,,,,,,,,,,,,,,,,,,,,,,,,,,,,,,,,,,,,
1577742455.974851,10.000000,0.000000,4224.102539,4378.461426,4129.743652,4342.563965,4220.000000,450.000000,4.000000,,,,0.000000,4.000000,4.000000,4.000000,4.000000,4.000000,5.000000,0.000000,0.211238,-0.085938,0.881104,0.414307,0.516121,-0.593759,0.588388,11.917090,-47.435131,57.174774,,,,,,,,,,,,,,,,,,,,,,,,,
1577742455.982548,11.000000,0.000000,4227.179688,4361.538574,4131.282227,4346.153809,4217.436035,16214.000000,4.000000,,,,0.000000,4.000000,4.000000,4.000000,4.000000,4.000000,,,,,,,,,,,,,50.201759,12.670013,7.660943,5.061415,5.142243,0.916629,1.629315,1.696478,2.469974,3.386857,10.603169,8.363384,4.848494,4.053833,3.488823,3.514244,7.846807,9.162789,5.456695,5.673985,22.573273,10.934775,7.414999,5.058668,4.778920
1577742455.990345,12.000000,0.000000,4214.358887,4343.589844,4117.948730,4330.769043,4202.051270,450.000000,4.000000,,,,0.000000,4.000000,4.000000,4.000000,4.000000,4.000000,6.000000,0.000000,0.211238,-0.085938,0.881104,0.414307,0.521004,-0.599130,0.606943,11.622612,-47.297401,57.737911,,,,,,,,,,,,,,,,,,,,,,,,,
1577742455.998042,13.000000,0.000000,4231.282227,4361.025879,4127.692383,4336.410156,4227.179688,450.000000,4.000000,,,,0.000000,4.000000,4.000000,4.000000,4.000000,4.000000,,,,,,,,,,,,,,,,,,,,,,,,,,,,,,,,,,,,,
1577742456.005838,14.000000,0.000000,4237.948730,4365.128418,4128.717773,4327.692383,4236.922852,450.000000,4.000000,,,,0.000000,4.000000,4.000000,4.000000,4.000000,4.000000,7.000000,0.000000,0.210758,-0.085938,0.881104,0.414551,0.519051,-0.606943,0.599130,11.297766,-47.233261,58.184917,,,,,,,,,,,,,,,,,,,,,,,,,
1577742456.013535,15.000000,0.000000,4201.538574,4338.974121,4087.179443,4285.128418,4193.333496,16214.000000,4.000000,,,,0.000000,4.000000,4.000000,4.000000,4.000000,4.000000,,,,,,,,,,,,,,,,,,,,,,,,,,,,,,,,,,,,,
1577742456.021331,16.000000,0.000000,4196.922852,4340.000000,4073.846191,4276.922852,4180.000000,0.000000,4.000000,,,,0.000000,4.000000,4.000000,4.000000,4.000000,4.000000,8.000000,0.000000,0.210758,-0.085938,0.881104,0.414551,0.516609,-0.605966,0.606943,13.816727,-47.295162,58.587223,,,,,,,,,,,,,,,,,,,,,,,,,
1577742456.029028,17.000000,0.000000,4237.436035,4364.615234,4106.666504,4300.000000,4214.871582,0.000000,4.000000,,,,0.000000,4.000000,4.000000,4.000000,4.000000,4.000000,,,,,,,,,,,,,,,,,,,,,,,,,,,,,,,,,,,,,
1577742456.036825,18.000000,0.000000,4253.846191,4368.205078,4115.897461,4298.461426,4224.102539,0.000000,4.000000,,,,0.000000,4.000000,4.000000,4.000000,4.000000,4.000000,9.000000,0.000000,0.210758,-0.085938,0.881104,0.414551,0.512703,-0.608896,0.596201,13.392099,-47.291061,58.949299,,,,,,,,,,,,,,,,,,,,,,,,,
1577742456.044521,19.000000,0.000000,4247.692383,4360.000000,4106.666504,4286.666504,4210.769043,0.000000,4.000000,,,,0.000000,4.000000,4.000000,4.000000,4.000000,4.000000,,,,,,,,,,,,,,,,,,,,,,,,,,,,,,,,,,,,,
1577742456.052318,20.000000,0.000000,4254.871582,4351.794922,4117.948730,4292.307617,4217.436035,0.000000,4.000000,,,,0.000000,4.000000,4.000000,4.000000,4.000000,4.000000,10.000000,0.000000,0.210858,-0.085693,0.881104,0.414551,0.507332,-0.622080,0.607431,9.121937,-47.347183,59.394798,,,,,,,,,,,,,,,,,,,,,,,,,
1577742456.060014,21.000000,0.000000,4251.282227,4357.436035,4121.025879,4290.769043,4215.384766,0.000000,4.000000,,,,0.000000,4.000000,4.000000,4.000000,4.000000,4.000000,,,,,,,,,,,,,,,,,,,,,,,,,,,,,,,,,,,,,
1577742456.067811,22.000000,0.000000,4251.282227,4392.307617,4119.487305,4291.794922,4217.948730,0.000000,4.000000,,,,0.000000,4.000000,4.000000,4.000000,4.000000,4.000000,11.000000,0.000000,0.210377,-0.085693,0.881104,0.414795,0.522469,-0.600107,0.591806,9.106974,-47.457512,59.616302,,,,,,,,,,,,,,,,,,,,,,,,,
1577742456.075507,23.000000,0.000000,4260.000000,4388.205078,4127.692383,4299.487305,4231.282227,0.000000,4.000000,,,,0.000000,4.000000,4.000000,4.000000,4.000000,4.000000,,,,,,,,,,,,,,,,,,,,,,,,,,,,,,,,,,,,,
1577742456.083304,24.000000,0.000000,4217.436035,4324.102539,4093.333252,4252.820313,4184.102539,0.000000,4.000000,,,,0.000000,4.000000,4.000000,4.000000,4.000000,4.000000,12.000000,0.000000,0.210377,-0.085693,0.881104,0.414795,0.525887,-0.611337,0.607919,9.213138,-47.437172,59.755840,,,,,,,,,,,,,,,,,,,,,,,,,
1577742456.091001,25.000000,0.000000,4172.820313,4315.384766,4052.820557,4203.589844,4130.769043,0.000000,4.000000,,,,0.000000,4.000000,4.000000,4.000000,4.000000,4.000000,,,,,,,,,,,,,,,,,,,,,,,,,,,,,,,,,,,,,
1577742456.098697,26.000000,0.000000,4198.974121,4363.589844,4073.333252,4231.794922,4154.871582,0.000000,4.000000,,,,0.000000,4.000000,4.000000,4.000000,4.000000,4.000000,13.000000,0.000000,0.210917,-0.085693,0.880859,0.415039,0.516609,-0.610849,0.604990,9.069424,-47.418869,57.967331,,,,,,,,,,,,,,,,,,,,,,,,,
1577742456.106494,27.000000,0.000000,4231.794922,4358.974121,4103.077148,4271.794922,4189.230957,0.000000,4.000000,,,,0.000000,4.000000,4.000000,4.000000,4.000000,4.000000,,,,,,,,,,,,,46.110165,13.546219,7.993113,4.365433,5.027380,0.751104,1.636758,2.023582,2.398454,3.635332,8.507860,9.391260,5.789468,3.712058,3.202766,3.937274,7.655844,9.981388,4.723756,5.388071,20.531969,13.257114,8.262778,4.454820,4.709857
1577742456.114191,28.000000,0.000000,4238.461426,4350.769043,4119.487305,4283.589844,4199.487305,0.000000,4.000000,,,,0.000000,4.000000,4.000000,4.000000,4.000000,4.000000,14.000000,0.000000,0.210436,-0.085693,0.880859,0.415283,0.521981,-0.607431,0.595712,9.059711,-47.641659,58.391396,,,,,,,,,,,,,,,,,,,,,,,,,
1577742456.121988,29.000000,0.000000,4247.692383,4381.538574,4136.410156,4298.461426,4213.846191,0.000000,4.000000,,,,0.000000,4.000000,4.000000,4.000000,4.000000,4.000000,,,,,,,,,,,,,,,,,,,,,,,,,,,,,,,,,,,,,
1577742456.129685,30.000000,0.000000,4234.358887,4360.000000,4129.743652,4295.897461,4204.615234,0.000000,4.000000,,,,0.000000,4.000000,4.000000,4.000000,4.000000,4.000000,15.000000,0.000000,0.209895,-0.085693,0.881104,0.415039,0.523445,-0.627451,0.590341,9.230417,-47.722538,58.653423,,,,,,,,,,,,,,,,,,,,,,,,,
1577742456.137481,31.000000,0.000000,4202.051270,4322.051270,4109.743652,4275.897461,4173.333496,0.000000,4.000000,,,,0.000000,4.000000,4.000000,4.000000,4.000000,4.000000,,,,,,,,,,,,,,,,,,,,,,,,,,,,,,,,,,,,,
1577742456.145178,32.000000,0.000000,4221.025879,4363.077148,4125.641113,4297.436035,4188.717773,0.000000,4.000000,,,,0.000000,4.000000,4.000000,4.000000,4.000000,4.000000,16.000000,0.000000,0.209895,-0.085693,0.881104,0.415039,0.512215,-0.617685,0.606455,11.178513,-47.735512,58.889248,,,,,,,,,,,,,,,,,,,,,,,,,
1577742456.152975,33.000000,0.000000,4262.051270,4400.512695,4150.769043,4331.794922,4223.589844,0.000000,4.000000,,,,0.000000,4.000000,4.000000,4.000000,4.000000,4.000000,,,,,,,,,,,,,,,,,,,,,,,,,,,,,,,,,,,,,
1577742456.160672,34.000000,0.000000,4253.333496,4369.743652,4139.487305,4320.000000,4220.000000,0.000000,4.000000,,,,0.000000,4.000000,4.000000,4.000000,4.000000,4.000000,17.000000,0.000000,0.210377,-0.085693,0.881104,0.414795,0.519051,-0.618173,0.599619,9.941031,-47.627560,59.101490,,,,,,,,,,,,,,,,,,,,,,,,,
1577742456.168469,35.000000,0.000000,4227.692383,4345.641113,4116.922852,4299.487305,4202.563965,0.000000,4.000000,,,,0.000000,4.000000,4.000000,4.000000,4.000000,4.000000,,,,,,,,,,,,,,,,,,,,,,,,,,,,,,,,,,,,,
1577742456.176266,36.000000,0.000000,4241.538574,4362.051270,4116.922852,4311.282227,4210.256348,0.000000,4.000000,,,,0.000000,4.000000,4.000000,4.000000,4.000000,4.000000,18.000000,0.000000,0.210377,-0.085693,0.881104,0.414795,0.513191,-0.611337,0.598642,6.135606,-47.590218,59.232693,,,,,,,,,,,,,,,,,,,,,,,,,
1577742456.183962,37.000000,0.000000,4266.153809,4363.589844,4129.743652,4327.179688,4229.230957,0.000000,4.000000,,,,0.000000,4.000000,4.000000,4.000000,4.000000,4.000000,,,,,,,,,,,,,,,,,,,,,,,,,,,,,,,,,,,,,
1577742456.191659,38.000000,0.000000,4256.410156,4340.000000,4125.641113,4316.410156,4227.692383,0.000000,4.000000,,,,0.000000,4.000000,4.000000,4.000000,4.000000,4.000000,19.000000,0.000000,0.210277,-0.085938,0.881104,0.414795,0.516121,-0.590829,0.599619,8.393183,-47.556610,59.350777,,,,,,,,,,,,,,,,,,,,,,,,,
1577742456.199455,39.000000,0.000000,4251.794922,4354.871582,4115.384766,4313.333496,4223.077148,0.000000,4.000000,,,,0.000000,4.000000,4.000000,4.000000,4.000000,4.000000,,,,,,,,,,,,,,,,,,,,,,,,,,,,,,,,,,,,,
1577742456.207152,40.000000,0.000000,4260.000000,4384.615234,4112.820313,4321.538574,4226.666504,0.000000,4.000000,,,,0.000000,4.000000,4.000000,4.000000,4.000000,4.000000,20.000000,0.000000,0.210377,-0.085693,0.881104,0.414795,0.519051,-0.618173,0.599619,7.434234,-47.466549,59.516865,,,,,,,,,,,,,,,,,,,,,,,,,
1577742456.214948,41.000000,0.000000,4253.333496,4364.615234,4114.871582,4307.692383,4224.102539,0.000000,4.000000,,,,0.000000,4.000000,4.000000,4.000000,4.000000,4.000000,,,,,,,,,,,,,,,,,,,,,,,,,,,,,,,,,,,,,
1577742456.222645,42.000000,0.000000,4256.410156,4343.589844,4124.615234,4297.948730,4226.666504,0.000000,4.000000,,,,0.000000,4.000000,4.000000,4.000000,4.000000,4.000000,21.000000,0.000000,0.210277,-0.085938,0.881104,0.414795,0.516121,-0.590829,0.599619,9.561948,-47.445305,59.606533,,,,,,,,,,,,,,,,,,,,,,,,,
1577742456.230442,43.000000,0.000000,4254.358887,4348.717773,4120.512695,4297.948730,4226.153809,0.000000,4.000000,,,,0.000000,4.000000,4.000000,4.000000,4.000000,4.000000,,,,,,,,,,,,,37.226936,14.358604,8.524074,3.586873,4.900698,0.763033,1.556763,2.392350,2.207236,3.838016,7.253860,10.458569,6.933521,3.337696,2.970102,4.788343,7.716705,10.790075,3.827122,5.063634,17.792328,15.560324,9.375215,3.747780,4.554490
1577742456.238138,44.000000,0.000000,4221.025879,4345.128418,4101.538574,4277.436035,4201.538574,0.000000,4.000000,,,,0.000000,4.000000,4.000000,4.000000,4.000000,4.000000,22.000000,0.000000,0.209795,-0.085938,0.881104,0.415039,0.519051,-0.605966,0.591318,12.314305,-47.186928,59.747044,,,,,,,,,,,,,,,,,,,,,,,,,
1577742456.245935,45.000000,0.000000,4215.897461,4351.794922,4111.282227,4272.307617,4197.948730,0.000000,4.000000,,,,0.000000,4.000000,4.000000,4.000000,4.000000,4.000000,,,,,,,,,,,,,,,,,,,,,,,,,,,,,,,,,,,,,
1577742456.253631,46.000000,0.000000,4267.179688,4394.358887,4153.333496,4313.333496,4244.615234,0.000000,4.000000,,,,0.000000,4.000000,4.000000,4.000000,4.000000,4.000000,23.000000,0.000000,0.210336,-0.085938,0.880859,0.415283,0.514168,-0.619150,0.584970,11.920290,-47.373096,59.993137,,,,,,,,,,,,,,,,,,,,,,,,,
1577742456.261328,47.000000,0.000000,4294.871582,4395.384766,4165.128418,4337.436035,4268.717773,0.000000,4.000000,,,,0.000000,4.000000,4.000000,4.000000,4.000000,4.000000,,,,,,,,,,,,,,,,,,,,,,,,,,,,,,,,,,,,,
1577742456.269125,48.000000,0.000000,4266.666504,4341.538574,4136.922852,4308.717773,4237.436035,0.000000,4.000000,,,,0.000000,4.000000,4.000000,4.000000,4.000000,4.000000,24.000000,0.000000,0.210436,-0.085693,0.880859,0.415283,0.517098,-0.623056,0.590341,7.916939,-47.241570,59.975361,,,,,,,,,,,,,,,,,,,,,,,,,
1577742456.276822,49.000000,0.000000,4236.410156,4338.461426,4112.820313,4272.820313,4202.051270,0.000000,4.000000,,,,0.000000,4.000000,4.000000,4.000000,4.000000,4.000000,,,,,,,,,,,,,,,,,,,,,,,,,,,,,,,,,,,,,
1577742456.284619,50.000000,0.000000,4238.461426,4372.307617,4109.743652,4263.077148,4194.871582,0.000000,4.000000,,,,0.000000,4.000000,4.000000,4.000000,4.000000,4.000000,25.000000,0.000000,0.210436,-0.085693,0.880859,0.415283,0.518074,-0.616709,0.596689,4.134477,-47.242825,60.138809,,,,,,,,,,,,,,,,,,,,,,,,,
1577742456.292415,51.000000,0.000000,4267.692383,4363.077148,4126.666504,4282.051270,4215.897461,0.000000,4.000000,,,,0.000000,4.000000,4.000000,4.000000,4.000000,4.000000,,,,,,,,,,,,,,,,,,,,,,,,,,,,,,,,,,,,,
1577742456.300112,52.000000,0.000000,4286.153809,4354.358887,4139.487305,4299.487305,4232.820313,0.000000,4.000000,,,,0.000000,4.000000,4.000000,4.000000,4.000000,4.000000,26.000000,0.000000,0.210436,-0.085693,0.880859,0.415283,0.513680,-0.614267,0.590341,4.558444,-47.423405,60.345726,,,,,,,,,,,,,,,,,,,,,,,,,
1577742456.307909,53.000000,0.000000,4281.025879,4387.692383,4135.897461,4288.717773,4226.666504,0.000000,4.000000,,,,0.000000,4.000000,4.000000,4.000000,4.000000,4.000000,,,,,,,,,,,,,,,,,,,,,,,,,,,,,,,,,,,,,
1577742456.315605,54.000000,0.000000,4278.974121,4398.461426,4138.974121,4277.948730,4218.461426,0.000000,4.000000,,,,0.000000,4.000000,4.000000,4.000000,4.000000,4.000000,27.000000,0.000000,0.209953,-0.085693,0.880859,0.415527,0.519051,-0.609384,0.601572,5.179276,-47.526108,60.352505,,,,,,,,,,,,,,,,,,,,,,,,,
1577742456.323302,55.000000,0.000000,4265.128418,4354.358887,4138.461426,4268.205078,4203.589844,0.000000,4.000000,,,,0.000000,4.000000,4.000000,4.000000,4.000000,4.000000,,,,,,,,,,,,,,,,,,,,,,,,,,,,,,,,,,,,,
1577742456.331099,56.000000,0.000000,4239.487305,4328.717773,4123.589844,4250.769043,4183.077148,0.000000,4.000000,,,,0.000000,4.000000,4.000000,4.000000,4.000000,4.000000,28.000000,0.000000,0.209953,-0.085693,0.880859,0.415527,0.517586,-0.601572,0.599619,5.558579,-47.678356,60.478237,,,,,,,,,,,,,,,,,,,,,,,,,
1577742456.338796,57.000000,0.000000,4253.846191,4361.025879,4136.410156,4264.102539,4201.025879,0.000000,4.000000,,,,0.000000,4.000000,4.000000,4.000000,4.000000,4.000000,,,,,,,,,,,,,,,,,,,,,,,,,,,,,,,,,,,,,
1577742456.346592,58.000000,0.000000,4297.436035,4386.666504,4170.256348,4303.077148,4244.615234,0.000000,4.000000,,,,0.000000,4.000000,4.000000,4.000000,4.000000,4.000000,29.000000,0.000000,0.209569,-0.085449,0.880859,0.415771,0.509773,-0.616709,0.587900,5.840137,-47.695751,60.531582,,,,,,,,,,,,,,,,,,,,,,,,,
1577742456.354289,59.000000,0.000000,4306.666504,4355.897461,4171.282227,4310.256348,4251.282227,0.000000,4.000000,,,,0.000000,4.000000,4.000000,4.000000,4.000000,4.000000,,,,,,,,,,,,,26.842655,15.007608,9.190414,2.949809,4.795813,0.852516,1.438619,2.705607,1.945845,3.970237,6.509785,11.059902,8.125619,3.071235,2.855053,5.924844,7.968301,11.473994,3.039761,4.770576,15.423176,17.397762,10.502121,3.155531,4.358898
1577742456.362086,60.000000,0.000000,4283.589844,4336.922852,4146.153809,4287.692383,4223.589844,0.000000,4.000000,,,,0.000000,4.000000,4.000000,4.000000,4.000000,4.000000,30.000000,0.000000,0.209084,-0.085449,0.880859,0.416016,0.502937,-0.619638,0.594736,6.332799,-47.771221,60.519775,,,,,,,,,,,,,,,,,,,,,,,,,
1577742456.369883,61.000000,0.000000,4275.384766,4366.666504,4135.897461,4282.051270,4209.743652,0.000000,4.000000,,,,0.000000,4.000000,4.000000,4.000000,4.000000,4.000000,,,,,,,,,,,,,,,,,,,,,,,,,,,,,,,,,,,,,
1577742456.377580,62.000000,0.000000,4289.743652,4383.077148,4153.846191,4302.051270,4228.205078,0.000000,4.000000,,,,0.000000,4.000000,4.000000,4.000000,4.000000,4.000000,31.000000,0.000000,0.210110,-0.085449,0.880615,0.416016,0.508309,-0.629892,0.594736,6.656565,-47.659698,60.628780,,,,,,,,,,,,,,,,,,,,,,,,,
1577742456.385476,63.000000,0.000000,4301.025879,4367.692383,4170.769043,4319.487305,4254.358887,0.000000,4.000000,,,,0.000000,4.000000,4.000000,4.000000,4.000000,4.000000,,,,,,,,,,,,,,,,,,,,,,,,,,,,,,,,,,,,,
1577742456.393273,64.000000,0.000000,4268.717773,4349.743652,4136.922852,4288.205078,4227.692383,450.000000,4.000000,,,,0.000000,4.000000,4.000000,4.000000,4.000000,4.000000,32.000000,0.000000,0.210110,-0.085449,0.880615,0.416016,0.512215,-0.610849,0.589364,5.811463,-47.798588,60.726883,,,,,,,,,,,,,,,,,,,,,,,,,
1577742456.401070,65.000000,0.000000,4227.179688,4346.666504,4093.333252,4242.051270,4175.384766,450.000000,4.000000,,,,0.000000,4.000000,4.000000,4.000000,4.000000,4.000000,,,,,,,,,,,,,,,,,,,,,,,,,,,,,,,,,,,,,
1577742456.408867,66.000000,0.000000,4252.307617,4375.384766,4116.922852,4261.538574,4193.333496,16214.000000,4.000000,,,,0.000000,4.000000,4.000000,4.000000,4.000000,4.000000,33.000000,0.000000,0.210110,-0.085449,0.880615,0.416016,0.510262,-0.621103,0.595712,6.007916,-47.803959,60.815178,,,,,,,,,,,,,,,,,,,,,,,,,
1577742456.416563,67.000000,0.000000,4290.769043,4390.769043,4156.922852,4302.051270,4238.974121,450.000000,4.000000,,,,0.000000,4.000000,4.000000,4.000000,4.000000,4.000000,,,,,,,,,,,,,,,,,,,,,,,,,,,,,,,,,,,,,
1577742456.424360,68.000000,0.000000,4276.922852,4370.256348,4150.256348,4293.333496,4232.820313,16240.000000,4.000000,,,,0.000000,4.000000,4.000000,4.000000,4.000000,4.000000,34.000000,0.000000,0.209626,-0.085449,0.880615,0.416260,0.516121,-0.619638,0.594247,4.450078,-47.748974,60.834827,,,,,,,,,,,,,,,,,,,,,,,,,
1577742456.432056,69.000000,0.000000,4279.487305,4380.512695,4155.897461,4292.307617,4230.769043,450.000000,4.000000,,,,0.000000,4.000000,4.000000,4.000000,4.000000,4.000000,,,,,,,,,,,,,,,,,,,,,,,,,,,,,,,,,,,,,
1577742456.439853,70.000000,0.000000,4316.922852,4397.948730,4191.282227,4322.051270,4261.538574,16151.000000,4.000000,,,,0.000000,4.000000,4.000000,4.000000,4.000000,4.000000,35.000000,0.000000,0.209140,-0.085449,0.880615,0.416504,0.517098,-0.608896,0.591806,7.773439,-47.759308,58.938419,,,,,,,,,,,,,,,,,,,,,,,,,
1577742456.447550,71.000000,0.000000,4306.666504,4361.538574,4177.948730,4302.051270,4248.717773,450.000000,4.000000,,,,0.000000,4.000000,4.000000,4.000000,4.000000,4.000000,,,,,,,,,,,,,,,,,,,,,,,,,,,,,,,,,,,,,
1577742456.455346,72.000000,0.000000,4288.717773,4347.692383,4147.692383,4270.256348,4223.077148,450.000000,4.000000,,,,0.000000,4.000000,4.000000,4.000000,4.000000,4.000000,36.000000,0.000000,0.209140,-0.085449,0.880615,0.416504,0.512703,-0.618662,0.595224,7.773695,-47.708790,59.205563,,,,,,,,,,,,,,,,,,,,,,,,,
1577742456.463043,73.000000,0.000000,4307.692383,4365.641113,4156.410156,4285.128418,4237.436035,16193.000000,4.000000,,,,0.000000,4.000000,4.000000,4.000000,4.000000,4.000000,,,,,,,,,,,,,,,,,,,,,,,,,,,,,,,,,,,,,
1577742456.470839,74.000000,0.000000,4320.000000,4364.102539,4170.769043,4301.025879,4249.743652,450.000000,4.000000,,,,0.000000,4.000000,4.000000,4.000000,4.000000,4.000000,37.000000,0.000000,0.209681,-0.085449,0.880371,0.416748,0.517098,-0.620615,0.589364,4.065372,-47.723141,59.386173,,,,,,,,,,,,,,,,,,,,,,,,,
1577742456.478536,75.000000,0.000000,4326.153809,4373.333496,4166.666504,4297.436035,4247.692383,16211.000000,4.000000,,,,0.000000,4.000000,4.000000,4.000000,4.000000,4.000000,,,,,,,,,,,,,18.123169,15.272146,9.826978,2.593324,4.720555,0.914434,1.347576,2.869885,1.708798,4.020927,5.687738,10.826160,9.080077,2.962732,2.859376,7.710985,8.198605,11.900145,2.558250,4.546150,13.833143,18.269501,11.267752,2.821143,4.177041
1577742456.486332,76.000000,0.000000,4318.461426,4386.153809,4145.641113,4272.307617,4234.871582,450.000000,4.000000,,,,0.000000,4.000000,4.000000,4.000000,4.000000,4.000000,38.000000,0.000000,0.209582,-0.085693,0.880371,0.416748,0.495125,-0.623545,0.591318,6.589788,-47.676239,59.608540,,,,,,,,,,,,,,,,,,,,,,,,,
1577742456.494029,77.000000,0.000000,4312.307617,4380.000000,4147.179688,4265.128418,4234.871582,450.000000,4.000000,,,,0.000000,4.000000,4.000000,4.000000,4.000000,4.000000,,,,,,,,,,,,,,,,,,,,,,,,,,,,,,,,,,,,,
1577742456.501826,78.000000,0.000000,4366.666504,4398.974121,4200.512695,4317.436035,4286.666504,450.000000,4.000000,,,,0.000000,4.000000,4.000000,4.000000,4.000000,4.000000,39.000000,0.000000,0.209140,-0.085449,0.880615,0.416504,0.524910,-0.642100,0.602548,5.870994,-47.693848,59.808666,,,,,,,,,,,,,,,,,,,,,,,,,
1577742456.509522,79.000000,0.000000,4429.743652,4414.871582,4246.666504,4368.205078,4342.051270,16211.000000,4.000000,,,,0.000000,4.000000,4.000000,4.000000,4.000000,4.000000,,,,,,,,,,,,,,,,,,,,,,,,,,,,,,,,,,,,,
1577742456.517219,80.000000,0.000000,4405.641113,4370.256348,4221.538574,4340.512695,4322.563965,450.000000,4.000000,,,,0.000000,4.000000,4.000000,4.000000,4.000000,4.000000,40.000000,0.000000,0.209041,-0.085693,0.880615,0.416504,0.520516,-0.620127,0.587411,8.992447,-47.769505,58.014877,,,,,,,,,,,,,,,,,,,,,,,,,
1577742456.525016,81.000000,0.000000,4363.077148,4349.743652,4190.769043,4298.974121,4283.077148,450.000000,4.000000,,,,0.000000,4.000000,4.000000,4.000000,4.000000,4.000000,,,,,,,,,,,,,,,,,,,,,,,,,,,,,,,,,,,,,
1577742456.532813,82.000000,0.000000,4369.230957,4390.769043,4204.102539,4304.615234,4286.153809,450.000000,4.000000,,,,0.000000,4.000000,4.000000,4.000000,4.000000,4.000000,41.000000,0.000000,0.209041,-0.085693,0.880615,0.416504,0.519539,-0.610849,0.590341,11.861570,-47.658154,58.314556,,,,,,,,,,,,,,,,,,,,,,,,,
1577742456.540509,83.000000,0.000000,4379.487305,4396.922852,4209.743652,4315.384766,4294.358887,16211.000000,4.000000,,,,0.000000,4.000000,4.000000,4.000000,4.000000,4.000000,,,,,,,,,,,,,,,,,,,,,,,,,,,,,,,,,,,,,
1577742456.548206,84.000000,0.000000,4367.692383,4361.538574,4186.666504,4295.384766,4282.051270,450.000000,4.000000,,,,0.000000,4.000000,4.000000,4.000000,4.000000,4.000000,42.000000,0.000000,0.208940,-0.085938,0.880615,0.416504,0.512215,-0.616220,0.591806,11.632460,-47.737385,58.703899,,,,,,,,,,,,,,,,,,,,,,,,,
1577742456.556003,85.000000,0.000000,4314.358887,4343.077148,4140.512695,4228.717773,4227.179688,450.000000,4.000000,,,,0.000000,4.000000,4.000000,4.000000,4.000000,4.000000,,,,,,,,,,,,,,,,,,,,,,,,,,,,,,,,,,,,,
1577742456.563700,86.000000,0.000000,4296.922852,4373.333496,4143.589844,4210.769043,4207.179688,450.000000,4.000000,,,,0.000000,4.000000,4.000000,4.000000,4.000000,4.000000,43.000000,0.000000,0.208840,-0.086182,0.880615,0.416504,0.515633,-0.621103,0.589853,14.177766,-47.808689,57.020584,,,,,,,,,,,,,,,,,,,,,,,,,
1577742456.571497,87.000000,0.000000,4367.179688,4405.128418,4210.256348,4288.717773,4278.461426,16211.000000,4.000000,,,,0.000000,4.000000,4.000000,4.000000,4.000000,4.000000,,,,,,,,,,,,,,,,,,,,,,,,,,,,,,,,,,,,,
1577742456.579193,88.000000,0.000000,4381.025879,4378.461426,4207.692383,4300.512695,4294.358887,450.000000,4.000000,,,,0.000000,4.000000,4.000000,4.000000,4.000000,4.000000,44.000000,0.000000,0.209225,-0.086426,0.880615,0.416260,0.510262,-0.611337,0.587900,12.700174,-47.693420,57.599140,,,,,,,,,,,,,,,,,,,,,,,,,
1577742456.586990,89.000000,0.000000,4318.974121,4356.410156,4153.846191,4240.512695,4242.563965,450.000000,4.000000,,,,0.000000,4.000000,4.000000,4.000000,4.000000,4.000000,,,,,,,,,,,,,,,,,,,,,,,,,,,,,,,,,,,,,
1577742456.594686,90.000000,0.000000,4354.871582,4403.077148,4191.794922,4281.025879,4287.179688,450.000000,4.000000,,,,0.000000,4.000000,4.000000,4.000000,4.000000,4.000000,45.000000,0.000000,0.209225,-0.086426,0.880615,0.416260,0.509285,-0.617685,0.590341,12.387202,-47.769123,58.060024,,,,,,,,,,,,,,,,,,,,,,,,,
1577742456.602483,91.000000,0.000000,4435.897461,4422.051270,4252.307617,4354.358887,4366.153809,16211.000000,4.000000,,,,0.000000,4.000000,4.000000,4.000000,4.000000,4.000000,,,,,,,,,,,,,12.731746,14.855452,10.196736,2.548318,4.643601,0.901615,1.327727,2.811059,1.603730,4.004487,4.512440,9.691278,9.533907,2.988798,2.922677,9.722893,8.183255,11.940961,2.460412,4.365037,13.071668,17.803343,11.344349,2.796029,4.032094
1577742456.610179,92.000000,0.000000,4404.615234,4370.256348,4217.948730,4314.358887,4332.307617,450.000000,4.000000,,,,0.000000,4.000000,4.000000,4.000000,4.000000,4.000000,46.000000,0.000000,0.209225,-0.086426,0.880615,0.416260,0.513191,-0.622080,0.598642,12.045712,-47.777439,58.235558,,,,,,,,,,,,,,,,,,,,,,,,,
1577742456.617976,93.000000,0.000000,4343.077148,4355.897461,4173.333496,4252.307617,4272.307617,450.000000,4.000000,,,,0.000000,4.000000,4.000000,4.000000,4.000000,4.000000,,,,,,,,,,,,,,,,,,,,,,,,,,,,,,,,,,,,,
1577742456.625673,94.000000,0.000000,4353.846191,4387.692383,4181.025879,4254.358887,4275.384766,450.000000,4.000000,,,,0.000000,4.000000,4.000000,4.000000,4.000000,4.000000,47.000000,0.000000,0.209225,-0.086426,0.880615,0.416260,0.520516,-0.599619,0.584970,11.738372,-47.784924,56.658894,,,,,,,,,,,,,,,,,,,,,,,,,
1577742456.633469,95.000000,0.000000,4388.205078,4394.358887,4199.487305,4277.948730,4295.384766,16211.000000,4.000000,,,,0.000000,4.000000,4.000000,4.000000,4.000000,4.000000,,,,,,,,,,,,,,,,,,,,,,,,,,,,,,,,,,,,,
1577742456.641166,96.000000,0.000000,4391.282227,4382.563965,4206.666504,4290.769043,4301.538574,450.000000,4.000000,,,,0.000000,4.000000,4.000000,4.000000,4.000000,4.000000,48.000000,0.000000,0.209124,-0.086670,0.880615,0.416260,0.513680,-0.616220,0.604013,7.693397,-47.851475,56.974541,,,,,,,,,,,,,,,,,,,,,,,,,
1577742456.648863,97.000000,0.000000,4368.717773,4358.461426,4193.333496,4276.410156,4289.743652,450.000000,4.000000,,,,0.000000,4.000000,4.000000,4.000000,4.000000,4.000000,,,,,,,,,,,,,,,,,,,,,,,,,,,,,,,,,,,,,
1577742456.656659,98.000000,0.000000,4328.717773,4335.897461,4156.410156,4232.307617,4245.128418,450.000000,4.000000,,,,0.000000,4.000000,4.000000,4.000000,4.000000,4.000000,49.000000,0.000000,0.209225,-0.086426,0.880615,0.416260,0.513191,-0.622080,0.598642,10.632610,-47.672112,55.583794,,,,,,,,,,,,,,,,,,,,,,,,,
1577742456.664356,99.000000,0.000000,4311.794922,4362.051270,4142.563965,4221.025879,4224.615234,16211.000000,4.000000,,,,0.000000,4.000000,4.000000,4.000000,4.000000,4.000000,,,,,,,,,,,,,,,,,,,,,,,,,,,,,,,,,,,,,
1577742456.672153,100.000000,0.000000,4362.563965,4408.717773,4186.666504,4284.615234,4283.589844,450.000000,4.000000,,,,0.000000,4.000000,4.000000,4.000000,4.000000,4.000000,50.000000,0.000000,0.209124,-0.086670,0.880615,0.416260,0.513680,-0.616220,0.604013,6.698212,-47.749947,56.006950,,,,,,,,,,,,,,,,,,,,,,,,,
1577742456.679850,101.000000,0.000000,4411.794922,4391.794922,4214.871582,4330.769043,4333.333496,450.000000,4.000000,,,,0.000000,4.000000,4.000000,4.000000,4.000000,4.000000,,,,,,,,,,,,,,,,,,,,,,,,,,,,,,,,,,,,,
1577742456.687647,102.000000,0.000000,4389.230957,4351.282227,4184.102539,4293.846191,4304.102539,450.000000,4.000000,,,,0.000000,4.000000,4.000000,4.000000,4.000000,4.000000,51.000000,0.000000,0.209124,-0.086670,0.880615,0.416260,0.518074,-0.620127,0.586923,9.736943,-47.580734,54.712959,,,,,,,,,,,,,,,,,,,,,,,,,
1577742456.695344,103.000000,0.000000,4356.410156,4368.205078,4163.589844,4258.974121,4270.256348,16211.000000,4.000000,,,,0.000000,4.000000,4.000000,4.000000,4.000000,4.000000,,,,,,,,,,,,,,,,,,,,,,,,,,,,,,,,,,,,,
1577742456.703140,104.000000,0.000000,4363.077148,4391.282227,4179.487305,4267.179688,4278.974121,450.000000,4.000000,,,,0.000000,4.000000,4.000000,4.000000,4.000000,4.000000,52.000000,0.000000,0.209124,-0.086670,0.880615,0.416260,0.522469,-0.614755,0.591806,12.471802,-47.607891,55.342831,,,,,,,,,,,,,,,,,,,,,,,,,
1577742456.710837,105.000000,0.000000,4370.769043,4375.897461,4189.230957,4268.717773,4287.179688,450.000000,4.000000,,,,0.000000,4.000000,4.000000,4.000000,4.000000,4.000000,,,,,,,,,,,,,,,,,,,,,,,,,,,,,,,,,,,,,
1577742456.718634,106.000000,0.000000,4366.666504,4363.077148,4188.205078,4266.666504,4278.461426,450.000000,4.000000,,,,0.000000,4.000000,4.000000,4.000000,4.000000,4.000000,53.000000,0.000000,0.209023,-0.086914,0.880615,0.416260,0.507820,-0.617197,0.584482,14.933174,-47.572514,55.969532,,,,,,,,,,,,,,,,,,,,,,,,,
1577742456.726331,107.000000,0.000000,4367.179688,4365.641113,4185.128418,4272.820313,4275.384766,16211.000000,4.000000,,,,0.000000,4.000000,4.000000,4.000000,4.000000,4.000000,,,,,,,,,,,,,10.300008,13.560941,10.207666,2.736847,4.542335,0.811132,1.389584,2.532752,1.699990,3.963009,3.267081,8.041410,9.417504,3.060848,2.980683,11.895217,7.872867,11.569964,2.674292,4.192065,12.556600,16.011946,10.730078,3.021070,3.933284
1577742456.734128,108.000000,0.000000,4373.846191,4363.077148,4183.077148,4276.410156,4285.128418,450.000000,4.000000,,,,0.000000,4.000000,4.000000,4.000000,4.000000,4.000000,54.000000,0.000000,0.209023,-0.086914,0.880615,0.416260,0.513680,-0.618662,0.595712,14.396902,-47.421047,56.473747,,,,,,,,,,,,,,,,,,,,,,,,,
1577742456.741824,109.000000,0.000000,4375.384766,4367.692383,4189.743652,4277.948730,4292.307617,450.000000,4.000000,,,,0.000000,4.000000,4.000000,4.000000,4.000000,4.000000,,,,,,,,,,,,,,,,,,,,,,,,,,,,,,,,,,,,,
1577742456.749621,110.000000,0.000000,4363.589844,4384.615234,4191.282227,4272.307617,4284.102539,450.000000,4.000000,,,,0.000000,4.000000,4.000000,4.000000,4.000000,4.000000,55.000000,0.000000,0.209508,-0.086914,0.880615,0.416016,0.518563,-0.611337,0.593271,15.828350,-47.404354,56.927540,,,,,,,,,,,,,,,,,,,,,,,,,
1577742456.757318,111.000000,0.000000,4345.641113,4373.333496,4178.461426,4255.897461,4267.692383,16211.000000,4.000000,,,,0.000000,4.000000,4.000000,4.000000,4.000000,4.000000,,,,,,,,,,,,,,,,,,,,,,,,,,,,,,,,,,,,,
1577742456.765115,112.000000,0.000000,4352.307617,4348.717773,4181.025879,4254.871582,4270.769043,450.000000,4.000000,,,,0.000000,4.000000,4.000000,4.000000,4.000000,4.000000,56.000000,0.000000,0.209508,-0.086914,0.880615,0.416016,0.513191,-0.621592,0.591318,11.314562,-47.508965,55.362045,,,,,,,,,,,,,,,,,,,,,,,,,
1577742456.772912,113.000000,0.000000,4368.717773,4360.000000,4191.282227,4257.436035,4278.974121,450.000000,4.000000,,,,0.000000,4.000000,4.000000,4.000000,4.000000,4.000000,,,,,,,,,,,,,,,,,,,,,,,,,,,,,,,,,,,,,
1577742456.780608,114.000000,0.000000,4356.410156,4390.256348,4180.000000,4237.436035,4261.025879,450.000000,4.000000,,,,0.000000,4.000000,4.000000,4.000000,4.000000,4.000000,57.000000,0.000000,0.209508,-0.086914,0.880615,0.416016,0.521492,-0.611337,0.593271,13.951474,-47.483482,56.046638,,,,,,,,,,,,,,,,,,,,,,,,,
1577742456.788305,115.000000,0.000000,4361.025879,4389.230957,4185.641113,4242.051270,4272.307617,16211.000000,4.000000,,,,0.000000,4.000000,4.000000,4.000000,4.000000,4.000000,,,,,,,,,,,,,,,,,,,,,,,,,,,,,,,,,,,,,
1577742456.796101,116.000000,0.000000,4393.333496,4368.205078,4217.948730,4282.563965,4318.974121,450.000000,4.000000,,,,0.000000,4.000000,4.000000,4.000000,4.000000,4.000000,58.000000,0.000000,0.209407,-0.087158,0.880615,0.416016,0.517098,-0.618173,0.588388,16.145248,-47.460548,56.662773,,,,,,,,,,,,,,,,,,,,,,,,,
1577742456.803798,117.000000,0.000000,4386.666504,4368.205078,4212.820313,4283.077148,4309.230957,450.000000,4.000000,,,,0.000000,4.000000,4.000000,4.000000,4.000000,4.000000,,,,,,,,,,,,,,,,,,,,,,,,,,,,,,,,,,,,,
1577742456.811595,118.000000,0.000000,4344.102539,4375.897461,4172.307617,4235.897461,4256.410156,450.000000,4.000000,,,,0.000000,4.000000,4.000000,4.000000,4.000000,4.000000,59.000000,0.000000,0.209407,-0.087158,0.880615,0.416016,0.517098,-0.616220,0.598154,18.119646,-47.260460,57.097664,,,,,,,,,,,,,,,,,,,,,,,,,
1577742456.819291,119.000000,0.000000,4322.563965,4353.846191,4156.410156,4204.615234,4234.871582,16211.000000,4.000000,,,,0.000000,4.000000,4.000000,4.000000,4.000000,4.000000,,,,,,,,,,,,,,,,,,,,,,,,,,,,,,,,,,,,,
1577742456.826988,120.000000,0.000000,4344.102539,4345.128418,4186.153809,4222.051270,4257.948730,450.000000,4.000000,,,,0.000000,4.000000,4.000000,4.000000,4.000000,4.000000,60.000000,0.000000,0.209891,-0.087158,0.880615,0.415771,0.500008,-0.624033,0.601083,20.076050,-47.259830,57.608696,,,,,,,,,,,,,,,,,,,,,,,,,
1577742456.834785,121.000000,0.000000,4381.025879,4378.461426,4214.871582,4261.538574,4289.743652,450.000000,4.000000,,,,0.000000,4.000000,4.000000,4.000000,4.000000,4.000000,,,,,,,,,,,,,,,,,,,,,,,,,,,,,,,,,,,,,
1577742456.842582,122.000000,0.000000,4365.641113,4366.666504,4181.538574,4240.512695,4269.230957,450.000000,4.000000,,,,0.000000,4.000000,4.000000,4.000000,4.000000,4.000000,61.000000,0.000000,0.209790,-0.087402,0.880615,0.415771,0.502937,-0.623056,0.602548,19.025490,-47.319077,57.948994,,,,,,,,,,,,,,,,,,,,,,,,,
1577742456.850278,123.000000,0.000000,4332.307617,4328.205078,4155.897461,4207.179688,4235.897461,16211.000000,4.000000,,,,0.000000,4.000000,4.000000,4.000000,4.000000,4.000000,,,,,,,,,,,,,9.346410,11.506310,9.963595,3.051880,4.452060,0.681800,1.513684,2.121221,1.991259,3.956023,2.373098,6.517050,8.883819,3.099248,3.032274,13.360411,7.421114,10.958956,3.076468,4.050385,11.637174,13.427175,9.783172,3.398873,3.907195
1577742456.857975,124.000000,0.000000,4386.666504,4366.666504,4229.743652,4284.615234,4295.384766,450.000000,4.000000,,,,0.000000,4.000000,4.000000,4.000000,4.000000,4.000000,62.000000,0.000000,0.209790,-0.087402,0.880615,0.415771,0.504402,-0.613779,0.588388,17.960356,-47.372398,58.374889,,,,,,,,,,,,,,,,,,,,,,,,,
1577742456.865772,125.000000,0.000000,4446.666504,4407.692383,4279.487305,4358.974121,4358.974121,450.000000,4.000000,,,,0.000000,4.000000,4.000000,4.000000,4.000000,4.000000,,,,,,,,,,,,,,,,,,,,,,,,,,,,,,,,,,,,,
1577742456.873569,126.000000,0.000000,4399.487305,4361.025879,4208.717773,4295.897461,4308.205078,450.000000,4.000000,,,,0.000000,4.000000,4.000000,4.000000,4.000000,4.000000,63.000000,0.000000,0.210171,-0.087646,0.880615,0.415527,0.525887,-0.615732,0.593759,17.001736,-47.360573,58.518940,,,,,,,,,,,,,,,,,,,,,,,,,
1577742456.881265,127.000000,0.000000,4349.743652,4322.051270,4160.512695,4229.230957,4253.846191,236.000000,4.000000,,,,0.000000,4.000000,4.000000,4.000000,4.000000,4.000000,,,,,,,,,,,,,,,,,,,,,,,,,,,,,,,,,,,,,
1577742456.889062,0.000000,0.000000,4364.615234,4352.307617,4187.179688,4248.717773,4268.717773,450.000000,4.000000,,,,0.000000,4.000000,4.000000,4.000000,4.000000,4.000000,0.000000,0.000000,0.209688,-0.087646,0.880615,0.415771,0.524910,-0.595224,0.594247,19.069929,-47.230297,58.648582,,,,,,,,,,,,,,,,,,,,,,,,,
1577742456.896758,1.000000,0.000000,4366.153809,4374.358887,4185.128418,4251.282227,4272.820313,450.000000,4.000000,,,,0.000000,4.000000,4.000000,4.000000,4.000000,4.000000,,,,,,,,,,,,,,,,,,,,,,,,,,,,,,,,,,,,,
1577742456.904555,2.000000,0.000000,4363.077148,4363.077148,4176.922852,4241.025879,4273.846191,16216.000000,4.000000,,,,0.000000,4.000000,4.000000,4.000000,4.000000,4.000000,1.000000,0.000000,0.209586,-0.087891,0.880615,0.415771,0.524422,-0.597177,0.607919,14.231984,-47.113052,59.064335,,,,,,,,,,,,,,,,,,,,,,,,,
1577742456.912252,3.000000,0.000000,4355.384766,4349.230957,4179.487305,4238.974121,4266.666504,450.000000,4.000000,,,,0.000000,4.000000,4.000000,4.000000,4.000000,4.000000,,,,,,,,,,,,,,,,,,,,,,,,,,,,,,,,,,,,,
1577742456.920048,4.000000,0.000000,4324.102539,4354.871582,4162.051270,4214.871582,4235.384766,16240.000000,4.000000,,,,0.000000,4.000000,4.000000,4.000000,4.000000,4.000000,2.000000,0.000000,0.209586,-0.087891,0.880615,0.415771,0.528328,-0.597665,0.605478,13.706017,-47.186974,59.199253,,,,,,,,,,,,,,,,,,,,,,,,,
1577742456.927745,5.000000,0.000000,4343.077148,4374.871582,4184.615234,4225.641113,4256.922852,450.000000,4.000000,,,,0.000000,4.000000,4.000000,4.000000,4.000000,4.000000,,,,,,,,,,,,,,,,,,,,,,,,,,,,,,,,,,,,,
1577742456.935442,6.000000,0.000000,4398.461426,4376.410156,4237.948730,4273.846191,4318.461426,16149.000000,4.000000,,,,0.000000,4.000000,4.000000,4.000000,4.000000,4.000000,3.000000,0.000000,0.209101,-0.087891,0.880615,0.416016,0.521492,-0.616709,0.586435,15.206553,-47.253506,59.500126,,,,,,,,,,,,,,,,,,,,,,,,,
1577742456.943238,7.000000,0.000000,4413.846191,4368.717773,4247.692383,4294.358887,4343.589844,450.000000,4.000000,,,,0.000000,4.000000,4.000000,4.000000,4.000000,4.000000,,,,,,,,,,,,,,,,,,,,,,,,,,,,,,,,,,,,,
1577742456.950935,8.000000,0.000000,4394.871582,4365.641113,4215.897461,4271.282227,4323.077148,450.000000,4.000000,,,,0.000000,4.000000,4.000000,4.000000,4.000000,4.000000,4.000000,0.000000,0.209483,-0.088135,0.880615,0.415771,0.519539,-0.617685,0.589853,14.583127,-47.133938,59.770912,,,,,,,,,,,,,,,,,,,,,,,,,
1577742456.958732,9.000000,0.000000,4365.128418,4357.436035,4187.179688,4227.692383,4283.077148,16202.000000,4.000000,,,,0.000000,4.000000,4.000000,4.000000,4.000000,4.000000,,,,,,,,,,,,,,,,,,,,,,,,,,,,,,,,,,,,,
1577742456.966429,10.000000,0.000000,4331.794922,4349.230957,4175.384766,4202.051270,4254.358887,450.000000,4.000000,,,,0.000000,4.000000,4.000000,4.000000,4.000000,4.000000,5.000000,0.000000,0.209483,-0.088135,0.880615,0.415771,0.513680,-0.623056,0.586923,10.074231,-47.265591,57.980896,,,,,,,,,,,,,,,,,,,,,,,,,
1577742456.974225,11.000000,0.000000,4332.307617,4354.871582,4186.153809,4214.871582,4258.461426,16213.000000,4.000000,,,,0.000000,4.000000,4.000000,4.000000,4.000000,4.000000,,,,,,,,,,,,,8.803761,9.279469,9.617792,3.423802,4.457260,0.541310,1.690236,1.707206,2.388089,4.030932,1.992758,5.650587,8.191927,3.073916,3.137876,13.910072,7.123975,10.366342,3.556117,4.032274,10.148046,10.969592,8.942687,3.852071,4.004162
1577742456.981922,12.000000,0.000000,4336.410156,4355.897461,4183.077148,4215.384766,4254.358887,450.000000,4.000000,,,,0.000000,4.000000,4.000000,4.000000,4.000000,4.000000,6.000000,0.000000,0.210069,-0.087891,0.880615,0.415527,0.512703,-0.619150,0.583993,6.195670,-47.443890,58.403606,,,,,,,,,,,,,,,,,,,,,,,,,
1577742456.989718,13.000000,0.000000,4327.179688,4347.179688,4175.897461,4206.666504,4249.743652,450.000000,4.000000,,,,0.000000,4.000000,4.000000,4.000000,4.000000,4.000000,,,,,,,,,,,,,,,,,,,,,,,,,,,,,,,,,,,,,
1577742456.997415,14.000000,0.000000,4348.717773,4347.179688,4198.974121,4234.358887,4284.102539,450.000000,4.000000,,,,0.000000,4.000000,4.000000,4.000000,4.000000,4.000000,7.000000,0.000000,0.209043,-0.087891,0.880859,0.415527,0.517098,-0.604501,0.605966,9.224840,-47.305286,58.664413,,,,,,,,,,,,,,,,,,,,,,,,,
1577742457.005211,15.000000,0.000000,4370.256348,4359.487305,4212.820313,4249.230957,4305.128418,16213.000000,4.000000,,,,0.000000,4.000000,4.000000,4.000000,4.000000,4.000000,,,,,,,,,,,,,,,,,,,,,,,,,,,,,,,,,,,,,
1577742457.012908,16.000000,0.000000,4372.307617,4360.512695,4212.307617,4243.077148,4303.077148,0.000000,4.000000,,,,0.000000,4.000000,4.000000,4.000000,4.000000,4.000000,8.000000,0.000000,0.209146,-0.087646,0.880859,0.415527,0.519051,-0.613779,0.592782,5.431219,-47.240356,58.779507,,,,,,,,,,,,,,,,,,,,,,,,,
1577742457.020705,17.000000,0.000000,4360.512695,4347.179688,4201.538574,4236.410156,4298.974121,0.000000,4.000000,,,,0.000000,4.000000,4.000000,4.000000,4.000000,4.000000,,,,,,,,,,,,,,,,,,,,,,,,,,,,,,,,,,,,,
1577742457.028401,18.000000,0.000000,4328.717773,4333.846191,4172.820313,4203.077148,4268.717773,0.000000,4.000000,,,,0.000000,4.000000,4.000000,4.000000,4.000000,4.000000,9.000000,0.000000,0.209688,-0.087646,0.880615,0.415771,0.521981,-0.604990,0.588388,5.665697,-47.301548,59.002724,,,,,,,,,,,,,,,,,,,,,,,,,
1577742457.036198,19.000000,0.000000,4324.615234,4343.589844,4174.358887,4187.179688,4257.948730,0.000000,4.000000,,,,0.000000,4.000000,4.000000,4.000000,4.000000,4.000000,,,,,,,,,,,,,,,,,,,,,,,,,,,,,,,,,,,,,
1577742457.043894,20.000000,0.000000,4349.230957,4373.333496,4201.538574,4206.666504,4285.128418,0.000000,4.000000,,,,0.000000,4.000000,4.000000,4.000000,4.000000,4.000000,10.000000,0.000000,0.209688,-0.087646,0.880615,0.415771,0.503914,-0.603037,0.594736,5.936543,-47.177177,59.323250,,,,,,,,,,,,,,,,,,,,,,,,,
1577742457.051691,21.000000,0.000000,4334.358887,4369.743652,4191.282227,4197.436035,4272.820313,0.000000,4.000000,,,,0.000000,4.000000,4.000000,4.000000,4.000000,4.000000,,,,,,,,,,,,,,,,,,,,,,,,,,,,,,,,,,,,,
1577742457.059387,22.000000,0.000000,4289.743652,4334.871582,4156.922852,4164.102539,4224.102539,0.000000,4.000000,,,,0.000000,4.000000,4.000000,4.000000,4.000000,4.000000,11.000000,0.000000,0.209305,-0.087402,0.880615,0.416016,0.514168,-0.608408,0.582528,2.471750,-47.125057,59.372463,,,,,,,,,,,,,,,,,,,,,,,,,
1577742457.067084,23.000000,0.000000,4273.846191,4324.102539,4146.153809,4153.846191,4208.717773,0.000000,4.000000,,,,0.000000,4.000000,4.000000,4.000000,4.000000,4.000000,,,,,,,,,,,,,,,,,,,,,,,,,,,,,,,,,,,,,
1577742457.074881,24.000000,0.000000,4283.589844,4350.769043,4152.820313,4161.538574,4224.102539,0.000000,4.000000,,,,0.000000,4.000000,4.000000,4.000000,4.000000,4.000000,12.000000,0.000000,0.209305,-0.087402,0.880615,0.416016,0.515145,-0.629892,0.589853,5.753682,-47.137966,59.476566,,,,,,,,,,,,,,,,,,,,,,,,,
1577742457.082578,25.000000,0.000000,4306.666504,4364.615234,4168.717773,4186.666504,4247.692383,0.000000,4.000000,,,,0.000000,4.000000,4.000000,4.000000,4.000000,4.000000,,,,,,,,,,,,,,,,,,,,,,,,,,,,,,,,,,,,,
1577742457.090375,26.000000,0.000000,4330.256348,4350.256348,4188.717773,4220.000000,4274.871582,0.000000,4.000000,,,,0.000000,4.000000,4.000000,4.000000,4.000000,4.000000,13.000000,0.000000,0.209688,-0.087646,0.880615,0.415771,0.503914,-0.603037,0.594736,2.307176,-47.329029,59.749710,,,,,,,,,,,,,,,,,,,,,,,,,
1577742457.098072,27.000000,0.000000,4327.179688,4356.410156,4191.282227,4217.436035,4281.025879,0.000000,4.000000,,,,0.000000,4.000000,4.000000,4.000000,4.000000,4.000000,,,,,,,,,,,,,8.370528,7.731534,9.390077,3.859634,4.651167,0.438029,1.914361,1.402025,2.759128,4.196207,2.078309,5.694911,7.642977,3.036365,3.394929,13.264766,7.339074,10.079964,4.093335,4.271449,8.315671,9.631690,8.647177,4.364333,4.293173
1577742457.105868,28.000000,0.000000,4313.846191,4368.205078,4175.897461,4189.743652,4269.230957,0.000000,4.000000,,,,0.000000,4.000000,4.000000,4.000000,4.000000,4.000000,14.000000,0.000000,0.209305,-0.087402,0.880615,0.416016,0.515145,-0.629892,0.589853,5.605565,-47.321541,59.816090,,,,,,,,,,,,,,,,,,,,,,,,,
1577742457.113565,29.000000,0.000000,4309.743652,4351.794922,4164.615234,4177.948730,4264.102539,0.000000,4.000000,,,,0.000000,4.000000,4.000000,4.000000,4.000000,4.000000,,,,,,,,,,,,,,,,,,,,,,,,,,,,,,,,,,,,,
1577742457.121362,30.000000,0.000000,4311.794922,4325.128418,4168.717773,4179.487305,4261.538574,0.000000,4.000000,,,,0.000000,4.000000,4.000000,4.000000,4.000000,4.000000,15.000000,0.000000,0.209305,-0.087402,0.880615,0.416016,0.513680,-0.623545,0.591806,6.002055,-47.254986,60.055279,,,,,,,,,,,,,,,,,,,,,,,,,
1577742457.129059,31.000000,0.000000,4315.384766,4345.128418,4171.282227,4182.563965,4256.410156,0.000000,4.000000,,,,0.000000,4.000000,4.000000,4.000000,4.000000,4.000000,,,,,,,,,,,,,,,,,,,,,,,,,,,,,,,,,,,,,
1577742457.136856,32.000000,0.000000,4317.436035,4382.563965,4165.641113,4185.641113,4256.922852,0.000000,4.000000,,,,0.000000,4.000000,4.000000,4.000000,4.000000,4.000000,16.000000,0.000000,0.209305,-0.087402,0.880615,0.416016,0.517098,-0.623545,0.586923,8.272986,-47.374531,60.091103,,,,,,,,,,,,,,,,,,,,,,,,,
1577742457.144553,33.000000,0.000000,4316.410156,4365.128418,4162.563965,4186.666504,4257.948730,0.000000,4.000000,,,,0.000000,4.000000,4.000000,4.000000,4.000000,4.000000,,,,,,,,,,,,,,,,,,,,,,,,,,,,,,,,,,,,,
1577742457.152349,34.000000,0.000000,4307.692383,4335.384766,4152.820313,4171.794922,4242.051270,0.000000,4.000000,,,,0.000000,4.000000,4.000000,4.000000,4.000000,4.000000,17.000000,0.000000,0.208819,-0.087402,0.880615,0.416260,0.523445,-0.615244,0.595224,8.223288,-47.242863,60.242973,,,,,,,,,,,,,,,,,,,,,,,,,
1577742457.160046,35.000000,0.000000,4308.717773,4343.589844,4146.666504,4160.000000,4240.000000,0.000000,4.000000,,,,0.000000,4.000000,4.000000,4.000000,4.000000,4.000000,,,,,,,,,,,,,,,,,,,,,,,,,,,,,,,,,,,,,
1577742457.167843,36.000000,0.000000,4317.436035,4347.692383,4154.871582,4166.666504,4256.922852,0.000000,4.000000,,,,0.000000,4.000000,4.000000,4.000000,4.000000,4.000000,18.000000,0.000000,0.209744,-0.087646,0.880371,0.416260,0.519051,-0.613779,0.601083,8.238374,-47.184174,60.319843,,,,,,,,,,,,,,,,,,,,,,,,,
1577742457.175540,37.000000,0.000000,4298.461426,4331.794922,4149.743652,4159.487305,4240.512695,0.000000,4.000000,,,,0.000000,4.000000,4.000000,4.000000,4.000000,4.000000,,,,,,,,,,,,,,,,,,,,,,,,,,,,,,,,,,,,,
1577742457.183336,38.000000,0.000000,4259.487305,4327.692383,4128.717773,4122.051270,4197.948730,0.000000,4.000000,,,,0.000000,4.000000,4.000000,4.000000,4.000000,4.000000,19.000000,0.000000,0.209744,-0.087646,0.880371,0.416260,0.514168,-0.620127,0.598642,6.577122,-47.250984,60.448845,,,,,,,,,,,,,,,,,,,,,,,,,
1577742457.191033,39.000000,0.000000,4261.538574,4345.128418,4143.077148,4115.897461,4199.487305,0.000000,4.000000,,,,0.000000,4.000000,4.000000,4.000000,4.000000,4.000000,,,,,,,,,,,,,,,,,,,,,,,,,,,,,,,,,,,,,
1577742457.198829,40.000000,0.000000,4335.384766,4380.000000,4205.128418,4192.307617,4271.282227,0.000000,4.000000,,,,0.000000,4.000000,4.000000,4.000000,4.000000,4.000000,20.000000,0.000000,0.209259,-0.087646,0.880371,0.416504,0.511727,-0.621592,0.587411,6.816640,-47.370930,60.564941,,,,,,,,,,,,,,,,,,,,,,,,,
1577742457.206526,41.000000,0.000000,4397.436035,4404.102539,4243.589844,4266.666504,4332.820313,0.000000,4.000000,,,,0.000000,4.000000,4.000000,4.000000,4.000000,4.000000,,,,,,,,,,,,,,,,,,,,,,,,,,,,,,,,,,,,,
1577742457.214423,42.000000,0.000000,4377.436035,4368.717773,4219.487305,4246.666504,4316.922852,0.000000,4.000000,,,,0.000000,4.000000,4.000000,4.000000,4.000000,4.000000,21.000000,0.000000,0.209744,-0.087646,0.880371,0.416260,0.520516,-0.611337,0.580087,3.084392,-47.419067,58.695522,,,,,,,,,,,,,,,,,,,,,,,,,
1577742457.222219,43.000000,0.000000,4309.230957,4322.563965,4165.128418,4174.358887,4255.384766,0.000000,4.000000,,,,0.000000,4.000000,4.000000,4.000000,4.000000,4.000000,,,,,,,,,,,,,8.166171,7.494717,9.426482,4.274092,5.061165,0.382988,2.160685,1.238901,2.959164,4.412732,2.311070,6.517877,7.458156,2.982541,3.866648,11.844109,8.268013,10.340111,4.586290,4.846380,6.544096,9.953435,9.104171,4.821335,4.805331
1577742457.230116,44.000000,0.000000,4282.563965,4344.102539,4147.692383,4150.769043,4233.333496,0.000000,4.000000,,,,0.000000,4.000000,4.000000,4.000000,4.000000,4.000000,22.000000,0.000000,0.209744,-0.087646,0.880371,0.416260,0.520516,-0.617197,0.599130,6.424690,-47.342758,58.986954,,,,,,,,,,,,,,,,,,,,,,,,,
1577742457.237913,45.000000,0.000000,4312.820313,4376.410156,4180.000000,4185.128418,4263.077148,0.000000,4.000000,,,,0.000000,4.000000,4.000000,4.000000,4.000000,4.000000,,,,,,,,,,,,,,,,,,,,,,,,,,,,,,,,,,,,,
1577742457.245610,46.000000,0.000000,4316.922852,4356.922852,4189.230957,4191.794922,4267.692383,0.000000,4.000000,,,,0.000000,4.000000,4.000000,4.000000,4.000000,4.000000,23.000000,0.000000,0.209259,-0.087646,0.880371,0.416504,0.503426,-0.609384,0.585458,8.772989,-47.214268,57.215519,,,,,,,,,,,,,,,,,,,,,,,,,
1577742457.253406,47.000000,0.000000,4267.692383,4328.205078,4158.461426,4146.666504,4226.666504,0.000000,4.000000,,,,0.000000,4.000000,4.000000,4.000000,4.000000,4.000000,,,,,,,,,,,,,,,,,,,,,,,,,,,,,,,,,,,,,
1577742457.261103,48.000000,0.000000,4244.615234,4341.538574,4157.436035,4127.692383,4215.384766,0.000000,4.000000,,,,0.000000,4.000000,4.000000,4.000000,4.000000,4.000000,24.000000,0.000000,0.209259,-0.087646,0.880371,0.416504,0.512703,-0.616709,0.599619,5.024553,-47.218254,55.800674,,,,,,,,,,,,,,,,,,,,,,,,,
1577742457.268900,49.000000,0.000000,4287.692383,4355.384766,4194.358887,4168.717773,4257.436035,0.000000,4.000000,,,,0.000000,4.000000,4.000000,4.000000,4.000000,4.000000,,,,,,,,,,,,,,,,,,,,,,,,,,,,,,,,,,,,,
1577742457.276697,50.000000,0.000000,4308.205078,4336.410156,4195.897461,4182.563965,4269.743652,0.000000,4.000000,,,,0.000000,4.000000,4.000000,4.000000,4.000000,4.000000,25.000000,0.000000,0.209259,-0.087646,0.880371,0.416504,0.506355,-0.598642,0.599130,8.290465,-47.162025,56.261959,,,,,,,,,,,,,,,,,,,,,,,,,
1577742457.284393,51.000000,0.000000,4281.025879,4339.487305,4174.358887,4155.897461,4241.025879,0.000000,4.000000,,,,0.000000,4.000000,4.000000,4.000000,4.000000,4.000000,,,,,,,,,,,,,,,,,,,,,,,,,,,,,,,,,,,,,
1577742457.292190,52.000000,0.000000,4286.153809,4371.282227,4192.820313,4164.615234,4248.717773,0.000000,4.000000,,,,0.000000,4.000000,4.000000,4.000000,4.000000,4.000000,26.000000,0.000000,0.208772,-0.087646,0.880371,0.416748,0.515145,-0.619638,0.584970,8.418465,-47.171238,54.942467,,,,,,,,,,,,,,,,,,,,,,,,,
1577742457.299887,53.000000,0.000000,4292.307617,4356.410156,4196.410156,4175.384766,4259.487305,0.000000,4.000000,,,,0.000000,4.000000,4.000000,4.000000,4.000000,4.000000,,,,,,,,,,,,,,,,,,,,,,,,,,,,,,,,,,,,,
1577742457.307583,54.000000,0.000000,4250.256348,4320.000000,4154.871582,4138.461426,4222.563965,0.000000,4.000000,,,,0.000000,4.000000,4.000000,4.000000,4.000000,4.000000,27.000000,0.000000,0.209799,-0.087646,0.880127,0.416748,0.513680,-0.617685,0.588876,7.456988,-47.239346,55.609203,,,,,,,,,,,,,,,,,,,,,,,,,
1577742457.315380,55.000000,0.000000,4245.128418,4338.461426,4165.128418,4143.077148,4220.512695,0.000000,4.000000,,,,0.000000,4.000000,4.000000,4.000000,4.000000,4.000000,,,,,,,,,,,,,,,,,,,,,,,,,,,,,,,,,,,,,
1577742457.323077,56.000000,0.000000,4287.692383,4364.615234,4214.358887,4196.410156,4264.615234,0.000000,4.000000,,,,0.000000,4.000000,4.000000,4.000000,4.000000,4.000000,28.000000,0.000000,0.209901,-0.087402,0.880127,0.416748,0.524910,-0.625010,0.585946,10.419842,-47.121193,56.269081,,,,,,,,,,,,,,,,,,,,,,,,,
1577742457.330874,57.000000,0.000000,4274.871582,4341.025879,4198.461426,4187.692383,4252.307617,0.000000,4.000000,,,,0.000000,4.000000,4.000000,4.000000,4.000000,4.000000,,,,,,,,,,,,,,,,,,,,,,,,,,,,,,,,,,,,,
1577742457.338571,58.000000,0.000000,4251.794922,4337.948730,4172.820313,4164.615234,4229.230957,0.000000,4.000000,,,,0.000000,4.000000,4.000000,4.000000,4.000000,4.000000,29.000000,0.000000,0.209799,-0.087646,0.880127,0.416748,0.521492,-0.617685,0.583017,10.215273,-47.134487,56.743340,,,,,,,,,,,,,,,,,,,,,,,,,
1577742457.346367,59.000000,0.000000,4262.563965,4353.333496,4182.051270,4176.410156,4242.563965,0.000000,4.000000,,,,0.000000,4.000000,4.000000,4.000000,4.000000,4.000000,,,,,,,,,,,,,8.010280,8.562758,9.692540,4.536817,5.600210,0.368957,2.375541,1.168232,2.892499,4.606774,2.441270,7.720654,7.660899,2.872591,4.509167,10.003057,9.797621,11.176841,4.884793,5.683033,5.142787,11.719714,10.176653,5.079958,5.472116
1577742457.354064,60.000000,0.000000,4240.000000,4334.358887,4163.589844,4147.179688,4217.436035,0.000000,4.000000,,,,0.000000,4.000000,4.000000,4.000000,4.000000,4.000000,30.000000,0.000000,0.209799,-0.087646,0.880127,0.416748,0.513191,-0.614267,0.591806,10.090976,-47.146454,57.110359,,,,,,,,,,,,,,,,,,,,,,,,,
1577742457.361861,61.000000,0.000000,4233.846191,4346.153809,4166.666504,4134.871582,4208.205078,0.000000,4.000000,,,,0.000000,4.000000,4.000000,4.000000,4.000000,4.000000,,,,,,,,,,,,,,,,,,,,,,,,,,,,,,,,,,,,,
1577742457.369558,62.000000,0.000000,4290.769043,4381.025879,4216.922852,4197.436035,4273.333496,0.000000,4.000000,,,,0.000000,4.000000,4.000000,4.000000,4.000000,4.000000,31.000000,0.000000,0.209799,-0.087646,0.880127,0.416748,0.527352,-0.619638,0.592782,6.150925,-47.097404,55.706028,,,,,,,,,,,,,,,,,,,,,,,,,
1577742457.377354,63.000000,0.000000,4299.487305,4346.153809,4204.102539,4209.230957,4283.589844,0.000000,4.000000,,,,0.000000,4.000000,4.000000,4.000000,4.000000,4.000000,,,,,,,,,,,,,,,,,,,,,,,,,,,,,,,,,,,,,
1577742457.385051,64.000000,0.000000,4247.692383,4318.461426,4153.846191,4160.000000,4227.179688,450.000000,4.000000,,,,0.000000,4.000000,4.000000,4.000000,4.000000,4.000000,32.000000,0.000000,0.209211,-0.087891,0.880127,0.416992,0.512703,-0.622568,0.586923,9.244386,-47.172894,54.382317,,,,,,,,,,,,,,,,,,,,,,,,,
1577742457.392847,65.000000,0.000000,4245.128418,4366.153809,4170.769043,4168.205078,4230.769043,450.000000,4.000000,,,,0.000000,4.000000,4.000000,4.000000,4.000000,4.000000,,,,,,,,,,,,,,,,,,,,,,,,,,,,,,,,,,,,,
1577742457.400544,66.000000,0.000000,4269.230957,4373.333496,4196.410156,4192.820313,4252.820313,16221.000000,4.000000,,,,0.000000,4.000000,4.000000,4.000000,4.000000,4.000000,33.000000,0.000000,0.209697,-0.087891,0.880127,0.416748,0.502449,-0.608408,0.594247,9.217177,-47.300648,54.985435,,,,,,,,,,,,,,,,,,,,,,,,,
1577742457.408341,67.000000,0.000000,4264.102539,4318.974121,4180.000000,4179.487305,4233.333496,450.000000,4.000000,,,,0.000000,4.000000,4.000000,4.000000,4.000000,4.000000,,,,,,,,,,,,,,,,,,,,,,,,,,,,,,,,,,,,,
1577742457.416037,68.000000,0.000000,4250.769043,4320.512695,4162.051270,4164.615234,4221.538574,16252.000000,4.000000,,,,0.000000,4.000000,4.000000,4.000000,4.000000,4.000000,34.000000,0.000000,0.209697,-0.087891,0.880127,0.416748,0.515145,-0.625986,0.599619,9.073059,-47.295998,55.588062,,,,,,,,,,,,,,,,,,,,,,,,,
1577742457.423834,69.000000,0.000000,4253.333496,4367.692383,4167.692383,4159.487305,4229.230957,450.000000,4.000000,,,,0.000000,4.000000,4.000000,4.000000,4.000000,4.000000,,,,,,,,,,,,,,,,,,,,,,,,,,,,,,,,,,,,,
1577742457.431530,70.000000,0.000000,4278.974121,4370.256348,4195.384766,4172.307617,4243.589844,16164.000000,4.000000,,,,0.000000,4.000000,4.000000,4.000000,4.000000,4.000000,35.000000,0.000000,0.209697,-0.087891,0.880127,0.416748,0.524910,-0.622080,0.593759,9.122799,-47.231998,56.190239,,,,,,,,,,,,,,,,,,,,,,,,,
1577742457.439327,71.000000,0.000000,4307.692383,4351.282227,4218.461426,4191.794922,4267.692383,450.000000,4.000000,,,,0.000000,4.000000,4.000000,4.000000,4.000000,4.000000,,,,,,,,,,,,,,,,,,,,,,,,,,,,,,,,,,,,,
1577742457.447023,72.000000,0.000000,4304.102539,4356.410156,4205.128418,4180.000000,4267.692383,450.000000,4.000000,,,,0.000000,4.000000,4.000000,4.000000,4.000000,4.000000,36.000000,0.000000,0.210079,-0.088135,0.880127,0.416504,0.519539,-0.611826,0.577157,9.107750,-47.353844,56.612564,,,,,,,,,,,,,,,,,,,,,,,,,
1577742457.454820,73.000000,0.000000,4258.974121,4344.615234,4167.692383,4130.256348,4214.871582,16208.000000,4.000000,,,,0.000000,4.000000,4.000000,4.000000,4.000000,4.000000,,,,,,,,,,,,,,,,,,,,,,,,,,,,,,,,,,,,,
1577742457.462517,74.000000,0.000000,4263.589844,4338.974121,4178.461426,4134.871582,4213.333496,450.000000,4.000000,,,,0.000000,4.000000,4.000000,4.000000,4.000000,4.000000,37.000000,0.000000,0.209054,-0.088135,0.880371,0.416504,0.516609,-0.618662,0.594736,5.325838,-47.343872,56.992661,,,,,,,,,,,,,,,,,,,,,,,,,
1577742457.470413,75.000000,0.000000,4316.922852,4360.000000,4221.538574,4191.282227,4271.794922,16221.000000,4.000000,,,,0.000000,4.000000,4.000000,4.000000,4.000000,4.000000,,,,,,,,,,,,,7.706129,10.451170,10.139511,4.616331,6.105536,0.389970,2.499900,1.118468,2.590739,4.707215,2.406017,8.950747,8.147030,2.702004,5.171432,8.142076,11.643058,12.447484,4.935966,6.570483,4.256327,14.225001,11.597703,5.105664,6.137008
1577742457.478210,76.000000,0.000000,4311.794922,4352.820313,4209.230957,4182.051270,4262.051270,450.000000,4.000000,,,,0.000000,4.000000,4.000000,4.000000,4.000000,4.000000,38.000000,0.000000,0.209054,-0.088135,0.880371,0.416504,0.517098,-0.597177,0.593271,5.630669,-47.454529,57.454376,,,,,,,,,,,,,,,,,,,,,,,,,
1577742457.486007,77.000000,0.000000,4289.743652,4346.153809,4183.077148,4145.641113,4225.128418,450.000000,4.000000,,,,0.000000,4.000000,4.000000,4.000000,4.000000,4.000000,,,,,,,,,,,,,,,,,,,,,,,,,,,,,,,,,,,,,
1577742457.493703,78.000000,0.000000,4310.769043,4360.512695,4191.794922,4158.461426,4246.153809,450.000000,4.000000,,,,0.000000,4.000000,4.000000,4.000000,4.000000,4.000000,39.000000,0.000000,0.209977,-0.088379,0.880127,0.416504,0.511238,-0.609873,0.581552,5.905017,-47.374676,57.810108,,,,,,,,,,,,,,,,,,,,,,,,,
1577742457.501500,79.000000,0.000000,4304.102539,4336.410156,4181.025879,4153.846191,4248.717773,16221.000000,4.000000,,,,0.000000,4.000000,4.000000,4.000000,4.000000,4.000000,,,,,,,,,,,,,,,,,,,,,,,,,,,,,,,,,,,,,
1577742457.509197,80.000000,0.000000,4265.641113,4315.897461,4148.205078,4116.410156,4207.692383,450.000000,4.000000,,,,0.000000,4.000000,4.000000,4.000000,4.000000,4.000000,40.000000,0.000000,0.209977,-0.088379,0.880127,0.416504,0.504891,-0.611826,0.597177,2.503193,-47.422436,56.216171,,,,,,,,,,,,,,,,,,,,,,,,,
1577742457.516893,81.000000,0.000000,4275.897461,4339.487305,4160.000000,4125.128418,4209.743652,450.000000,4.000000,,,,0.000000,4.000000,4.000000,4.000000,4.000000,4.000000,,,,,,,,,,,,,,,,,,,,,,,,,,,,,,,,,,,,,
1577742457.524690,82.000000,0.000000,4295.897461,4345.641113,4185.128418,4149.743652,4233.333496,450.000000,4.000000,,,,0.000000,4.000000,4.000000,4.000000,4.000000,4.000000,41.000000,0.000000,0.209492,-0.088379,0.880127,0.416748,0.505867,-0.611826,0.596689,6.021242,-47.405605,56.695721,,,,,,,,,,,,,,,,,,,,,,,,,
1577742457.532387,83.000000,0.000000,4262.051270,4333.846191,4164.615234,4120.000000,4202.051270,16221.000000,4.000000,,,,0.000000,4.000000,4.000000,4.000000,4.000000,4.000000,,,,,,,,,,,,,,,,,,,,,,,,,,,,,,,,,,,,,
1577742457.540184,84.000000,0.000000,4253.333496,4351.794922,4154.871582,4109.230957,4187.179688,450.000000,4.000000,,,,0.000000,4.000000,4.000000,4.000000,4.000000,4.000000,42.000000,0.000000,0.209977,-0.088379,0.880127,0.416504,0.511238,-0.609873,0.581552,9.187486,-47.569904,57.187134,,,,,,,,,,,,,,,,,,,,,,,,,
1577742457.547881,85.000000,0.000000,4323.077148,4373.846191,4201.025879,4177.948730,4258.974121,450.000000,4.000000,,,,0.000000,4.000000,4.000000,4.000000,4.000000,4.000000,,,,,,,,,,,,,,,,,,,,,,,,,,,,,,,,,,,,,
1577742457.555677,86.000000,0.000000,4358.461426,4360.000000,4215.897461,4208.717773,4303.077148,450.000000,4.000000,,,,0.000000,4.000000,4.000000,4.000000,4.000000,4.000000,43.000000,0.000000,0.209492,-0.088379,0.880127,0.416748,0.505867,-0.611826,0.596689,12.037106,-47.538330,57.569588,,,,,,,,,,,,,,,,,,,,,,,,,
1577742457.563374,87.000000,0.000000,4322.563965,4335.384766,4174.358887,4148.717773,4264.615234,16221.000000,4.000000,,,,0.000000,4.000000,4.000000,4.000000,4.000000,4.000000,,,,,,,,,,,,,,,,,,,,,,,,,,,,,,,,,,,,,
1577742457.571171,88.000000,0.000000,4332.820313,4329.743652,4174.358887,4131.282227,4262.563965,450.000000,4.000000,,,,0.000000,4.000000,4.000000,4.000000,4.000000,4.000000,44.000000,0.000000,0.209977,-0.088379,0.880127,0.416504,0.521981,-0.618662,0.585458,11.730625,-47.509911,58.093243,,,,,,,,,,,,,,,,,,,,,,,,,
1577742457.578867,89.000000,0.000000,4386.666504,4343.589844,4197.436035,4160.000000,4302.051270,450.000000,4.000000,,,,0.000000,4.000000,4.000000,4.000000,4.000000,4.000000,,,,,,,,,,,,,,,,,,,,,,,,,,,,,,,,,,,,,
1577742457.586664,90.000000,0.000000,4430.256348,4358.974121,4194.358887,4160.512695,4323.589844,450.000000,4.000000,,,,0.000000,4.000000,4.000000,4.000000,4.000000,4.000000,45.000000,0.000000,0.208951,-0.088379,0.880371,0.416504,0.509285,-0.618173,0.592294,7.626610,-47.424519,56.590622,,,,,,,,,,,,,,,,,,,,,,,,,
1577742457.594360,91.000000,0.000000,4486.666504,4350.256348,4205.128418,4173.333496,4360.000000,16221.000000,4.000000,,,,0.000000,4.000000,4.000000,4.000000,4.000000,4.000000,,,,,,,,,,,,,6.957393,12.400725,10.649278,4.616378,6.424359,0.444587,2.491168,1.056582,2.193339,4.683311,2.241293,9.930853,8.671962,2.544098,5.671587,6.733471,13.336986,13.775807,4.843649,7.265660,3.565192,16.522343,12.937603,5.009202,6.626822
1577742457.602157,92.000000,0.000000,4518.974121,4331.794922,4203.077148,4180.000000,4376.922852,450.000000,4.000000,,,,0.000000,4.000000,4.000000,4.000000,4.000000,4.000000,46.000000,0.000000,0.208951,-0.088379,0.880371,0.416504,0.528817,-0.619150,0.599619,10.512686,-47.347664,57.212173,,,,,,,,,,,,,,,,,,,,,,,,,
1577742457.609854,93.000000,0.000000,4508.717773,4339.487305,4169.743652,4150.769043,4350.769043,450.000000,4.000000,,,,0.000000,4.000000,4.000000,4.000000,4.000000,4.000000,,,,,,,,,,,,,,,,,,,,,,,,,,,,,,,,,,,,,
1577742457.617750,94.000000,0.000000,4546.153809,4362.563965,4186.666504,4173.333496,4384.102539,450.000000,4.000000,,,,0.000000,4.000000,4.000000,4.000000,4.000000,4.000000,47.000000,0.000000,0.208847,-0.088623,0.880371,0.416504,0.512703,-0.620127,0.597177,6.530465,-47.278496,57.592125,,,,,,,,,,,,,,,,,,,,,,,,,
1577742457.625547,95.000000,0.000000,4602.051270,4355.897461,4224.615234,4226.666504,4447.692383,16221.000000,4.000000,,,,0.000000,4.000000,4.000000,4.000000,4.000000,4.000000,,,,,,,,,,,,,,,,,,,,,,,,,,,,,,,,,,,,,
1577742457.633444,96.000000,0.000000,4568.717773,4332.307617,4194.358887,4201.538574,4422.051270,450.000000,4.000000,,,,0.000000,4.000000,4.000000,4.000000,4.000000,4.000000,48.000000,0.000000,0.208847,-0.088623,0.880371,0.416504,0.520027,-0.614755,0.608896,9.585971,-47.276062,57.993896,,,,,,,,,,,,,,,,,,,,,,,,,
1577742457.641240,97.000000,0.000000,4517.436035,4340.000000,4162.051270,4158.974121,4378.974121,450.000000,4.000000,,,,0.000000,4.000000,4.000000,4.000000,4.000000,4.000000,,,,,,,,,,,,,,,,,,,,,,,,,,,,,,,,,,,,,
1577742457.649137,98.000000,0.000000,4518.461426,4358.974121,4181.025879,4174.358887,4388.205078,450.000000,4.000000,,,,0.000000,4.000000,4.000000,4.000000,4.000000,4.000000,49.000000,0.000000,0.208847,-0.088623,0.880371,0.416504,0.515145,-0.614267,0.597177,9.524604,-47.333683,58.415302,,,,,,,,,,,,,,,,,,,,,,,,,
1577742457.656934,99.000000,0.000000,4494.358887,4346.153809,4180.000000,4174.871582,4371.794922,16221.000000,4.000000,,,,0.000000,4.000000,4.000000,4.000000,4.000000,4.000000,,,,,,,,,,,,,,,,,,,,,,,,,,,,,,,,,,,,,
1577742457.664731,100.000000,0.000000,4454.358887,4328.205078,4161.025879,4152.820313,4336.410156,450.000000,4.000000,,,,0.000000,4.000000,4.000000,4.000000,4.000000,4.000000,50.000000,0.000000,0.208951,-0.088379,0.880371,0.416504,0.503426,-0.624521,0.599619,9.409559,-47.505177,58.794571,,,,,,,,,,,,,,,,,,,,,,,,,
1577742457.672427,101.000000,0.000000,4438.461426,4331.282227,4148.205078,4143.589844,4318.974121,450.000000,4.000000,,,,0.000000,4.000000,4.000000,4.000000,4.000000,4.000000,,,,,,,,,,,,,,,,,,,,,,,,,,,,,,,,,,,,,
1577742457.680324,102.000000,0.000000,4412.307617,4331.282227,4137.436035,4128.717773,4296.410156,450.000000,4.000000,,,,0.000000,4.000000,4.000000,4.000000,4.000000,4.000000,51.000000,0.000000,0.208847,-0.088623,0.880371,0.416504,0.518563,-0.624033,0.579110,5.358204,-47.360443,59.135914,,,,,,,,,,,,,,,,,,,,,,,,,
1577742457.688121,103.000000,0.000000,4422.051270,4344.102539,4172.307617,4154.871582,4313.333496,16221.000000,4.000000,,,,0.000000,4.000000,4.000000,4.000000,4.000000,4.000000,,,,,,,,,,,,,,,,,,,,,,,,,,,,,,,,,,,,,
1577742457.696017,104.000000,0.000000,4474.871582,4369.743652,4225.641113,4218.461426,4368.717773,450.000000,4.000000,,,,0.000000,4.000000,4.000000,4.000000,4.000000,4.000000,52.000000,0.000000,0.208847,-0.088623,0.880371,0.416504,0.519539,-0.613779,0.581064,8.590752,-47.289997,59.323486,,,,,,,,,,,,,,,,,,,,,,,,,
1577742457.703814,105.000000,0.000000,4447.179688,4358.461426,4200.512695,4203.589844,4350.256348,450.000000,4.000000,,,,0.000000,4.000000,4.000000,4.000000,4.000000,4.000000,,,,,,,,,,,,,,,,,,,,,,,,,,,,,,,,,,,,,
1577742457.711511,106.000000,0.000000,4380.512695,4336.410156,4156.410156,4148.717773,4292.307617,450.000000,4.000000,,,,0.000000,4.000000,4.000000,4.000000,4.000000,4.000000,53.000000,0.000000,0.209333,-0.088623,0.880371,0.416260,0.509285,-0.604501,0.592782,8.569092,-47.465855,59.611938,,,,,,,,,,,,,,,,,,,,,,,,,
1577742457.719308,107.000000,0.000000,4405.641113,4344.615234,4189.230957,4173.333496,4309.743652,16221.000000,4.000000,,,,0.000000,4.000000,4.000000,4.000000,4.000000,4.000000,,,,,,,,,,,,,6.104988,13.800182,11.053884,4.684431,6.486964,0.528335,2.354004,0.996598,1.871426,4.555812,2.085174,10.468967,8.931988,2.505803,5.889648,5.730469,14.425916,14.635715,4.782788,7.608105,3.127666,17.858458,13.728918,4.960508,6.835059
1577742457.727005,108.000000,0.000000,4416.922852,4329.743652,4198.461426,4185.641113,4313.846191,450.000000,4.000000,,,,0.000000,4.000000,4.000000,4.000000,4.000000,4.000000,54.000000,0.000000,0.209333,-0.088623,0.880371,0.416260,0.511238,-0.608408,0.593759,11.420735,-47.444683,59.811726,,,,,,,,,,,,,,,,,,,,,,,,,
1577742457.734801,109.000000,0.000000,4364.102539,4322.563965,4157.948730,4143.589844,4265.128418,450.000000,4.000000,,,,0.000000,4.000000,4.000000,4.000000,4.000000,4.000000,,,,,,,,,,,,,,,,,,,,,,,,,,,,,,,,,,,,,
1577742457.742498,110.000000,0.000000,4354.871582,4363.077148,4163.589844,4147.179688,4262.051270,450.000000,4.000000,,,,0.000000,4.000000,4.000000,4.000000,4.000000,4.000000,55.000000,0.000000,0.208951,-0.088379,0.880371,0.416504,0.516121,-0.607431,0.591318,11.235707,-47.485447,59.991535,,,,,,,,,,,,,,,,,,,,,,,,,
1577742457.750295,111.000000,0.000000,4344.102539,4358.974121,4170.769043,4146.153809,4257.948730,16221.000000,4.000000,,,,0.000000,4.000000,4.000000,4.000000,4.000000,4.000000,,,,,,,,,,,,,,,,,,,,,,,,,,,,,,,,,,,,,
1577742457.757992,112.000000,0.000000,4305.641113,4325.641113,4148.205078,4113.333496,4222.051270,450.000000,4.000000,,,,0.000000,4.000000,4.000000,4.000000,4.000000,4.000000,56.000000,0.000000,0.208951,-0.088379,0.880371,0.416504,0.516121,-0.612802,0.578134,13.760874,-47.581944,60.033733,,,,,,,,,,,,,,,,,,,,,,,,,
1577742457.765788,113.000000,0.000000,4315.897461,4343.077148,4164.102539,4133.846191,4234.871582,450.000000,4.000000,,,,0.000000,4.000000,4.000000,4.000000,4.000000,4.000000,,,,,,,,,,,,,,,,,,,,,,,,,,,,,,,,,,,,,
1577742457.773485,114.000000,0.000000,4345.128418,4346.666504,4196.410156,4177.948730,4270.256348,450.000000,4.000000,,,,0.000000,4.000000,4.000000,4.000000,4.000000,4.000000,57.000000,0.000000,0.208847,-0.088623,0.880371,0.416504,0.523445,-0.623056,0.595712,13.341832,-47.429535,58.337067,,,,,,,,,,,,,,,,,,,,,,,,,
1577742457.781281,115.000000,0.000000,4338.461426,4313.333496,4193.333496,4178.974121,4270.256348,16221.000000,4.000000,,,,0.000000,4.000000,4.000000,4.000000,4.000000,4.000000,,,,,,,,,,,,,,,,,,,,,,,,,,,,,,,,,,,,,
1577742457.788978,116.000000,0.000000,4327.692383,4327.692383,4192.307617,4174.358887,4263.589844,450.000000,4.000000,,,,0.000000,4.000000,4.000000,4.000000,4.000000,4.000000,58.000000,0.000000,0.208847,-0.088623,0.880371,0.416504,0.509285,-0.631357,0.597665,9.076696,-47.292362,58.664345,,,,,,,,,,,,,,,,,,,,,,,,,
1577742457.796875,117.000000,0.000000,4311.282227,4361.025879,4185.641113,4166.153809,4248.717773,450.000000,4.000000,,,,0.000000,4.000000,4.000000,4.000000,4.000000,4.000000,,,,,,,,,,,,,,,,,,,,,,,,,,,,,,,,,,,,,
1577742457.804671,118.000000,0.000000,4296.410156,4352.820313,4171.794922,4160.000000,4236.410156,450.000000,4.000000,,,,0.000000,4.000000,4.000000,4.000000,4.000000,4.000000,59.000000,0.000000,0.209333,-0.088623,0.880371,0.416260,0.516121,-0.615732,0.594736,11.817764,-47.467987,56.984985,,,,,,,,,,,,,,,,,,,,,,,,,
1577742457.812568,119.000000,0.000000,4305.128418,4345.641113,4175.384766,4176.922852,4248.205078,16221.000000,4.000000,,,,0.000000,4.000000,4.000000,4.000000,4.000000,4.000000,,,,,,,,,,,,,,,,,,,,,,,,,,,,,,,,,,,,,
1577742457.820365,120.000000,0.000000,4280.512695,4340.000000,4154.358887,4163.077148,4229.743652,450.000000,4.000000,,,,0.000000,4.000000,4.000000,4.000000,4.000000,4.000000,60.000000,0.000000,0.209333,-0.088623,0.880371,0.416260,0.524910,-0.629892,0.597177,11.652849,-47.446602,57.447468,,,,,,,,,,,,,,,,,,,,,,,,,
1577742457.828162,121.000000,0.000000,4246.153809,4335.384766,4135.897461,4140.000000,4196.922852,450.000000,4.000000,,,,0.000000,4.000000,4.000000,4.000000,4.000000,4.000000,,,,,,,,,,,,,,,,,,,,,,,,,,,,,,,,,,,,,
1577742457.835858,122.000000,0.000000,4257.948730,4343.077148,4161.025879,4158.974121,4205.641113,450.000000,4.000000,,,,0.000000,4.000000,4.000000,4.000000,4.000000,4.000000,61.000000,0.000000,0.209333,-0.088623,0.880371,0.416260,0.517586,-0.622080,0.606455,7.616426,-47.546986,57.803890,,,,,,,,,,,,,,,,,,,,,,,,,
1577742457.843655,123.000000,0.000000,4262.051270,4331.794922,4166.153809,4166.666504,4212.307617,16221.000000,4.000000,,,,0.000000,4.000000,4.000000,4.000000,4.000000,4.000000,,,,,,,,,,,,,6.866400,14.533736,11.162498,4.904593,6.342233,0.628338,2.144608,0.964012,1.725376,4.372723,2.029147,10.540161,8.698475,2.647587,5.818904,5.208674,14.677627,14.594174,4.867497,7.593408,3.507523,18.037239,13.611692,5.064928,6.778142
1577742457.851351,124.000000,0.000000,4214.871582,4305.128418,4127.179688,4124.615234,4167.692383,450.000000,4.000000,,,,0.000000,4.000000,4.000000,4.000000,4.000000,4.000000,62.000000,0.000000,0.209333,-0.088623,0.880371,0.416260,0.516121,-0.615732,0.589364,10.623152,-47.517704,58.124668,,,,,,,,,,,,,,,,,,,,,,,,,
1577742457.859148,125.000000,0.000000,4180.000000,4316.922852,4112.820313,4093.846191,4130.769043,450.000000,4.000000,,,,0.000000,4.000000,4.000000,4.000000,4.000000,4.000000,,,,,,,,,,,,,,,,,,,,,,,,,,,,,,,,,,,,,
1577742457.866844,126.000000,0.000000,4207.179688,4342.563965,4142.051270,4118.974121,4157.436035,450.000000,4.000000,,,,0.000000,4.000000,4.000000,4.000000,4.000000,4.000000,63.000000,0.000000,0.209818,-0.088623,0.880371,0.416016,0.512215,-0.599130,0.603037,10.338436,-47.431530,58.473183,,,,,,,,,,,,,,,,,,,,,,,,,
1577742457.874641,127.000000,0.000000,4221.025879,4325.641113,4144.615234,4137.436035,4175.384766,236.000000,4.000000,,,,0.000000,4.000000,4.000000,4.000000,4.000000,4.000000,,,,,,,,,,,,,,,,,,,,,,,,,,,,,,,,,,,,,
1577742457.882338,0.000000,0.000000,4169.743652,4316.922852,4102.051270,4097.436035,4130.769043,450.000000,4.000000,,,,0.000000,4.000000,4.000000,4.000000,4.000000,4.000000,0.000000,0.000000,0.208895,-0.088379,0.880615,0.416016,0.520027,-0.609873,0.599619,10.201823,-47.353977,58.906479,,,,,,,,,,,,,,,,,,,,,,,,,
1577742457.890134,1.000000,0.000000,4146.666504,4341.538574,4093.846191,4077.948730,4112.307617,450.000000,4.000000,,,,0.000000,4.000000,4.000000,4.000000,4.000000,4.000000,,,,,,,,,,,,,,,,,,,,,,,,,,,,,,,,,,,,,
1577742457.897831,2.000000,0.000000,4198.974121,4349.743652,4135.897461,4130.256348,4163.589844,16210.000000,4.000000,,,,0.000000,4.000000,4.000000,4.000000,4.000000,4.000000,1.000000,0.000000,0.208895,-0.088379,0.880615,0.416016,0.508797,-0.615732,0.585458,12.052778,-47.403809,57.143089,,,,,,,,,,,,,,,,,,,,,,,,,
1577742457.905727,3.000000,0.000000,4208.717773,4324.615234,4133.333496,4142.051270,4171.282227,450.000000,4.000000,,,,0.000000,4.000000,4.000000,4.000000,4.000000,4.000000,,,,,,,,,,,,,,,,,,,,,,,,,,,,,,,,,,,,,
1577742457.913524,4.000000,0.000000,4155.384766,4298.461426,4095.897461,4094.358887,4127.692383,16242.000000,4.000000,,,,0.000000,4.000000,4.000000,4.000000,4.000000,4.000000,2.000000,0.000000,0.208998,-0.088135,0.880615,0.416016,0.507820,-0.601083,0.600107,13.718638,-47.448658,55.556042,,,,,,,,,,,,,,,,,,,,,,,,,
1577742457.921221,5.000000,0.000000,4150.769043,4312.820313,4108.205078,4098.974121,4136.922852,450.000000,4.000000,,,,0.000000,4.000000,4.000000,4.000000,4.000000,4.000000,,,,,,,,,,,,,,,,,,,,,,,,,,,,,,,,,,,,,
1577742457.929018,6.000000,0.000000,4176.410156,4355.897461,4134.358887,4133.333496,4162.051270,16150.000000,4.000000,,,,0.000000,4.000000,4.000000,4.000000,4.000000,4.000000,3.000000,0.000000,0.208998,-0.088135,0.880615,0.416016,0.514168,-0.617197,0.599130,13.124374,-47.489021,56.161419,,,,,,,,,,,,,,,,,,,,,,,,,
1577742457.936815,7.000000,0.000000,4151.794922,4345.128418,4116.922852,4112.820313,4130.769043,450.000000,4.000000,,,,0.000000,4.000000,4.000000,4.000000,4.000000,4.000000,,,,,,,,,,,,,,,,,,,,,,,,,,,,,,,,,,,,,
1577742457.944611,8.000000,0.000000,4093.333252,4281.025879,4069.230713,4053.846191,4067.179443,450.000000,4.000000,,,,0.000000,4.000000,4.000000,4.000000,4.000000,4.000000,4.000000,0.000000,0.208998,-0.088135,0.880615,0.416016,0.508797,-0.621103,0.592294,14.683074,-47.525349,54.672539,,,,,,,,,,,,,,,,,,,,,,,,,
1577742457.952308,9.000000,0.000000,4066.666748,4286.666504,4048.205078,4029.230713,4040.512939,16188.000000,4.000000,,,,0.000000,4.000000,4.000000,4.000000,4.000000,4.000000,,,,,,,,,,,,,,,,,,,,,,,,,,,,,,,,,,,,,
1577742457.960105,10.000000,0.000000,4100.000000,4347.692383,4083.589844,4063.076904,4076.923096,450.000000,4.000000,,,,0.000000,4.000000,4.000000,4.000000,4.000000,4.000000,5.000000,0.000000,0.208998,-0.088135,0.880615,0.416016,0.525887,-0.606455,0.599619,14.111998,-47.558041,55.306454,,,,,,,,,,,,,,,,,,,,,,,,,
1577742457.967802,11.000000,0.000000,4138.974121,4340.000000,4116.922852,4101.538574,4117.436035,16214.000000,4.000000,,,,0.000000,4.000000,4.000000,4.000000,4.000000,4.000000,,,,,,,,,,,,,11.974650,14.843407,10.829288,5.199601,6.127113,0.721662,1.936367,0.977481,1.745650,4.175494,2.161496,10.190633,7.958258,2.904354,5.558950,5.143071,14.089610,13.631279,5.049793,7.355116,5.877506,17.188217,12.570200,5.262313,6.580236
1577742457.975598,12.000000,0.000000,4155.897461,4320.512695,4123.077148,4120.512695,4138.461426,450.000000,4.000000,,,,0.000000,4.000000,4.000000,4.000000,4.000000,4.000000,6.000000,0.000000,0.208998,-0.088135,0.880615,0.416016,0.514168,-0.617197,0.599130,13.478397,-47.707096,54.022697,,,,,,,,,,,,,,,,,,,,,,,,,
1577742457.983295,13.000000,0.000000,4154.871582,4334.358887,4117.436035,4126.153809,4147.692383,450.000000,4.000000,,,,0.000000,4.000000,4.000000,4.000000,4.000000,4.000000,,,,,,,,,,,,,,,,,,,,,,,,,,,,,,,,,,,,,
1577742457.991091,14.000000,0.000000,4049.230713,4278.974121,4030.256348,4031.794922,4045.128174,450.000000,4.000000,,,,0.000000,4.000000,4.000000,4.000000,4.000000,4.000000,7.000000,0.000000,0.208998,-0.088135,0.880615,0.416016,0.525887,-0.606455,0.599619,13.027788,-47.721619,54.721596,,,,,,,,,,,,,,,,,,,,,,,,,
1577742457.998788,15.000000,0.000000,3872.820557,4203.077148,3895.897461,3865.641113,3862.564209,16214.000000,4.000000,,,,0.000000,4.000000,4.000000,4.000000,4.000000,4.000000,,,,,,,,,,,,,,,,,,,,,,,,,,,,,,,,,,,,,
1577742458.006584,16.000000,0.000000,3798.461426,4220.000000,3857.435791,3804.615479,3788.718018,0.000000,4.000000,,,,0.000000,4.000000,4.000000,4.000000,4.000000,4.000000,8.000000,0.000000,0.209101,-0.087891,0.880615,0.416016,0.512215,-0.614755,0.593271,8.853871,-47.555237,55.530048,,,,,,,,,,,,,,,,,,,,,,,,,
1577742458.014281,17.000000,0.000000,3797.948730,4242.563965,3867.179443,3819.487061,3794.871826,0.000000,4.000000,,,,0.000000,4.000000,4.000000,4.000000,4.000000,4.000000,,,,,,,,,,,,,,,,,,,,,,,,,,,,,,,,,,,,,
1577742458.022078,18.000000,0.000000,3771.794922,4228.205078,3843.076904,3792.820557,3767.692383,0.000000,4.000000,,,,0.000000,4.000000,4.000000,4.000000,4.000000,4.000000,9.000000,0.000000,0.209101,-0.087891,0.880615,0.416016,0.510262,-0.616709,0.604501,11.617222,-47.405499,56.078213,,,,,,,,,,,,,,,,,,,,,,,,,
1577742458.029774,19.000000,0.000000,3792.307617,4261.538574,3862.051270,3807.692383,3782.564209,0.000000,4.000000,,,,0.000000,4.000000,4.000000,4.000000,4.000000,4.000000,,,,,,,,,,,,,,,,,,,,,,,,,,,,,,,,,,,,,
1577742458.037571,20.000000,0.000000,3858.461426,4297.948730,3922.564209,3884.102539,3857.948730,0.000000,4.000000,,,,0.000000,4.000000,4.000000,4.000000,4.000000,4.000000,10.000000,0.000000,0.209586,-0.087891,0.880615,0.415771,0.518074,-0.625986,0.585458,14.223867,-47.450176,54.777096,,,,,,,,,,,,,,,,,,,,,,,,,
1577742458.045267,21.000000,0.000000,3886.153809,4282.563965,3948.718018,3918.461426,3900.000000,0.000000,4.000000,,,,0.000000,4.000000,4.000000,4.000000,4.000000,4.000000,,,,,,,,,,,,,,,,,,,,,,,,,,,,,,,,,,,,,
1577742458.053064,22.000000,0.000000,3896.923096,4263.077148,3951.794922,3918.461426,3911.281982,0.000000,4.000000,,,,0.000000,4.000000,4.000000,4.000000,4.000000,4.000000,11.000000,0.000000,0.208998,-0.088135,0.880615,0.416016,0.515145,-0.620127,0.593759,9.750897,-47.430573,55.580002,,,,,,,,,,,,,,,,,,,,,,,,,
1577742458.060761,23.000000,0.000000,3912.820557,4260.000000,3961.025635,3927.179443,3925.128174,0.000000,4.000000,,,,0.000000,4.000000,4.000000,4.000000,4.000000,4.000000,,,,,,,,,,,,,,,,,,,,,,,,,,,,,,,,,,,,,
1577742458.068657,24.000000,0.000000,3901.025635,4277.436035,3960.512939,3923.076904,3918.974365,0.000000,4.000000,,,,0.000000,4.000000,4.000000,4.000000,4.000000,4.000000,12.000000,0.000000,0.208998,-0.088135,0.880615,0.416016,0.517098,-0.614755,0.596201,9.613223,-47.472744,54.268890,,,,,,,,,,,,,,,,,,,,,,,,,
1577742458.076454,25.000000,0.000000,3864.102539,4281.538574,3934.871826,3891.794922,3886.666748,0.000000,4.000000,,,,0.000000,4.000000,4.000000,4.000000,4.000000,4.000000,,,,,,,,,,,,,,,,,,,,,,,,,,,,,,,,,,,,,
1577742458.084351,26.000000,0.000000,3857.948730,4253.333496,3922.051270,3880.000000,3873.333252,0.000000,4.000000,,,,0.000000,4.000000,4.000000,4.000000,4.000000,4.000000,13.000000,0.000000,0.209101,-0.087891,0.880615,0.416016,0.510262,-0.606455,0.595224,5.601317,-47.331253,54.943169,,,,,,,,,,,,,,,,,,,,,,,,,
1577742458.092147,27.000000,0.000000,3873.333252,4240.000000,3932.307617,3887.692383,3886.666748,0.000000,4.000000,,,,0.000000,4.000000,4.000000,4.000000,4.000000,4.000000,,,,,,,,,,,,,23.312046,15.215140,10.013669,5.377610,5.975622,0.782956,1.795773,1.042262,1.852736,3.982632,2.492830,9.566094,6.867166,3.129411,5.249044,5.351642,12.983236,12.047098,5.159701,7.064869,10.955428,15.786712,10.880043,5.366673,6.386588
1577742458.100044,28.000000,0.000000,3860.512939,4261.025879,3930.769287,3880.512939,3885.641113,0.000000,4.000000,,,,0.000000,4.000000,4.000000,4.000000,4.000000,4.000000,14.000000,0.000000,0.209101,-0.087891,0.880615,0.416016,0.510262,-0.610849,0.593271,5.938416,-47.502987,53.695744,,,,,,,,,,,,,,,,,,,,,,,,,
1577742458.107841,29.000000,0.000000,3852.307617,4278.461426,3931.794922,3881.538574,3884.615479,0.000000,4.000000,,,,0.000000,4.000000,4.000000,4.000000,4.000000,4.000000,,,,,,,,,,,,,,,,,,,,,,,,,,,,,,,,,,,,,
1577742458.115737,30.000000,0.000000,3854.871826,4275.384766,3928.205078,3875.897461,3880.512939,0.000000,4.000000,,,,0.000000,4.000000,4.000000,4.000000,4.000000,4.000000,15.000000,0.000000,0.208998,-0.088135,0.880615,0.416016,0.520027,-0.613291,0.586435,2.413621,-47.418289,54.487152,,,,,,,,,,,,,,,,,,,,,,,,,
1577742458.123534,31.000000,0.000000,3835.384521,4264.102539,3903.076904,3843.589844,3856.410156,0.000000,4.000000,,,,0.000000,4.000000,4.000000,4.000000,4.000000,4.000000,,,,,,,,,,,,,,,,,,,,,,,,,,,,,,,,,,,,,
1577742458.131231,32.000000,0.000000,3834.871826,4246.153809,3900.512939,3838.974365,3853.846191,0.000000,4.000000,,,,0.000000,4.000000,4.000000,4.000000,4.000000,4.000000,16.000000,0.000000,0.209101,-0.087891,0.880615,0.416016,0.505379,-0.612314,0.597665,-0.878325,-47.401875,55.378864,,,,,,,,,,,,,,,,,,,,,,,,,
1577742458.139028,33.000000,0.000000,3868.205078,4249.230957,3929.743652,3884.615479,3884.102539,0.000000,4.000000,,,,0.000000,4.000000,4.000000,4.000000,4.000000,4.000000,,,,,,,,,,,,,,,,,,,,,,,,,,,,,,,,,,,,,
1577742458.146725,34.000000,0.000000,3863.076904,4267.179688,3926.153809,3904.615479,3880.512939,0.000000,4.000000,,,,0.000000,4.000000,4.000000,4.000000,4.000000,4.000000,17.000000,0.000000,0.209101,-0.087891,0.880615,0.416016,0.504402,-0.614755,0.580087,2.858245,-47.566547,56.001961,,,,,,,,,,,,,,,,,,,,,,,,,
1577742458.154521,35.000000,0.000000,3843.589844,4259.487305,3907.179443,3898.974365,3860.000000,0.000000,4.000000,,,,0.000000,4.000000,4.000000,4.000000,4.000000,4.000000,,,,,,,,,,,,,,,,,,,,,,,,,,,,,,,,,,,,,
1577742458.162218,36.000000,0.000000,3858.974365,4237.948730,3916.923096,3920.512939,3871.281982,0.000000,4.000000,,,,0.000000,4.000000,4.000000,4.000000,4.000000,4.000000,18.000000,0.000000,0.208998,-0.088135,0.880615,0.416016,0.512703,-0.618662,0.590829,3.350020,-47.475491,56.562748,,,,,,,,,,,,,,,,,,,,,,,,,
