title:008, start timestamp:2019-12-31T00:48:13.499837+03:00, stop timestamp:2019-12-31T00:48:41.267735+03:00, headset type:INSIGHT, headset serial:A2D200FB, headset firmware:930, subject name:Qasim, channels:56, sampling rate:eeg_128;mot_64;pow_8, samples:3560      , version:2.0
Timestamp,EEG.Counter,EEG.Interpolated,EEG.AF3,EEG.T7,EEG.Pz,EEG.T8,EEG.AF4,EEG.RawCq,EEG.Battery,MarkerIndex,MarkerType,MarkerValueInt,EEG.MarkerHardware,CQ.AF3,CQ.T7,CQ.Pz,CQ.T8,CQ.AF4,MOT.CounterMems,MOT.InterpolatedMems,MOT.Q0,MOT.Q1,MOT.Q2,MOT.Q3,MOT.AccX,MOT.AccY,MOT.AccZ,MOT.MagX,MOT.MagY,MOT.MagZ,POW.AF3.Theta,POW.AF3.Alpha,POW.AF3.BetaL,POW.AF3.BetaH,POW.AF3.Gamma,POW.T7.Theta,POW.T7.Alpha,POW.T7.BetaL,POW.T7.BetaH,POW.T7.Gamma,POW.Pz.Theta,POW.Pz.Alpha,POW.Pz.BetaL,POW.Pz.BetaH,POW.Pz.Gamma,POW.T8.Theta,POW.T8.Alpha,POW.T8.BetaL,POW.T8.BetaH,POW.T8.Gamma,POW.AF4.Theta,POW.AF4.Alpha,POW.AF4.BetaL,POW.AF4.BetaH,POW.AF4.Gamma
1577742493.499837,89.000000,0.000000,4214.871582,4313.333496,4131.282227,3971.794922,4202.563965,450.000000,4.000000,,,,0.000000,4.000000,4.000000,4.000000,4.000000,4.000000,,,,,,,,,,,,,,,,,,,,,,,,,,,,,,,,,,,,,
1577742493.507534,90.000000,0.000000,4275.897461,4351.794922,4190.256348,4037.435791,4271.282227,450.000000,4.000000,,,,0.000000,4.000000,4.000000,4.000000,4.000000,4.000000,45.000000,0.000000,0.197311,-0.133789,0.879395,0.412109,0.539071,-0.573251,0.611337,6.464307,-46.658875,58.746414,,,,,,,,,,,,,,,,,,,,,,,,,
1577742493.515430,91.000000,0.000000,4286.153809,4331.794922,4190.256348,4050.256348,4282.051270,16218.000000,4.000000,,,,0.000000,4.000000,4.000000,4.000000,4.000000,4.000000,,,,,,,,,,,,,21.800545,21.100248,9.630776,5.943837,3.843547,1.871278,2.410561,1.344221,2.213999,3.384423,12.679225,13.153276,8.764726,3.940981,3.193103,13.692228,20.435621,11.157046,6.180679,4.182073,20.404192,16.174963,10.435257,6.200821,3.869410
1577742493.523227,92.000000,0.000000,4226.153809,4313.846191,4125.128418,3992.820557,4216.922852,450.000000,4.000000,,,,0.000000,4.000000,4.000000,4.000000,4.000000,4.000000,46.000000,0.000000,0.197985,-0.133545,0.879395,0.411865,0.523934,-0.571298,0.610361,9.466614,-46.598770,59.152386,,,,,,,,,,,,,,,,,,,,,,,,,
1577742493.531023,93.000000,0.000000,4222.051270,4344.615234,4124.615234,3994.358887,4212.820313,450.000000,4.000000,,,,0.000000,4.000000,4.000000,4.000000,4.000000,4.000000,,,,,,,,,,,,,,,,,,,,,,,,,,,,,,,,,,,,,
1577742493.538720,94.000000,0.000000,4278.461426,4349.743652,4175.384766,4047.179443,4269.743652,450.000000,4.000000,,,,0.000000,4.000000,4.000000,4.000000,4.000000,4.000000,47.000000,0.000000,0.197985,-0.133545,0.879395,0.411865,0.527352,-0.600107,0.610361,9.417183,-46.664307,59.338314,,,,,,,,,,,,,,,,,,,,,,,,,
1577742493.546416,95.000000,0.000000,4290.256348,4323.589844,4176.410156,4050.256348,4285.128418,16218.000000,4.000000,,,,0.000000,4.000000,4.000000,4.000000,4.000000,4.000000,,,,,,,,,,,,,,,,,,,,,,,,,,,,,,,,,,,,,
1577742493.554213,96.000000,0.000000,4261.025879,4331.282227,4145.128418,4014.871826,4253.846191,450.000000,4.000000,,,,0.000000,4.000000,4.000000,4.000000,4.000000,4.000000,48.000000,0.000000,0.197985,-0.133545,0.879395,0.411865,0.528328,-0.586435,0.609384,5.484696,-46.723289,59.505650,,,,,,,,,,,,,,,,,,,,,,,,,
1577742493.561909,97.000000,0.000000,4249.743652,4341.538574,4131.794922,3994.871826,4231.794922,450.000000,4.000000,,,,0.000000,4.000000,4.000000,4.000000,4.000000,4.000000,,,,,,,,,,,,,,,,,,,,,,,,,,,,,,,,,,,,,
1577742493.569706,98.000000,0.000000,4256.410156,4328.205078,4142.051270,4001.538574,4236.410156,450.000000,4.000000,,,,0.000000,4.000000,4.000000,4.000000,4.000000,4.000000,49.000000,0.000000,0.198149,-0.133301,0.879395,0.411865,0.533700,-0.591806,0.600595,2.005274,-46.656746,59.895515,,,,,,,,,,,,,,,,,,,,,,,,,
1577742493.577403,99.000000,0.000000,4276.410156,4337.948730,4173.333496,4037.435791,4268.717773,16218.000000,4.000000,,,,0.000000,4.000000,4.000000,4.000000,4.000000,4.000000,,,,,,,,,,,,,,,,,,,,,,,,,,,,,,,,,,,,,
1577742493.585199,100.000000,0.000000,4296.922852,4365.128418,4194.871582,4070.769287,4293.846191,450.000000,4.000000,,,,0.000000,4.000000,4.000000,4.000000,4.000000,4.000000,50.000000,0.000000,0.198656,-0.133301,0.879395,0.411621,0.518563,-0.599619,0.603525,1.744931,-46.596855,60.007130,,,,,,,,,,,,,,,,,,,,,,,,,
1577742493.592996,101.000000,0.000000,4289.230957,4351.794922,4177.948730,4061.025635,4276.922852,450.000000,4.000000,,,,0.000000,4.000000,4.000000,4.000000,4.000000,4.000000,,,,,,,,,,,,,,,,,,,,,,,,,,,,,,,,,,,,,
1577742493.600692,102.000000,0.000000,4277.948730,4328.717773,4158.461426,4041.538574,4264.102539,450.000000,4.000000,,,,0.000000,4.000000,4.000000,4.000000,4.000000,4.000000,51.000000,0.000000,0.198656,-0.133301,0.879395,0.411621,0.530770,-0.598154,0.605478,4.561206,-46.542950,60.287029,,,,,,,,,,,,,,,,,,,,,,,,,
1577742493.608489,103.000000,0.000000,4305.128418,4351.794922,4177.436035,4059.487061,4297.436035,16218.000000,4.000000,,,,0.000000,4.000000,4.000000,4.000000,4.000000,4.000000,,,,,,,,,,,,,,,,,,,,,,,,,,,,,,,,,,,,,
1577742493.616185,104.000000,0.000000,4296.410156,4351.794922,4169.230957,4047.692383,4287.179688,450.000000,4.000000,,,,0.000000,4.000000,4.000000,4.000000,4.000000,4.000000,52.000000,0.000000,0.197572,-0.133301,0.879639,0.411621,0.530770,-0.593759,0.614755,4.882685,-46.554256,60.479126,,,,,,,,,,,,,,,,,,,,,,,,,
1577742493.623882,105.000000,0.000000,4252.820313,4324.102539,4136.410156,4002.051270,4241.025879,450.000000,4.000000,,,,0.000000,4.000000,4.000000,4.000000,4.000000,4.000000,,,,,,,,,,,,,,,,,,,,,,,,,,,,,,,,,,,,,
1577742493.631679,106.000000,0.000000,4268.205078,4337.436035,4150.256348,4021.025635,4253.846191,450.000000,4.000000,,,,0.000000,4.000000,4.000000,4.000000,4.000000,4.000000,53.000000,0.000000,0.198080,-0.133301,0.879639,0.411377,0.535164,-0.594736,0.600107,5.052386,-46.564426,58.797733,,,,,,,,,,,,,,,,,,,,,,,,,
1577742493.639475,107.000000,0.000000,4289.743652,4349.230957,4163.077148,4046.666748,4271.794922,16218.000000,4.000000,,,,0.000000,4.000000,4.000000,4.000000,4.000000,4.000000,,,,,,,,,,,,,18.491701,22.091307,9.439534,5.523459,4.060425,1.584829,2.429004,1.329011,2.239120,3.730304,10.673251,12.959205,7.748755,3.610104,3.442092,11.609039,20.889116,10.224544,5.837635,4.427977,16.445747,16.984953,9.684864,5.807415,4.071074
1577742493.647172,108.000000,0.000000,4284.615234,4337.436035,4155.897461,4025.641113,4266.153809,450.000000,4.000000,,,,0.000000,4.000000,4.000000,4.000000,4.000000,4.000000,54.000000,0.000000,0.198080,-0.133301,0.879639,0.411377,0.537118,-0.592782,0.607919,5.324747,-46.573586,58.959312,,,,,,,,,,,,,,,,,,,,,,,,,
1577742493.654868,109.000000,0.000000,4298.974121,4338.974121,4174.871582,4023.076904,4280.000000,450.000000,4.000000,,,,0.000000,4.000000,4.000000,4.000000,4.000000,4.000000,,,,,,,,,,,,,,,,,,,,,,,,,,,,,,,,,,,,,
1577742493.662665,110.000000,0.000000,4315.897461,4349.230957,4191.794922,4037.948730,4296.410156,450.000000,4.000000,,,,0.000000,4.000000,4.000000,4.000000,4.000000,4.000000,55.000000,0.000000,0.198422,-0.133545,0.879639,0.411133,0.521492,-0.588388,0.615732,5.749318,-46.462193,57.370087,,,,,,,,,,,,,,,,,,,,,,,,,
1577742493.670362,111.000000,0.000000,4297.948730,4340.512695,4172.820313,4021.025635,4282.563965,16218.000000,4.000000,,,,0.000000,4.000000,4.000000,4.000000,4.000000,4.000000,,,,,,,,,,,,,,,,,,,,,,,,,,,,,,,,,,,,,
1577742493.678158,112.000000,0.000000,4286.153809,4343.589844,4165.128418,4003.589844,4273.846191,450.000000,4.000000,,,,0.000000,4.000000,4.000000,4.000000,4.000000,4.000000,56.000000,0.000000,0.198763,-0.133789,0.879639,0.410889,0.538094,-0.586923,0.603037,8.823124,-46.421757,55.999599,,,,,,,,,,,,,,,,,,,,,,,,,
1577742493.685955,113.000000,0.000000,4312.820313,4363.589844,4193.846191,4027.692383,4303.589844,450.000000,4.000000,,,,0.000000,4.000000,4.000000,4.000000,4.000000,4.000000,,,,,,,,,,,,,,,,,,,,,,,,,,,,,,,,,,,,,
1577742493.693651,114.000000,0.000000,4325.641113,4347.692383,4200.512695,4049.230713,4316.922852,450.000000,4.000000,,,,0.000000,4.000000,4.000000,4.000000,4.000000,4.000000,57.000000,0.000000,0.197348,-0.134277,0.879883,0.410889,0.524422,-0.591318,0.609384,8.838041,-46.385365,56.740070,,,,,,,,,,,,,,,,,,,,,,,,,
1577742493.701548,115.000000,0.000000,4309.230957,4320.000000,4171.794922,4030.769287,4295.897461,16218.000000,4.000000,,,,0.000000,4.000000,4.000000,4.000000,4.000000,4.000000,,,,,,,,,,,,,,,,,,,,,,,,,,,,,,,,,,,,,
1577742493.709345,116.000000,0.000000,4304.102539,4337.948730,4167.692383,4018.461426,4288.205078,450.000000,4.000000,,,,0.000000,4.000000,4.000000,4.000000,4.000000,4.000000,58.000000,0.000000,0.197690,-0.134521,0.879883,0.410645,0.519539,-0.583017,0.611337,8.731837,-46.412426,57.107414,,,,,,,,,,,,,,,,,,,,,,,,,
1577742493.717141,117.000000,0.000000,4308.205078,4358.974121,4189.743652,4031.281982,4294.871582,450.000000,4.000000,,,,0.000000,4.000000,4.000000,4.000000,4.000000,4.000000,,,,,,,,,,,,,,,,,,,,,,,,,,,,,,,,,,,,,
1577742493.724938,118.000000,0.000000,4299.487305,4328.205078,4179.487305,4024.102539,4285.641113,450.000000,4.000000,,,,0.000000,4.000000,4.000000,4.000000,4.000000,4.000000,59.000000,0.000000,0.197690,-0.134521,0.879883,0.410645,0.521004,-0.582040,0.610849,4.808070,-46.436783,55.583748,,,,,,,,,,,,,,,,,,,,,,,,,
1577742493.732635,119.000000,0.000000,4292.820313,4316.410156,4161.025879,4006.666748,4280.512695,16218.000000,4.000000,,,,0.000000,4.000000,4.000000,4.000000,4.000000,4.000000,,,,,,,,,,,,,,,,,,,,,,,,,,,,,,,,,,,,,
1577742493.740531,120.000000,0.000000,4294.871582,4343.589844,4172.307617,4015.384521,4289.743652,450.000000,4.000000,,,,0.000000,4.000000,4.000000,4.000000,4.000000,4.000000,60.000000,0.000000,0.197523,-0.134766,0.879883,0.410645,0.521492,-0.571298,0.609384,1.866796,-46.418617,53.038097,,,,,,,,,,,,,,,,,,,,,,,,,
1577742493.748328,121.000000,0.000000,4292.820313,4345.128418,4172.820313,4024.615479,4288.717773,450.000000,4.000000,,,,0.000000,4.000000,4.000000,4.000000,4.000000,4.000000,,,,,,,,,,,,,,,,,,,,,,,,,,,,,,,,,,,,,
1577742493.756224,122.000000,0.000000,4296.922852,4340.512695,4158.461426,4024.102539,4287.692383,450.000000,4.000000,,,,0.000000,4.000000,4.000000,4.000000,4.000000,4.000000,61.000000,0.000000,0.198442,-0.135010,0.879639,0.410645,0.537118,-0.573739,0.614755,2.397901,-46.382538,53.895267,,,,,,,,,,,,,,,,,,,,,,,,,
1577742493.764021,123.000000,0.000000,4306.153809,4347.692383,4158.974121,4028.205078,4296.410156,16218.000000,4.000000,,,,0.000000,4.000000,4.000000,4.000000,4.000000,4.000000,,,,,,,,,,,,,14.237652,20.858866,8.816681,4.874035,4.339734,1.240067,2.248801,1.374079,2.298815,3.970011,8.204349,11.646911,6.454979,3.148845,3.669017,9.067639,19.283516,8.710576,5.172366,4.746714,12.068358,16.307194,8.416313,5.136264,4.342110
1577742493.771717,124.000000,0.000000,4300.512695,4343.589844,4158.974121,4025.128174,4289.743652,450.000000,4.000000,,,,0.000000,4.000000,4.000000,4.000000,4.000000,4.000000,62.000000,0.000000,0.197936,-0.135010,0.879639,0.410889,0.522957,-0.589364,0.617685,5.806848,-46.350067,54.786354,,,,,,,,,,,,,,,,,,,,,,,,,
1577742493.779514,125.000000,0.000000,4275.384766,4329.743652,4142.051270,4005.641113,4262.051270,450.000000,4.000000,,,,0.000000,4.000000,4.000000,4.000000,4.000000,4.000000,,,,,,,,,,,,,,,,,,,,,,,,,,,,,,,,,,,,,
1577742493.787211,126.000000,0.000000,4266.666504,4326.666504,4136.922852,4002.564209,4255.897461,450.000000,4.000000,,,,0.000000,4.000000,4.000000,4.000000,4.000000,4.000000,63.000000,0.000000,0.197936,-0.135010,0.879639,0.410889,0.529793,-0.573739,0.617197,8.874900,-46.320843,55.588333,,,,,,,,,,,,,,,,,,,,,,,,,
1577742493.795107,127.000000,0.000000,4279.487305,4330.256348,4139.487305,4017.435791,4267.179688,236.000000,4.000000,,,,0.000000,4.000000,4.000000,4.000000,4.000000,4.000000,,,,,,,,,,,,,,,,,,,,,,,,,,,,,,,,,,,,,
1577742493.802904,0.000000,0.000000,4263.077148,4319.487305,4115.384766,4001.538574,4244.102539,450.000000,4.000000,,,,0.000000,4.000000,4.000000,4.000000,4.000000,4.000000,0.000000,0.000000,0.197595,-0.134766,0.879639,0.411133,0.526375,-0.574716,0.626474,8.765010,-46.354359,54.276390,,,,,,,,,,,,,,,,,,,,,,,,,
1577742493.810801,1.000000,0.000000,4238.461426,4314.871582,4101.025879,3978.461426,4223.077148,450.000000,4.000000,,,,0.000000,4.000000,4.000000,4.000000,4.000000,4.000000,,,,,,,,,,,,,,,,,,,,,,,,,,,,,,,,,,,,,
1577742493.818597,2.000000,0.000000,4233.333496,4323.077148,4107.179688,3980.000000,4226.666504,16218.000000,4.000000,,,,0.000000,4.000000,4.000000,4.000000,4.000000,4.000000,1.000000,0.000000,0.197595,-0.134766,0.879639,0.411133,0.527352,-0.585946,0.622568,8.666109,-46.504150,55.129364,,,,,,,,,,,,,,,,,,,,,,,,,
1577742493.826494,3.000000,0.000000,4195.897461,4304.615234,4075.897461,3949.743652,4193.846191,450.000000,4.000000,,,,0.000000,4.000000,4.000000,4.000000,4.000000,4.000000,,,,,,,,,,,,,,,,,,,,,,,,,,,,,,,,,,,,,
1577742493.834290,4.000000,0.000000,4169.230957,4290.256348,4054.358887,3926.666748,4167.179688,16242.000000,4.000000,,,,0.000000,4.000000,4.000000,4.000000,4.000000,4.000000,2.000000,0.000000,0.197936,-0.135010,0.879639,0.410889,0.529793,-0.573739,0.617197,11.508051,-46.399704,56.016674,,,,,,,,,,,,,,,,,,,,,,,,,
1577742493.842187,5.000000,0.000000,4238.461426,4328.205078,4122.563965,4003.589844,4236.410156,450.000000,4.000000,,,,0.000000,4.000000,4.000000,4.000000,4.000000,4.000000,,,,,,,,,,,,,,,,,,,,,,,,,,,,,,,,,,,,,
1577742493.849983,6.000000,0.000000,4291.282227,4344.615234,4165.641113,4062.051270,4296.410156,16150.000000,4.000000,,,,0.000000,4.000000,4.000000,4.000000,4.000000,4.000000,3.000000,0.000000,0.197595,-0.134766,0.879639,0.411133,0.527352,-0.585946,0.622568,11.134846,-46.544964,56.695618,,,,,,,,,,,,,,,,,,,,,,,,,
1577742493.857880,7.000000,0.000000,4239.487305,4315.897461,4107.179688,4001.538574,4245.641113,450.000000,4.000000,,,,0.000000,4.000000,4.000000,4.000000,4.000000,4.000000,,,,,,,,,,,,,,,,,,,,,,,,,,,,,,,,,,,,,
1577742493.865676,8.000000,0.000000,4209.230957,4326.153809,4087.692383,3967.692383,4210.256348,450.000000,4.000000,,,,0.000000,4.000000,4.000000,4.000000,4.000000,4.000000,4.000000,0.000000,0.197761,-0.134521,0.879639,0.411133,0.522469,-0.582040,0.607919,10.918591,-46.496250,57.306671,,,,,,,,,,,,,,,,,,,,,,,,,
1577742493.873573,9.000000,0.000000,4247.179688,4336.410156,4134.871582,4009.743652,4247.692383,16197.000000,4.000000,,,,0.000000,4.000000,4.000000,4.000000,4.000000,4.000000,,,,,,,,,,,,,,,,,,,,,,,,,,,,,,,,,,,,,
1577742493.881369,10.000000,0.000000,4234.358887,4305.128418,4121.538574,3993.846191,4240.512695,450.000000,4.000000,,,,0.000000,4.000000,4.000000,4.000000,4.000000,4.000000,5.000000,0.000000,0.197348,-0.134277,0.879883,0.410889,0.530282,-0.580087,0.610361,10.604332,-46.392593,57.796803,,,,,,,,,,,,,,,,,,,,,,,,,
1577742493.889266,11.000000,0.000000,4179.487305,4295.897461,4070.256348,3937.435791,4189.743652,16211.000000,4.000000,,,,0.000000,4.000000,4.000000,4.000000,4.000000,4.000000,,,,,,,,,,,,,10.301707,17.985386,7.840986,4.275318,4.583663,0.900850,1.946046,1.500036,2.410424,4.047412,5.787057,9.786170,5.248399,2.714832,3.815962,6.559734,16.306404,7.014709,4.447350,5.038190,8.271649,14.519159,6.997094,4.466125,4.599295
1577742493.897062,12.000000,0.000000,4174.358887,4307.179688,4073.846191,3935.897461,4177.948730,450.000000,4.000000,,,,0.000000,4.000000,4.000000,4.000000,4.000000,4.000000,6.000000,0.000000,0.196839,-0.134277,0.879883,0.411133,0.512703,-0.597665,0.601572,6.433500,-46.418930,58.178104,,,,,,,,,,,,,,,,,,,,,,,,,
1577742493.904959,13.000000,0.000000,4215.897461,4325.128418,4110.769043,3977.948730,4211.282227,450.000000,4.000000,,,,0.000000,4.000000,4.000000,4.000000,4.000000,4.000000,,,,,,,,,,,,,,,,,,,,,,,,,,,,,,,,,,,,,
1577742493.912755,14.000000,0.000000,4240.512695,4341.025879,4127.179688,4009.230713,4240.000000,450.000000,4.000000,,,,0.000000,4.000000,4.000000,4.000000,4.000000,4.000000,7.000000,0.000000,0.196839,-0.134277,0.879883,0.411133,0.529305,-0.589853,0.603525,9.438887,-46.562267,58.640907,,,,,,,,,,,,,,,,,,,,,,,,,
1577742493.920651,15.000000,0.000000,4223.077148,4326.666504,4108.717773,3995.384521,4225.128418,16211.000000,4.000000,,,,0.000000,4.000000,4.000000,4.000000,4.000000,4.000000,,,,,,,,,,,,,,,,,,,,,,,,,,,,,,,,,,,,,
1577742493.928448,16.000000,0.000000,4241.538574,4335.897461,4118.461426,4000.512939,4234.871582,0.000000,4.000000,,,,0.000000,4.000000,4.000000,4.000000,4.000000,4.000000,8.000000,0.000000,0.197927,-0.134277,0.879639,0.411133,0.534676,-0.574716,0.607919,12.143736,-46.631454,59.177059,,,,,,,,,,,,,,,,,,,,,,,,,
1577742493.936145,17.000000,0.000000,4327.179688,4374.871582,4181.025879,4073.846191,4316.410156,0.000000,4.000000,,,,0.000000,4.000000,4.000000,4.000000,4.000000,4.000000,,,,,,,,,,,,,,,,,,,,,,,,,,,,,,,,,,,,,
1577742493.944041,18.000000,0.000000,4361.538574,4346.153809,4182.563965,4089.743652,4343.077148,0.000000,4.000000,,,,0.000000,4.000000,4.000000,4.000000,4.000000,4.000000,9.000000,0.000000,0.197419,-0.134277,0.879639,0.411377,0.537118,-0.582528,0.628428,11.886408,-46.633907,59.539967,,,,,,,,,,,,,,,,,,,,,,,,,
1577742493.951838,19.000000,0.000000,4336.922852,4307.179688,4124.615234,4019.487061,4295.897461,0.000000,4.000000,,,,0.000000,4.000000,4.000000,4.000000,4.000000,4.000000,,,,,,,,,,,,,,,,,,,,,,,,,,,,,,,,,,,,,
1577742493.959735,20.000000,0.000000,4371.794922,4345.641113,4118.974121,4002.051270,4303.589844,0.000000,4.000000,,,,0.000000,4.000000,4.000000,4.000000,4.000000,4.000000,10.000000,0.000000,0.196910,-0.134277,0.879639,0.411621,0.536629,-0.596201,0.615732,11.594997,-46.636116,59.687138,,,,,,,,,,,,,,,,,,,,,,,,,
1577742493.967531,21.000000,0.000000,4422.051270,4346.666504,4123.589844,4008.718018,4328.717773,0.000000,4.000000,,,,0.000000,4.000000,4.000000,4.000000,4.000000,4.000000,,,,,,,,,,,,,,,,,,,,,,,,,,,,,,,,,,,,,
1577742493.975428,22.000000,0.000000,4425.641113,4295.384766,4093.846191,3969.230713,4309.743652,0.000000,4.000000,,,,0.000000,4.000000,4.000000,4.000000,4.000000,4.000000,11.000000,0.000000,0.197076,-0.134033,0.879639,0.411621,0.522469,-0.584482,0.621103,11.392544,-46.638103,59.879406,,,,,,,,,,,,,,,,,,,,,,,,,
1577742493.983225,23.000000,0.000000,4468.717773,4323.589844,4113.333496,3976.923096,4338.974121,0.000000,4.000000,,,,0.000000,4.000000,4.000000,4.000000,4.000000,4.000000,,,,,,,,,,,,,,,,,,,,,,,,,,,,,,,,,,,,,
1577742493.991122,24.000000,0.000000,4563.077148,4385.128418,4183.077148,4050.769287,4428.205078,0.000000,4.000000,,,,0.000000,4.000000,4.000000,4.000000,4.000000,4.000000,12.000000,0.000000,0.197242,-0.133789,0.879639,0.411621,0.528817,-0.600595,0.605478,11.270150,-46.639893,58.138359,,,,,,,,,,,,,,,,,,,,,,,,,
1577742493.998918,25.000000,0.000000,4596.410156,4359.487305,4188.205078,4066.153809,4453.846191,0.000000,4.000000,,,,0.000000,4.000000,4.000000,4.000000,4.000000,4.000000,,,,,,,,,,,,,,,,,,,,,,,,,,,,,,,,,,,,,
1577742494.006815,26.000000,0.000000,4541.025879,4308.205078,4124.615234,3998.461426,4386.666504,0.000000,4.000000,,,,0.000000,4.000000,4.000000,4.000000,4.000000,4.000000,13.000000,0.000000,0.196827,-0.133545,0.879883,0.411377,0.526864,-0.584482,0.611826,7.092552,-46.581684,58.306057,,,,,,,,,,,,,,,,,,,,,,,,,
1577742494.014612,27.000000,0.000000,4523.077148,4346.666504,4127.692383,3983.589844,4362.051270,0.000000,4.000000,,,,0.000000,4.000000,4.000000,4.000000,4.000000,4.000000,,,,,,,,,,,,,7.499031,14.435419,6.654991,3.908276,4.747313,0.638570,1.621794,1.687844,2.544608,3.962959,3.985409,8.029993,4.374286,2.412081,3.890130,4.834074,12.974920,5.494761,3.884804,5.253552,5.866340,12.248419,5.737907,3.989926,4.812264
1577742494.022508,28.000000,0.000000,4564.102539,4381.025879,4181.538574,4034.871826,4404.102539,0.000000,4.000000,,,,0.000000,4.000000,4.000000,4.000000,4.000000,4.000000,14.000000,0.000000,0.196827,-0.133545,0.879883,0.411377,0.530282,-0.590341,0.603525,10.151665,-46.648930,58.636436,,,,,,,,,,,,,,,,,,,,,,,,,
1577742494.030305,29.000000,0.000000,4555.897461,4330.769043,4174.871582,4035.384521,4398.461426,0.000000,4.000000,,,,0.000000,4.000000,4.000000,4.000000,4.000000,4.000000,,,,,,,,,,,,,,,,,,,,,,,,,,,,,,,,,,,,,
1577742494.038201,30.000000,0.000000,4514.358887,4311.794922,4144.615234,4003.589844,4356.922852,0.000000,4.000000,,,,0.000000,4.000000,4.000000,4.000000,4.000000,4.000000,15.000000,0.000000,0.196482,-0.133301,0.879883,0.411621,0.527352,-0.585946,0.611337,9.973913,-46.709450,59.053406,,,,,,,,,,,,,,,,,,,,,,,,,
1577742494.045998,31.000000,0.000000,4511.794922,4352.307617,4155.384766,4012.307617,4354.871582,0.000000,4.000000,,,,0.000000,4.000000,4.000000,4.000000,4.000000,4.000000,,,,,,,,,,,,,,,,,,,,,,,,,,,,,,,,,,,,,
1577742494.053894,32.000000,0.000000,4494.871582,4351.794922,4146.153809,4007.692383,4342.051270,0.000000,4.000000,,,,0.000000,4.000000,4.000000,4.000000,4.000000,4.000000,16.000000,0.000000,0.197572,-0.133301,0.879639,0.411621,0.521004,-0.579599,0.605478,8.856892,-46.584473,59.428677,,,,,,,,,,,,,,,,,,,,,,,,,
1577742494.061791,33.000000,0.000000,4427.179688,4315.384766,4103.077148,3960.512939,4281.025879,0.000000,4.000000,,,,0.000000,4.000000,4.000000,4.000000,4.000000,4.000000,,,,,,,,,,,,,,,,,,,,,,,,,,,,,,,,,,,,,
1577742494.069588,34.000000,0.000000,4413.333496,4322.051270,4110.256348,3972.820557,4276.922852,0.000000,4.000000,,,,0.000000,4.000000,4.000000,4.000000,4.000000,4.000000,17.000000,0.000000,0.196897,-0.133545,0.879639,0.411865,0.523445,-0.584970,0.615732,8.748802,-46.591625,57.732700,,,,,,,,,,,,,,,,,,,,,,,,,
1577742494.077384,35.000000,0.000000,4482.563965,4364.102539,4174.358887,4060.512939,4356.410156,0.000000,4.000000,,,,0.000000,4.000000,4.000000,4.000000,4.000000,4.000000,,,,,,,,,,,,,,,,,,,,,,,,,,,,,,,,,,,,,
1577742494.085281,36.000000,0.000000,4489.743652,4354.358887,4183.589844,4089.743652,4368.205078,0.000000,4.000000,,,,0.000000,4.000000,4.000000,4.000000,4.000000,4.000000,18.000000,0.000000,0.196552,-0.133301,0.879639,0.412109,0.530282,-0.580087,0.604990,8.651522,-46.657875,58.419491,,,,,,,,,,,,,,,,,,,,,,,,,
1577742494.093077,37.000000,0.000000,4397.436035,4302.563965,4120.000000,4023.589844,4286.666504,0.000000,4.000000,,,,0.000000,4.000000,4.000000,4.000000,4.000000,4.000000,,,,,,,,,,,,,,,,,,,,,,,,,,,,,,,,,,,,,
1577742494.100874,38.000000,0.000000,4369.743652,4307.692383,4115.897461,4015.384521,4270.256348,0.000000,4.000000,,,,0.000000,4.000000,4.000000,4.000000,4.000000,4.000000,19.000000,0.000000,0.196552,-0.133301,0.879639,0.412109,0.523934,-0.593271,0.617685,8.563969,-46.717503,58.858154,,,,,,,,,,,,,,,,,,,,,,,,,
1577742494.108570,39.000000,0.000000,4429.230957,4355.897461,4176.410156,4089.743652,4339.487305,0.000000,4.000000,,,,0.000000,4.000000,4.000000,4.000000,4.000000,4.000000,,,,,,,,,,,,,,,,,,,,,,,,,,,,,,,,,,,,,
1577742494.116267,40.000000,0.000000,4425.641113,4363.077148,4178.461426,4107.692383,4355.384766,0.000000,4.000000,,,,0.000000,4.000000,4.000000,4.000000,4.000000,4.000000,20.000000,0.000000,0.196205,-0.133057,0.879639,0.412354,0.512215,-0.594736,0.615244,11.356310,-46.711349,59.252953,,,,,,,,,,,,,,,,,,,,,,,,,
1577742494.124164,41.000000,0.000000,4357.436035,4333.846191,4135.384766,4060.512939,4301.025879,0.000000,4.000000,,,,0.000000,4.000000,4.000000,4.000000,4.000000,4.000000,,,,,,,,,,,,,,,,,,,,,,,,,,,,,,,,,,,,,
1577742494.131960,42.000000,0.000000,4326.153809,4325.641113,4123.589844,4038.461426,4271.794922,0.000000,4.000000,,,,0.000000,4.000000,4.000000,4.000000,4.000000,4.000000,21.000000,0.000000,0.196370,-0.132813,0.879639,0.412354,0.518074,-0.594247,0.620127,10.998279,-46.705814,59.488640,,,,,,,,,,,,,,,,,,,,,,,,,
1577742494.139757,43.000000,0.000000,4329.230957,4336.410156,4135.384766,4049.230713,4272.820313,0.000000,4.000000,,,,0.000000,4.000000,4.000000,4.000000,4.000000,4.000000,,,,,,,,,,,,,6.359139,11.112542,5.610229,3.810689,4.858225,0.478712,1.384652,1.926710,2.623961,3.763993,3.128532,6.821303,4.004579,2.270529,3.960538,3.965990,10.222108,4.574266,3.607899,5.416572,4.909271,10.100779,4.965788,3.765982,5.011473
1577742494.147454,44.000000,0.000000,4336.410156,4340.512695,4150.769043,4063.076904,4272.307617,0.000000,4.000000,,,,0.000000,4.000000,4.000000,4.000000,4.000000,4.000000,22.000000,0.000000,0.196699,-0.132324,0.879639,0.412354,0.526375,-0.603525,0.619150,10.795681,-46.820461,57.846481,,,,,,,,,,,,,,,,,,,,,,,,,
1577742494.155250,45.000000,0.000000,4347.179688,4342.051270,4169.743652,4081.538574,4282.563965,0.000000,4.000000,,,,0.000000,4.000000,4.000000,4.000000,4.000000,4.000000,,,,,,,,,,,,,,,,,,,,,,,,,,,,,,,,,,,,,
1577742494.162947,46.000000,0.000000,4310.256348,4340.512695,4145.641113,4058.974365,4256.410156,0.000000,4.000000,,,,0.000000,4.000000,4.000000,4.000000,4.000000,4.000000,23.000000,0.000000,0.195769,-0.132080,0.879883,0.412354,0.525399,-0.591806,0.598154,10.493712,-46.804016,58.222816,,,,,,,,,,,,,,,,,,,,,,,,,
1577742494.170744,47.000000,0.000000,4255.384766,4340.000000,4102.051270,4011.794922,4204.615234,0.000000,4.000000,,,,0.000000,4.000000,4.000000,4.000000,4.000000,4.000000,,,,,,,,,,,,,,,,,,,,,,,,,,,,,,,,,,,,,
1577742494.178440,48.000000,0.000000,4254.358887,4325.128418,4105.128418,4010.769287,4195.897461,0.000000,4.000000,,,,0.000000,4.000000,4.000000,4.000000,4.000000,4.000000,24.000000,0.000000,0.196611,-0.131592,0.879883,0.412109,0.521004,-0.593271,0.606455,10.401387,-46.729397,58.740963,,,,,,,,,,,,,,,,,,,,,,,,,
1577742494.186337,49.000000,0.000000,4251.282227,4306.666504,4122.563965,4020.000000,4202.051270,0.000000,4.000000,,,,0.000000,4.000000,4.000000,4.000000,4.000000,4.000000,,,,,,,,,,,,,,,,,,,,,,,,,,,,,,,,,,,,,
1577742494.194134,50.000000,0.000000,4229.230957,4313.333496,4125.641113,4016.410156,4198.461426,0.000000,4.000000,,,,0.000000,4.000000,4.000000,4.000000,4.000000,4.000000,25.000000,0.000000,0.196774,-0.131348,0.879883,0.412109,0.521981,-0.593759,0.601572,13.069801,-46.781872,57.293205,,,,,,,,,,,,,,,,,,,,,,,,,
1577742494.202030,51.000000,0.000000,4238.461426,4331.282227,4133.333496,4028.718018,4200.512695,0.000000,4.000000,,,,0.000000,4.000000,4.000000,4.000000,4.000000,4.000000,,,,,,,,,,,,,,,,,,,,,,,,,,,,,,,,,,,,,
1577742494.209827,52.000000,0.000000,4250.256348,4346.666504,4146.153809,4033.333252,4196.922852,0.000000,4.000000,,,,0.000000,4.000000,4.000000,4.000000,4.000000,4.000000,26.000000,0.000000,0.196192,-0.131348,0.880127,0.411865,0.517098,-0.588876,0.610361,12.660051,-46.769283,57.665051,,,,,,,,,,,,,,,,,,,,,,,,,
1577742494.217723,53.000000,0.000000,4237.948730,4354.871582,4160.512695,4025.641113,4190.769043,0.000000,4.000000,,,,0.000000,4.000000,4.000000,4.000000,4.000000,4.000000,,,,,,,,,,,,,,,,,,,,,,,,,,,,,,,,,,,,,
1577742494.225620,54.000000,0.000000,4221.025879,4334.871582,4153.846191,4030.256348,4181.538574,0.000000,4.000000,,,,0.000000,4.000000,4.000000,4.000000,4.000000,4.000000,27.000000,0.000000,0.196355,-0.131104,0.880127,0.411865,0.524422,-0.596201,0.602060,15.102599,-46.877583,58.179161,,,,,,,,,,,,,,,,,,,,,,,,,
1577742494.233417,55.000000,0.000000,4202.051270,4323.077148,4117.948730,4017.435791,4153.846191,0.000000,4.000000,,,,0.000000,4.000000,4.000000,4.000000,4.000000,4.000000,,,,,,,,,,,,,,,,,,,,,,,,,,,,,,,,,,,,,
1577742494.241314,56.000000,0.000000,4195.384766,4353.333496,4107.179688,3996.410156,4139.487305,0.000000,4.000000,,,,0.000000,4.000000,4.000000,4.000000,4.000000,4.000000,28.000000,0.000000,0.196867,-0.131104,0.880127,0.411621,0.514168,-0.594736,0.595712,14.429754,-46.915237,58.522228,,,,,,,,,,,,,,,,,,,,,,,,,
1577742494.249110,57.000000,0.000000,4211.794922,4369.743652,4136.922852,4018.461426,4162.051270,0.000000,4.000000,,,,0.000000,4.000000,4.000000,4.000000,4.000000,4.000000,,,,,,,,,,,,,,,,,,,,,,,,,,,,,,,,,,,,,
1577742494.256907,58.000000,0.000000,4207.692383,4348.205078,4140.512695,4029.743652,4162.051270,0.000000,4.000000,,,,0.000000,4.000000,4.000000,4.000000,4.000000,4.000000,29.000000,0.000000,0.196867,-0.131104,0.880127,0.411621,0.523934,-0.596201,0.602060,13.884009,-47.008945,59.070248,,,,,,,,,,,,,,,,,,,,,,,,,
1577742494.264803,59.000000,0.000000,4171.794922,4334.871582,4108.717773,3985.128174,4120.000000,0.000000,4.000000,,,,0.000000,4.000000,4.000000,4.000000,4.000000,4.000000,,,,,,,,,,,,,8.196530,8.803712,5.091907,3.911123,4.992271,0.424096,1.296449,2.195252,2.566254,3.542929,3.247816,6.257839,4.216278,2.269547,4.117093,3.882365,8.532535,4.665751,3.635164,5.595686,5.491342,8.576613,4.958441,3.758247,5.256703
1577742494.272600,60.000000,0.000000,4162.051270,4337.436035,4112.820313,3969.743652,4106.666504,0.000000,4.000000,,,,0.000000,4.000000,4.000000,4.000000,4.000000,4.000000,30.000000,0.000000,0.196704,-0.131348,0.880127,0.411621,0.525399,-0.584482,0.603525,13.333023,-46.913834,59.443836,,,,,,,,,,,,,,,,,,,,,,,,,
1577742494.280496,61.000000,0.000000,4177.948730,4348.205078,4143.077148,4004.615479,4128.205078,0.000000,4.000000,,,,0.000000,4.000000,4.000000,4.000000,4.000000,4.000000,,,,,,,,,,,,,,,,,,,,,,,,,,,,,,,,,,,,,
1577742494.288293,62.000000,0.000000,4174.871582,4360.512695,4138.974121,4012.307617,4130.256348,0.000000,4.000000,,,,0.000000,4.000000,4.000000,4.000000,4.000000,4.000000,31.000000,0.000000,0.196867,-0.131104,0.880127,0.411621,0.514168,-0.594736,0.595712,11.880091,-46.768417,59.660435,,,,,,,,,,,,,,,,,,,,,,,,,
1577742494.296189,63.000000,0.000000,4174.871582,4366.153809,4130.256348,4005.641113,4124.102539,0.000000,4.000000,,,,0.000000,4.000000,4.000000,4.000000,4.000000,4.000000,,,,,,,,,,,,,,,,,,,,,,,,,,,,,,,,,,,,,
1577742494.303986,64.000000,0.000000,4217.436035,4368.205078,4156.922852,4042.564209,4152.820313,450.000000,4.000000,,,,0.000000,4.000000,4.000000,4.000000,4.000000,4.000000,32.000000,0.000000,0.196704,-0.131348,0.880127,0.411621,0.525399,-0.584482,0.603525,11.529496,-46.697357,59.975006,,,,,,,,,,,,,,,,,,,,,,,,,
1577742494.311683,65.000000,0.000000,4253.846191,4371.794922,4172.820313,4074.871826,4185.128418,450.000000,4.000000,,,,0.000000,4.000000,4.000000,4.000000,4.000000,4.000000,,,,,,,,,,,,,,,,,,,,,,,,,,,,,,,,,,,,,
1577742494.319479,66.000000,0.000000,4228.205078,4360.512695,4135.384766,4043.589844,4163.589844,16199.000000,4.000000,,,,0.000000,4.000000,4.000000,4.000000,4.000000,4.000000,33.000000,0.000000,0.196867,-0.131104,0.880127,0.411621,0.523445,-0.586923,0.606455,11.273777,-46.693222,60.138489,,,,,,,,,,,,,,,,,,,,,,,,,
1577742494.327176,67.000000,0.000000,4191.282227,4352.820313,4098.461426,4000.000000,4124.102539,450.000000,4.000000,,,,0.000000,4.000000,4.000000,4.000000,4.000000,4.000000,,,,,,,,,,,,,,,,,,,,,,,,,,,,,,,,,,,,,
1577742494.334972,68.000000,0.000000,4216.410156,4367.692383,4116.922852,4014.358887,4143.589844,16229.000000,4.000000,,,,0.000000,4.000000,4.000000,4.000000,4.000000,4.000000,34.000000,0.000000,0.196355,-0.131104,0.880127,0.411865,0.534188,-0.577157,0.602548,13.017537,-46.689499,60.225807,,,,,,,,,,,,,,,,,,,,,,,,,
1577742494.342669,69.000000,0.000000,4255.384766,4361.538574,4133.333496,4031.794922,4174.871582,450.000000,4.000000,,,,0.000000,4.000000,4.000000,4.000000,4.000000,4.000000,,,,,,,,,,,,,,,,,,,,,,,,,,,,,,,,,,,,,
1577742494.350465,70.000000,0.000000,4274.358887,4340.000000,4101.025879,3998.461426,4161.025879,16142.000000,4.000000,,,,0.000000,4.000000,4.000000,4.000000,4.000000,4.000000,35.000000,0.000000,0.196355,-0.131104,0.880127,0.411865,0.526864,-0.587900,0.606943,12.553199,-46.745960,60.364208,,,,,,,,,,,,,,,,,,,,,,,,,
1577742494.358162,71.000000,0.000000,4332.307617,4357.948730,4082.051270,3974.358887,4158.461426,450.000000,4.000000,,,,0.000000,4.000000,4.000000,4.000000,4.000000,4.000000,,,,,,,,,,,,,,,,,,,,,,,,,,,,,,,,,,,,,
1577742494.365959,72.000000,0.000000,4422.563965,4366.153809,4098.974121,3979.487061,4195.897461,450.000000,4.000000,,,,0.000000,4.000000,4.000000,4.000000,4.000000,4.000000,36.000000,0.000000,0.196518,-0.130859,0.880127,0.411865,0.510262,-0.590341,0.610361,12.195109,-46.736965,58.634495,,,,,,,,,,,,,,,,,,,,,,,,,
1577742494.373655,73.000000,0.000000,4525.641113,4348.205078,4121.538574,4007.179443,4263.077148,16194.000000,4.000000,,,,0.000000,4.000000,4.000000,4.000000,4.000000,4.000000,,,,,,,,,,,,,,,,,,,,,,,,,,,,,,,,,,,,,
1577742494.381452,74.000000,0.000000,4624.102539,4369.230957,4144.615234,4058.461426,4335.384766,450.000000,4.000000,,,,0.000000,4.000000,4.000000,4.000000,4.000000,4.000000,37.000000,0.000000,0.196518,-0.130859,0.880127,0.411865,0.523445,-0.584482,0.600595,11.813013,-46.728867,58.932026,,,,,,,,,,,,,,,,,,,,,,,,,
1577742494.389148,75.000000,0.000000,4639.487305,4383.077148,4136.922852,4056.923096,4340.512695,16204.000000,4.000000,,,,0.000000,4.000000,4.000000,4.000000,4.000000,4.000000,,,,,,,,,,,,,14.832147,7.744081,5.264432,4.110627,5.234064,0.452900,1.344021,2.471048,2.349928,3.404952,3.912872,6.150878,4.910832,2.391166,4.420825,4.345151,7.933334,5.898201,3.920084,5.864407,7.537253,7.922644,5.750311,3.915389,5.602901
1577742494.397045,76.000000,0.000000,4569.743652,4328.205078,4083.589844,3992.307617,4279.487305,450.000000,4.000000,,,,0.000000,4.000000,4.000000,4.000000,4.000000,4.000000,38.000000,0.000000,0.196355,-0.131104,0.880127,0.411865,0.525887,-0.599619,0.617685,11.469128,-46.781395,57.225899,,,,,,,,,,,,,,,,,,,,,,,,,
1577742494.404842,77.000000,0.000000,4524.615234,4301.025879,4058.461426,3966.153809,4251.282227,450.000000,4.000000,,,,0.000000,4.000000,4.000000,4.000000,4.000000,4.000000,,,,,,,,,,,,,,,,,,,,,,,,,,,,,,,,,,,,,
1577742494.412738,78.000000,0.000000,4534.358887,4340.000000,4096.922852,4007.692383,4282.051270,450.000000,4.000000,,,,0.000000,4.000000,4.000000,4.000000,4.000000,4.000000,39.000000,0.000000,0.196774,-0.131348,0.879883,0.412109,0.521492,-0.589853,0.598642,7.271631,-46.709038,55.929646,,,,,,,,,,,,,,,,,,,,,,,,,
1577742494.420535,79.000000,0.000000,4506.666504,4357.948730,4115.897461,4023.589844,4275.384766,16204.000000,4.000000,,,,0.000000,4.000000,4.000000,4.000000,4.000000,4.000000,,,,,,,,,,,,,,,,,,,,,,,,,,,,,,,,,,,,,
1577742494.428432,80.000000,0.000000,4439.487305,4355.384766,4096.922852,3997.948730,4224.615234,450.000000,4.000000,,,,0.000000,4.000000,4.000000,4.000000,4.000000,4.000000,40.000000,0.000000,0.196774,-0.131348,0.879883,0.412109,0.541512,-0.588876,0.606455,7.381883,-46.703732,56.497665,,,,,,,,,,,,,,,,,,,,,,,,,
1577742494.436228,81.000000,0.000000,4418.461426,4373.846191,4120.512695,4015.384521,4216.922852,450.000000,4.000000,,,,0.000000,4.000000,4.000000,4.000000,4.000000,4.000000,,,,,,,,,,,,,,,,,,,,,,,,,,,,,,,,,,,,,
1577742494.444125,82.000000,0.000000,4417.948730,4368.205078,4161.025879,4052.307617,4226.666504,450.000000,4.000000,,,,0.000000,4.000000,4.000000,4.000000,4.000000,4.000000,41.000000,0.000000,0.197190,-0.131592,0.879639,0.412354,0.542000,-0.594247,0.603525,10.352247,-46.639141,57.008881,,,,,,,,,,,,,,,,,,,,,,,,,
1577742494.451921,83.000000,0.000000,4365.128418,4335.384766,4142.563965,4031.281982,4187.179688,16204.000000,4.000000,,,,0.000000,4.000000,4.000000,4.000000,4.000000,4.000000,,,,,,,,,,,,,,,,,,,,,,,,,,,,,,,,,,,,,
1577742494.459817,84.000000,0.000000,4291.282227,4340.000000,4099.487305,3983.589844,4133.333496,450.000000,4.000000,,,,0.000000,4.000000,4.000000,4.000000,4.000000,4.000000,42.000000,0.000000,0.196679,-0.131592,0.879639,0.412598,0.557137,-0.594247,0.600107,10.094623,-46.760456,57.528790,,,,,,,,,,,,,,,,,,,,,,,,,
1577742494.467614,85.000000,0.000000,4265.641113,4360.000000,4097.436035,3979.487061,4124.615234,450.000000,4.000000,,,,0.000000,4.000000,4.000000,4.000000,4.000000,4.000000,,,,,,,,,,,,,,,,,,,,,,,,,,,,,,,,,,,,,
1577742494.475510,86.000000,0.000000,4285.641113,4355.897461,4127.692383,4015.384521,4150.769043,450.000000,4.000000,,,,0.000000,4.000000,4.000000,4.000000,4.000000,4.000000,43.000000,0.000000,0.196002,-0.131836,0.879639,0.412842,0.542977,-0.589853,0.603525,9.922575,-46.690193,57.996712,,,,,,,,,,,,,,,,,,,,,,,,,
1577742494.483407,87.000000,0.000000,4286.153809,4353.333496,4132.820313,4032.820557,4152.307617,16204.000000,4.000000,,,,0.000000,4.000000,4.000000,4.000000,4.000000,4.000000,,,,,,,,,,,,,,,,,,,,,,,,,,,,,,,,,,,,,
1577742494.491204,88.000000,0.000000,4256.922852,4363.589844,4113.846191,4026.153809,4134.871582,450.000000,4.000000,,,,0.000000,4.000000,4.000000,4.000000,4.000000,4.000000,44.000000,0.000000,0.196418,-0.132080,0.879395,0.413086,0.536629,-0.594247,0.591806,9.887363,-46.626957,58.298206,,,,,,,,,,,,,,,,,,,,,,,,,
1577742494.499001,89.000000,0.000000,4244.615234,4361.538574,4108.205078,4024.615479,4135.897461,450.000000,4.000000,,,,0.000000,4.000000,4.000000,4.000000,4.000000,4.000000,,,,,,,,,,,,,,,,,,,,,,,,,,,,,,,,,,,,,
1577742494.506697,90.000000,0.000000,4245.128418,4351.794922,4117.436035,4030.256348,4137.436035,450.000000,4.000000,,,,0.000000,4.000000,4.000000,4.000000,4.000000,4.000000,45.000000,0.000000,0.196418,-0.132080,0.879395,0.413086,0.530282,-0.584482,0.613779,9.795857,-46.629860,58.689182,,,,,,,,,,,,,,,,,,,,,,,,,
1577742494.514594,91.000000,0.000000,4235.897461,4361.025879,4132.307617,4038.461426,4133.846191,16204.000000,4.000000,,,,0.000000,4.000000,4.000000,4.000000,4.000000,4.000000,,,,,,,,,,,,,26.251995,7.653762,5.883103,4.331397,5.620654,0.509614,1.458725,2.696002,2.033288,3.415247,4.603903,6.226317,5.798033,2.623960,4.863924,5.314045,8.079815,7.914370,4.362986,6.249459,10.894739,8.017664,6.972636,4.192429,6.054462
1577742494.522391,92.000000,0.000000,4232.820313,4368.205078,4154.358887,4052.820557,4149.230957,450.000000,4.000000,,,,0.000000,4.000000,4.000000,4.000000,4.000000,4.000000,46.000000,0.000000,0.196418,-0.132080,0.879395,0.413086,0.531746,-0.595224,0.609873,5.885319,-46.572659,56.947525,,,,,,,,,,,,,,,,,,,,,,,,,
1577742494.530187,93.000000,0.000000,4249.230957,4368.205078,4183.589844,4072.820557,4179.487305,450.000000,4.000000,,,,0.000000,4.000000,4.000000,4.000000,4.000000,4.000000,,,,,,,,,,,,,,,,,,,,,,,,,,,,,,,,,,,,,
1577742494.537884,94.000000,0.000000,4243.589844,4366.666504,4181.025879,4060.000000,4165.641113,450.000000,4.000000,,,,0.000000,4.000000,4.000000,4.000000,4.000000,4.000000,47.000000,0.000000,0.195739,-0.132324,0.879395,0.413330,0.518074,-0.599130,0.605478,6.194017,-46.521175,57.593201,,,,,,,,,,,,,,,,,,,,,,,,,
1577742494.545781,95.000000,0.000000,4200.000000,4354.871582,4140.512695,4016.923096,4111.282227,16204.000000,4.000000,,,,0.000000,4.000000,4.000000,4.000000,4.000000,4.000000,,,,,,,,,,,,,,,,,,,,,,,,,,,,,,,,,,,,,
1577742494.553577,96.000000,0.000000,4184.102539,4352.820313,4133.846191,4017.948730,4104.615234,450.000000,4.000000,,,,0.000000,4.000000,4.000000,4.000000,4.000000,4.000000,48.000000,0.000000,0.195739,-0.132324,0.879395,0.413330,0.524910,-0.583017,0.605966,9.342984,-46.654285,57.994865,,,,,,,,,,,,,,,,,,,,,,,,,
1577742494.561474,97.000000,0.000000,4213.333496,4368.717773,4155.897461,4055.897461,4141.025879,450.000000,4.000000,,,,0.000000,4.000000,4.000000,4.000000,4.000000,4.000000,,,,,,,,,,,,,,,,,,,,,,,,,,,,,,,,,,,,,
1577742494.569271,98.000000,0.000000,4229.743652,4369.230957,4153.333496,4064.615479,4146.666504,450.000000,4.000000,,,,0.000000,4.000000,4.000000,4.000000,4.000000,4.000000,49.000000,0.000000,0.195223,-0.132324,0.879395,0.413574,0.512215,-0.580575,0.610849,9.365731,-46.594643,58.296547,,,,,,,,,,,,,,,,,,,,,,,,,
1577742494.577068,99.000000,0.000000,4211.794922,4353.846191,4135.897461,4049.230713,4121.538574,16204.000000,4.000000,,,,0.000000,4.000000,4.000000,4.000000,4.000000,4.000000,,,,,,,,,,,,,,,,,,,,,,,,,,,,,,,,,,,,,
1577742494.584764,100.000000,0.000000,4179.487305,4358.974121,4119.487305,4031.281982,4097.948730,450.000000,4.000000,,,,0.000000,4.000000,4.000000,4.000000,4.000000,4.000000,50.000000,0.000000,0.195388,-0.132080,0.879395,0.413574,0.517586,-0.596689,0.612802,9.326388,-46.600777,56.713783,,,,,,,,,,,,,,,,,,,,,,,,,
1577742494.592561,101.000000,0.000000,4188.717773,4380.512695,4129.230957,4039.487061,4111.282227,450.000000,4.000000,,,,0.000000,4.000000,4.000000,4.000000,4.000000,4.000000,,,,,,,,,,,,,,,,,,,,,,,,,,,,,,,,,,,,,
1577742494.600257,102.000000,0.000000,4241.538574,4372.307617,4176.410156,4088.205078,4160.000000,450.000000,4.000000,,,,0.000000,4.000000,4.000000,4.000000,4.000000,4.000000,51.000000,0.000000,0.195969,-0.132080,0.879150,0.413818,0.514656,-0.583993,0.615732,9.111534,-46.546482,57.143570,,,,,,,,,,,,,,,,,,,,,,,,,
1577742494.608154,103.000000,0.000000,4239.487305,4348.717773,4179.487305,4090.769287,4165.128418,16204.000000,4.000000,,,,0.000000,4.000000,4.000000,4.000000,4.000000,4.000000,,,,,,,,,,,,,,,,,,,,,,,,,,,,,,,,,,,,,
1577742494.615950,104.000000,0.000000,4176.410156,4358.461426,4128.717773,4030.769287,4118.974121,450.000000,4.000000,,,,0.000000,4.000000,4.000000,4.000000,4.000000,4.000000,52.000000,0.000000,0.195453,-0.132080,0.879150,0.414063,0.503914,-0.588876,0.610361,5.149797,-46.557430,57.709827,,,,,,,,,,,,,,,,,,,,,,,,,
1577742494.623747,105.000000,0.000000,4166.666504,4380.512695,4134.358887,4028.205078,4120.512695,450.000000,4.000000,,,,0.000000,4.000000,4.000000,4.000000,4.000000,4.000000,,,,,,,,,,,,,,,,,,,,,,,,,,,,,,,,,,,,,
1577742494.631444,106.000000,0.000000,4194.358887,4370.256348,4167.692383,4061.025635,4148.717773,450.000000,4.000000,,,,0.000000,4.000000,4.000000,4.000000,4.000000,4.000000,53.000000,0.000000,0.195617,-0.131836,0.879150,0.414063,0.510262,-0.607431,0.628428,1.644049,-46.866364,58.099827,,,,,,,,,,,,,,,,,,,,,,,,,
1577742494.639340,107.000000,0.000000,4160.000000,4341.025879,4127.179688,4023.076904,4115.384766,16204.000000,4.000000,,,,0.000000,4.000000,4.000000,4.000000,4.000000,4.000000,,,,,,,,,,,,,42.833469,8.504045,6.921444,4.591811,6.109056,0.583735,1.561225,2.846777,1.740680,3.559106,4.943473,6.306589,6.597689,2.962165,5.359831,6.784933,8.542171,10.116122,4.871184,6.703749,15.539898,8.574266,8.223336,4.582499,6.546515
1577742494.647136,108.000000,0.000000,4129.230957,4343.077148,4093.846191,3992.307617,4088.718018,450.000000,4.000000,,,,0.000000,4.000000,4.000000,4.000000,4.000000,4.000000,54.000000,0.000000,0.195100,-0.131836,0.879150,0.414307,0.529305,-0.586923,0.603037,5.188197,-46.845325,58.391010,,,,,,,,,,,,,,,,,,,,,,,,,
1577742494.655033,109.000000,0.000000,4180.512695,4373.846191,4151.282227,4052.820557,4142.563965,450.000000,4.000000,,,,0.000000,4.000000,4.000000,4.000000,4.000000,4.000000,,,,,,,,,,,,,,,,,,,,,,,,,,,,,,,,,,,,,
1577742494.662930,110.000000,0.000000,4226.666504,4370.769043,4201.538574,4105.641113,4191.282227,450.000000,4.000000,,,,0.000000,4.000000,4.000000,4.000000,4.000000,4.000000,55.000000,0.000000,0.195264,-0.131592,0.879150,0.414307,0.524422,-0.596689,0.623056,1.618793,-46.826393,58.832523,,,,,,,,,,,,,,,,,,,,,,,,,
1577742494.670726,111.000000,0.000000,4196.410156,4343.077148,4165.128418,4077.435791,4160.512695,16204.000000,4.000000,,,,0.000000,4.000000,4.000000,4.000000,4.000000,4.000000,,,,,,,,,,,,,,,,,,,,,,,,,,,,,,,,,,,,,
1577742494.678623,112.000000,0.000000,4151.794922,4346.153809,4117.436035,4032.307617,4111.282227,450.000000,4.000000,,,,0.000000,4.000000,4.000000,4.000000,4.000000,4.000000,56.000000,0.000000,0.194746,-0.131592,0.879150,0.414551,0.520516,-0.602548,0.608408,2.234514,-46.809353,59.170071,,,,,,,,,,,,,,,,,,,,,,,,,
1577742494.686420,113.000000,0.000000,4171.282227,4368.717773,4137.436035,4041.538574,4125.128418,450.000000,4.000000,,,,0.000000,4.000000,4.000000,4.000000,4.000000,4.000000,,,,,,,,,,,,,,,,,,,,,,,,,,,,,,,,,,,,,
1577742494.694217,114.000000,0.000000,4204.615234,4354.871582,4168.205078,4066.666748,4154.358887,450.000000,4.000000,,,,0.000000,4.000000,4.000000,4.000000,4.000000,4.000000,57.000000,0.000000,0.195491,-0.131348,0.878906,0.414795,0.528817,-0.600107,0.591806,-0.979706,-46.853828,59.414047,,,,,,,,,,,,,,,,,,,,,,,,,
1577742494.701913,115.000000,0.000000,4176.922852,4326.666504,4144.615234,4040.512939,4120.512695,16204.000000,4.000000,,,,0.000000,4.000000,4.000000,4.000000,4.000000,4.000000,,,,,,,,,,,,,,,,,,,,,,,,,,,,,,,,,,,,,
1577742494.709710,116.000000,0.000000,4136.410156,4328.205078,4112.820313,3999.487061,4076.410156,450.000000,4.000000,,,,0.000000,4.000000,4.000000,4.000000,4.000000,4.000000,58.000000,0.000000,0.194972,-0.131348,0.878906,0.415039,0.528328,-0.596689,0.588876,0.075311,-47.013493,59.693439,,,,,,,,,,,,,,,,,,,,,,,,,
1577742494.717406,117.000000,0.000000,4147.179688,4334.871582,4121.025879,4008.718018,4091.281982,450.000000,4.000000,,,,0.000000,4.000000,4.000000,4.000000,4.000000,4.000000,,,,,,,,,,,,,,,,,,,,,,,,,,,,,,,,,,,,,
1577742494.725203,118.000000,0.000000,4170.769043,4337.948730,4138.461426,4037.948730,4124.102539,450.000000,4.000000,,,,0.000000,4.000000,4.000000,4.000000,4.000000,4.000000,59.000000,0.000000,0.194746,-0.131592,0.879150,0.414551,0.520516,-0.602548,0.608408,2.938917,-46.917927,58.090618,,,,,,,,,,,,,,,,,,,,,,,,,
1577742494.732899,119.000000,0.000000,4178.461426,4355.897461,4145.128418,4044.615479,4136.922852,16204.000000,4.000000,,,,0.000000,4.000000,4.000000,4.000000,4.000000,4.000000,,,,,,,,,,,,,,,,,,,,,,,,,,,,,,,,,,,,,
1577742494.740696,120.000000,0.000000,4193.846191,4366.666504,4158.461426,4048.718018,4147.179688,450.000000,4.000000,,,,0.000000,4.000000,4.000000,4.000000,4.000000,4.000000,60.000000,0.000000,0.194972,-0.131348,0.878906,0.415039,0.528328,-0.596689,0.588876,3.602071,-47.071178,58.502354,,,,,,,,,,,,,,,,,,,,,,,,,
1577742494.748393,121.000000,0.000000,4213.846191,4352.307617,4171.794922,4065.641113,4161.025879,450.000000,4.000000,,,,0.000000,4.000000,4.000000,4.000000,4.000000,4.000000,,,,,,,,,,,,,,,,,,,,,,,,,,,,,,,,,,,,,
1577742494.756189,122.000000,0.000000,4217.948730,4335.897461,4166.153809,4074.871826,4166.666504,450.000000,4.000000,,,,0.000000,4.000000,4.000000,4.000000,4.000000,4.000000,61.000000,0.000000,0.195136,-0.131104,0.878906,0.415039,0.528328,-0.596201,0.596201,6.113002,-46.969845,57.018639,,,,,,,,,,,,,,,,,,,,,,,,,
1577742494.763886,123.000000,0.000000,4201.025879,4340.512695,4141.538574,4061.025635,4151.282227,16204.000000,4.000000,,,,0.000000,4.000000,4.000000,4.000000,4.000000,4.000000,,,,,,,,,,,,,67.702400,11.124445,8.673772,4.994355,6.590980,0.667535,1.604257,2.945369,1.609406,3.747120,4.850119,6.389545,7.236287,3.399503,5.782016,8.556718,9.104005,11.968722,5.393577,7.120307,22.009064,9.558119,9.283113,5.108663,6.971960
1577742494.771682,124.000000,0.000000,4176.410156,4351.794922,4118.461426,4034.358887,4125.128418,450.000000,4.000000,,,,0.000000,4.000000,4.000000,4.000000,4.000000,4.000000,62.000000,0.000000,0.195136,-0.131104,0.878906,0.415039,0.519539,-0.609873,0.601083,2.570749,-47.058086,57.477757,,,,,,,,,,,,,,,,,,,,,,,,,
1577742494.779379,125.000000,0.000000,4176.410156,4350.769043,4118.461426,4027.692383,4126.666504,450.000000,4.000000,,,,0.000000,4.000000,4.000000,4.000000,4.000000,4.000000,,,,,,,,,,,,,,,,,,,,,,,,,,,,,,,,,,,,,
1577742494.787175,126.000000,0.000000,4199.487305,4347.692383,4132.820313,4052.307617,4149.230957,450.000000,4.000000,,,,0.000000,4.000000,4.000000,4.000000,4.000000,4.000000,63.000000,0.000000,0.194781,-0.130859,0.878906,0.415283,0.541512,-0.600107,0.614755,3.390350,-47.257141,58.010597,,,,,,,,,,,,,,,,,,,,,,,,,
1577742494.794872,127.000000,0.000000,4202.051270,4354.871582,4134.358887,4065.128174,4150.256348,236.000000,4.000000,,,,0.000000,4.000000,4.000000,4.000000,4.000000,4.000000,,,,,,,,,,,,,,,,,,,,,,,,,,,,,,,,,,,,,
1577742494.802669,0.000000,0.000000,4188.717773,4359.487305,4126.666504,4055.384521,4142.563965,450.000000,4.000000,,,,0.000000,4.000000,4.000000,4.000000,4.000000,4.000000,0.000000,0.000000,0.194781,-0.130859,0.878906,0.415283,0.525887,-0.605966,0.601572,3.828915,-47.197025,58.549965,,,,,,,,,,,,,,,,,,,,,,,,,
1577742494.810365,1.000000,0.000000,4184.102539,4350.769043,4127.692383,4047.692383,4143.589844,450.000000,4.000000,,,,0.000000,4.000000,4.000000,4.000000,4.000000,4.000000,,,,,,,,,,,,,,,,,,,,,,,,,,,,,,,,,,,,,
1577742494.818262,2.000000,0.000000,4182.051270,4348.205078,4128.717773,4049.743652,4145.128418,16206.000000,4.000000,,,,0.000000,4.000000,4.000000,4.000000,4.000000,4.000000,1.000000,0.000000,0.194423,-0.130615,0.878906,0.415527,0.507820,-0.592294,0.607919,4.223623,-47.142921,58.975582,,,,,,,,,,,,,,,,,,,,,,,,,
1577742494.826058,3.000000,0.000000,4177.436035,4361.025879,4117.948730,4051.281982,4143.077148,450.000000,4.000000,,,,0.000000,4.000000,4.000000,4.000000,4.000000,4.000000,,,,,,,,,,,,,,,,,,,,,,,,,,,,,,,,,,,,,
1577742494.833955,4.000000,0.000000,4181.538574,4364.615234,4118.461426,4054.871826,4141.538574,16229.000000,4.000000,,,,0.000000,4.000000,4.000000,4.000000,4.000000,4.000000,2.000000,0.000000,0.194423,-0.130615,0.878906,0.415527,0.533700,-0.604501,0.604013,4.758307,-47.154041,57.384731,,,,,,,,,,,,,,,,,,,,,,,,,
1577742494.841751,5.000000,0.000000,4205.128418,4348.717773,4141.025879,4075.897461,4155.384766,450.000000,4.000000,,,,0.000000,4.000000,4.000000,4.000000,4.000000,4.000000,,,,,,,,,,,,,,,,,,,,,,,,,,,,,,,,,,,,,
1577742494.849648,6.000000,0.000000,4241.025879,4358.974121,4158.461426,4098.461426,4186.666504,16145.000000,4.000000,,,,0.000000,4.000000,4.000000,4.000000,4.000000,4.000000,3.000000,0.000000,0.194423,-0.130615,0.878906,0.415527,0.512703,-0.604501,0.609384,5.119891,-47.164051,55.893147,,,,,,,,,,,,,,,,,,,,,,,,,
1577742494.857444,7.000000,0.000000,4269.743652,4396.410156,4161.538574,4103.077148,4206.153809,450.000000,4.000000,,,,0.000000,4.000000,4.000000,4.000000,4.000000,4.000000,,,,,,,,,,,,,,,,,,,,,,,,,,,,,,,,,,,,,
1577742494.865341,8.000000,0.000000,4273.333496,4388.205078,4156.410156,4098.974121,4201.538574,450.000000,4.000000,,,,0.000000,4.000000,4.000000,4.000000,4.000000,4.000000,4.000000,0.000000,0.194423,-0.130615,0.878906,0.415527,0.531746,-0.600107,0.602548,5.445317,-47.053429,56.584446,,,,,,,,,,,,,,,,,,,,,,,,,
1577742494.873137,9.000000,0.000000,4266.153809,4352.820313,4153.846191,4103.077148,4203.077148,16191.000000,4.000000,,,,0.000000,4.000000,4.000000,4.000000,4.000000,4.000000,,,,,,,,,,,,,,,,,,,,,,,,,,,,,,,,,,,,,
1577742494.880834,10.000000,0.000000,4256.922852,4354.871582,4154.871582,4101.025879,4205.128418,450.000000,4.000000,,,,0.000000,4.000000,4.000000,4.000000,4.000000,4.000000,5.000000,0.000000,0.194423,-0.130615,0.878906,0.415527,0.536629,-0.609384,0.604990,8.609338,-47.073502,57.027168,,,,,,,,,,,,,,,,,,,,,,,,,
1577742494.888630,11.000000,0.000000,4225.128418,4361.025879,4137.948730,4071.281982,4178.974121,16205.000000,4.000000,,,,0.000000,4.000000,4.000000,4.000000,4.000000,4.000000,,,,,,,,,,,,,102.663391,16.068262,11.186339,5.609816,6.945818,0.761445,1.558332,3.002238,1.702033,3.860182,4.381024,6.441498,7.734428,3.890746,6.028249,10.163122,9.561116,13.044676,5.889587,7.385574,30.513023,10.893213,9.970722,5.736035,7.232809
1577742494.896327,12.000000,0.000000,4204.615234,4365.128418,4127.179688,4053.333252,4153.846191,450.000000,4.000000,,,,0.000000,4.000000,4.000000,4.000000,4.000000,4.000000,6.000000,0.000000,0.194587,-0.130371,0.878906,0.415527,0.522469,-0.594247,0.603525,8.346558,-47.031750,57.545250,,,,,,,,,,,,,,,,,,,,,,,,,
1577742494.904123,13.000000,0.000000,4203.589844,4372.820313,4129.743652,4047.179443,4144.102539,450.000000,4.000000,,,,0.000000,4.000000,4.000000,4.000000,4.000000,4.000000,,,,,,,,,,,,,,,,,,,,,,,,,,,,,,,,,,,,,
1577742494.911820,14.000000,0.000000,4200.512695,4356.922852,4130.769043,4040.000000,4142.051270,450.000000,4.000000,,,,0.000000,4.000000,4.000000,4.000000,4.000000,4.000000,7.000000,0.000000,0.194065,-0.130371,0.878906,0.415771,0.525399,-0.598642,0.601083,10.383039,-46.934357,57.891891,,,,,,,,,,,,,,,,,,,,,,,,,
1577742494.919617,15.000000,0.000000,4215.897461,4360.512695,4144.102539,4058.461426,4163.077148,16205.000000,4.000000,,,,0.000000,4.000000,4.000000,4.000000,4.000000,4.000000,,,,,,,,,,,,,,,,,,,,,,,,,,,,,,,,,,,,,
1577742494.927313,16.000000,0.000000,4249.743652,4383.589844,4168.717773,4085.641113,4192.820313,0.000000,4.000000,,,,0.000000,4.000000,4.000000,4.000000,4.000000,4.000000,8.000000,0.000000,0.194065,-0.130371,0.878906,0.415771,0.525399,-0.599619,0.617685,13.053288,-46.966335,58.203869,,,,,,,,,,,,,,,,,,,,,,,,,
1577742494.935210,17.000000,0.000000,4244.102539,4356.922852,4155.897461,4072.307617,4180.512695,0.000000,4.000000,,,,0.000000,4.000000,4.000000,4.000000,4.000000,4.000000,,,,,,,,,,,,,,,,,,,,,,,,,,,,,,,,,,,,,
1577742494.943007,18.000000,0.000000,4218.974121,4330.256348,4126.153809,4051.281982,4153.846191,0.000000,4.000000,,,,0.000000,4.000000,4.000000,4.000000,4.000000,4.000000,9.000000,0.000000,0.194065,-0.130371,0.878906,0.415771,0.523445,-0.598642,0.615244,12.525559,-46.875484,58.604282,,,,,,,,,,,,,,,,,,,,,,,,,
1577742494.950803,19.000000,0.000000,4238.461426,4368.205078,4145.128418,4080.512939,4170.256348,0.000000,4.000000,,,,0.000000,4.000000,4.000000,4.000000,4.000000,4.000000,,,,,,,,,,,,,,,,,,,,,,,,,,,,,,,,,,,,,
1577742494.958500,20.000000,0.000000,4253.846191,4389.743652,4162.563965,4107.179688,4186.153809,0.000000,4.000000,,,,0.000000,4.000000,4.000000,4.000000,4.000000,4.000000,10.000000,0.000000,0.193901,-0.130615,0.878906,0.415771,0.508797,-0.610361,0.604013,14.144141,-47.032982,58.904835,,,,,,,,,,,,,,,,,,,,,,,,,
1577742494.966397,21.000000,0.000000,4239.487305,4369.230957,4148.717773,4092.307617,4171.794922,0.000000,4.000000,,,,0.000000,4.000000,4.000000,4.000000,4.000000,4.000000,,,,,,,,,,,,,,,,,,,,,,,,,,,,,,,,,,,,,
1577742494.974193,22.000000,0.000000,4228.717773,4362.563965,4144.615234,4071.281982,4155.897461,0.000000,4.000000,,,,0.000000,4.000000,4.000000,4.000000,4.000000,4.000000,11.000000,0.000000,0.194065,-0.130371,0.878906,0.415771,0.523445,-0.603037,0.603525,16.498095,-46.935467,59.235149,,,,,,,,,,,,,,,,,,,,,,,,,
1577742494.982090,23.000000,0.000000,4225.641113,4368.717773,4150.769043,4064.615479,4150.769043,0.000000,4.000000,,,,0.000000,4.000000,4.000000,4.000000,4.000000,4.000000,,,,,,,,,,,,,,,,,,,,,,,,,,,,,,,,,,,,,
1577742494.989887,24.000000,0.000000,4252.307617,4375.384766,4171.794922,4091.794922,4180.000000,0.000000,4.000000,,,,0.000000,4.000000,4.000000,4.000000,4.000000,4.000000,12.000000,0.000000,0.194065,-0.130371,0.878906,0.415771,0.525399,-0.600107,0.607431,17.719423,-46.967335,59.472618,,,,,,,,,,,,,,,,,,,,,,,,,
1577742494.997783,25.000000,0.000000,4284.102539,4369.743652,4187.692383,4118.974121,4211.794922,0.000000,4.000000,,,,0.000000,4.000000,4.000000,4.000000,4.000000,4.000000,,,,,,,,,,,,,,,,,,,,,,,,,,,,,,,,,,,,,
1577742495.005580,26.000000,0.000000,4270.769043,4356.410156,4169.230957,4100.512695,4198.461426,0.000000,4.000000,,,,0.000000,4.000000,4.000000,4.000000,4.000000,4.000000,13.000000,0.000000,0.194229,-0.130127,0.878906,0.415771,0.526864,-0.603037,0.598154,16.844711,-46.936199,59.626522,,,,,,,,,,,,,,,,,,,,,,,,,
1577742495.013477,27.000000,0.000000,4261.025879,4370.256348,4156.410156,4086.666748,4191.282227,0.000000,4.000000,,,,0.000000,4.000000,4.000000,4.000000,4.000000,4.000000,,,,,,,,,,,,,144.907486,22.998806,14.086137,6.379781,7.086882,0.863827,1.410638,3.006677,1.968218,3.800003,3.711735,6.323439,8.135075,4.335637,6.062275,11.076826,9.652477,13.146315,6.280216,7.429708,40.072605,12.416489,10.180160,6.331908,7.277000
1577742495.021273,28.000000,0.000000,4287.692383,4388.205078,4174.358887,4107.692383,4217.948730,0.000000,4.000000,,,,0.000000,4.000000,4.000000,4.000000,4.000000,4.000000,14.000000,0.000000,0.193121,-0.130127,0.879150,0.415771,0.522469,-0.605966,0.607919,15.997655,-46.967991,59.824856,,,,,,,,,,,,,,,,,,,,,,,,,
1577742495.029170,29.000000,0.000000,4275.897461,4361.025879,4162.051270,4094.871826,4203.077148,0.000000,4.000000,,,,0.000000,4.000000,4.000000,4.000000,4.000000,4.000000,,,,,,,,,,,,,,,,,,,,,,,,,,,,,,,,,,,,,
1577742495.036966,30.000000,0.000000,4241.538574,4336.922852,4130.769043,4066.153809,4160.000000,0.000000,4.000000,,,,0.000000,4.000000,4.000000,4.000000,4.000000,4.000000,15.000000,0.000000,0.193121,-0.130127,0.879150,0.415771,0.521492,-0.596201,0.589364,15.055859,-46.996609,60.063168,,,,,,,,,,,,,,,,,,,,,,,,,
1577742495.044863,31.000000,0.000000,4248.205078,4353.846191,4133.846191,4079.487061,4163.077148,0.000000,4.000000,,,,0.000000,4.000000,4.000000,4.000000,4.000000,4.000000,,,,,,,,,,,,,,,,,,,,,,,,,,,,,,,,,,,,,
1577742495.052659,32.000000,0.000000,4241.538574,4353.333496,4133.333496,4077.435791,4158.974121,0.000000,4.000000,,,,0.000000,4.000000,4.000000,4.000000,4.000000,4.000000,16.000000,0.000000,0.193121,-0.130127,0.879150,0.415771,0.515145,-0.602060,0.606455,14.327872,-46.962543,58.303741,,,,,,,,,,,,,,,,,,,,,,,,,
1577742495.060556,33.000000,0.000000,4218.974121,4342.563965,4125.641113,4058.974365,4133.846191,0.000000,4.000000,,,,0.000000,4.000000,4.000000,4.000000,4.000000,4.000000,,,,,,,,,,,,,,,,,,,,,,,,,,,,,,,,,,,,,
1577742495.068452,34.000000,0.000000,4246.153809,4354.358887,4158.461426,4088.205078,4165.641113,0.000000,4.000000,,,,0.000000,4.000000,4.000000,4.000000,4.000000,4.000000,17.000000,0.000000,0.193646,-0.130127,0.879150,0.415527,0.529305,-0.600107,0.603037,15.766223,-46.991703,58.753979,,,,,,,,,,,,,,,,,,,,,,,,,
1577742495.076249,35.000000,0.000000,4282.051270,4356.922852,4193.333496,4121.538574,4214.871582,0.000000,4.000000,,,,0.000000,4.000000,4.000000,4.000000,4.000000,4.000000,,,,,,,,,,,,,,,,,,,,,,,,,,,,,,,,,,,,,
1577742495.084146,36.000000,0.000000,4274.358887,4347.692383,4189.230957,4112.307617,4210.769043,0.000000,4.000000,,,,0.000000,4.000000,4.000000,4.000000,4.000000,4.000000,18.000000,0.000000,0.193646,-0.130127,0.879150,0.415527,0.513191,-0.603525,0.610849,15.146646,-47.077763,58.979748,,,,,,,,,,,,,,,,,,,,,,,,,
1577742495.091942,37.000000,0.000000,4266.666504,4352.820313,4183.589844,4109.743652,4200.512695,0.000000,4.000000,,,,0.000000,4.000000,4.000000,4.000000,4.000000,4.000000,,,,,,,,,,,,,,,,,,,,,,,,,,,,,,,,,,,,,
1577742495.099839,38.000000,0.000000,4264.615234,4355.897461,4181.025879,4117.436035,4211.794922,0.000000,4.000000,,,,0.000000,4.000000,4.000000,4.000000,4.000000,4.000000,19.000000,0.000000,0.193646,-0.130127,0.879150,0.415527,0.526864,-0.592294,0.582528,10.521583,-46.796326,59.362389,,,,,,,,,,,,,,,,,,,,,,,,,
1577742495.107636,39.000000,0.000000,4235.897461,4348.717773,4152.820313,4094.358887,4202.563965,0.000000,4.000000,,,,0.000000,4.000000,4.000000,4.000000,4.000000,4.000000,,,,,,,,,,,,,,,,,,,,,,,,,,,,,,,,,,,,,
1577742495.115532,40.000000,0.000000,4211.282227,4338.461426,4125.641113,4066.666748,4177.948730,0.000000,4.000000,,,,0.000000,4.000000,4.000000,4.000000,4.000000,4.000000,20.000000,0.000000,0.193646,-0.130127,0.879150,0.415527,0.533700,-0.603037,0.604013,12.460193,-46.782291,57.613224,,,,,,,,,,,,,,,,,,,,,,,,,
1577742495.123329,41.000000,0.000000,4234.358887,4341.538574,4142.051270,4088.205078,4191.282227,0.000000,4.000000,,,,0.000000,4.000000,4.000000,4.000000,4.000000,4.000000,,,,,,,,,,,,,,,,,,,,,,,,,,,,,,,,,,,,,
1577742495.131126,42.000000,0.000000,4265.128418,4367.179688,4166.153809,4121.025879,4218.974121,0.000000,4.000000,,,,0.000000,4.000000,4.000000,4.000000,4.000000,4.000000,21.000000,0.000000,0.193646,-0.130127,0.879150,0.415527,0.523934,-0.594736,0.621103,12.290850,-46.709843,58.012886,,,,,,,,,,,,,,,,,,,,,,,,,
1577742495.138823,43.000000,0.000000,4245.641113,4367.692383,4146.666504,4098.461426,4195.384766,0.000000,4.000000,,,,0.000000,4.000000,4.000000,4.000000,4.000000,4.000000,,,,,,,,,,,,,186.126251,30.659327,16.733028,7.100692,6.973343,0.960940,1.181264,2.921769,2.274347,3.533039,3.116362,5.941406,8.473482,4.619205,5.900943,10.949226,9.310143,12.417647,6.454628,7.232069,48.869621,13.995581,10.012150,6.703146,7.093081
1577742495.146619,44.000000,0.000000,4211.794922,4336.922852,4117.948730,4057.435791,4151.282227,0.000000,4.000000,,,,0.000000,4.000000,4.000000,4.000000,4.000000,4.000000,22.000000,0.000000,0.193646,-0.130127,0.879150,0.415527,0.529793,-0.596201,0.601572,8.130813,-46.824089,56.578117,,,,,,,,,,,,,,,,,,,,,,,,,
1577742495.154316,45.000000,0.000000,4217.948730,4343.589844,4128.205078,4066.666748,4155.384766,0.000000,4.000000,,,,0.000000,4.000000,4.000000,4.000000,4.000000,4.000000,,,,,,,,,,,,,,,,,,,,,,,,,,,,,,,,,,,,,
1577742495.162112,46.000000,0.000000,4227.179688,4348.205078,4141.538574,4080.000000,4167.179688,0.000000,4.000000,,,,0.000000,4.000000,4.000000,4.000000,4.000000,4.000000,23.000000,0.000000,0.193646,-0.130127,0.879150,0.415527,0.533700,-0.603037,0.604013,4.267148,-46.747463,57.141106,,,,,,,,,,,,,,,,,,,,,,,,,
1577742495.169809,47.000000,0.000000,4206.153809,4315.384766,4122.563965,4050.769287,4141.025879,0.000000,4.000000,,,,0.000000,4.000000,4.000000,4.000000,4.000000,4.000000,,,,,,,,,,,,,,,,,,,,,,,,,,,,,,,,,,,,,
1577742495.177605,48.000000,0.000000,4200.000000,4318.974121,4118.461426,4040.512939,4134.871582,0.000000,4.000000,,,,0.000000,4.000000,4.000000,4.000000,4.000000,4.000000,24.000000,0.000000,0.193646,-0.130127,0.879150,0.415527,0.529793,-0.596201,0.601572,0.909480,-46.857944,55.793514,,,,,,,,,,,,,,,,,,,,,,,,,
1577742495.185302,49.000000,0.000000,4196.922852,4338.974121,4116.410156,4041.538574,4137.948730,0.000000,4.000000,,,,0.000000,4.000000,4.000000,4.000000,4.000000,4.000000,,,,,,,,,,,,,,,,,,,,,,,,,,,,,,,,,,,,,
1577742495.193199,50.000000,0.000000,4191.794922,4338.974121,4108.205078,4028.718018,4131.282227,0.000000,4.000000,,,,0.000000,4.000000,4.000000,4.000000,4.000000,4.000000,25.000000,0.000000,0.193646,-0.130127,0.879150,0.415527,0.525399,-0.598154,0.610849,4.527084,-46.897564,56.494778,,,,,,,,,,,,,,,,,,,,,,,,,
1577742495.200995,51.000000,0.000000,4213.846191,4348.717773,4116.922852,4042.051270,4153.846191,0.000000,4.000000,,,,0.000000,4.000000,4.000000,4.000000,4.000000,4.000000,,,,,,,,,,,,,,,,,,,,,,,,,,,,,,,,,,,,,
1577742495.208892,52.000000,0.000000,4214.358887,4338.461426,4094.871826,4041.538574,4158.461426,0.000000,4.000000,,,,0.000000,4.000000,4.000000,4.000000,4.000000,4.000000,26.000000,0.000000,0.193481,-0.130371,0.879150,0.415527,0.527840,-0.602060,0.590829,7.782928,-46.753777,56.946468,,,,,,,,,,,,,,,,,,,,,,,,,
1577742495.216688,53.000000,0.000000,4204.102539,4316.922852,4082.564209,4028.718018,4145.128418,0.000000,4.000000,,,,0.000000,4.000000,4.000000,4.000000,4.000000,4.000000,,,,,,,,,,,,,,,,,,,,,,,,,,,,,,,,,,,,,
1577742495.224585,54.000000,0.000000,4244.615234,4351.282227,4135.897461,4065.641113,4178.974121,0.000000,4.000000,,,,0.000000,4.000000,4.000000,4.000000,4.000000,4.000000,27.000000,0.000000,0.193481,-0.130371,0.879150,0.415527,0.505379,-0.596689,0.602060,7.722420,-46.743999,57.532433,,,,,,,,,,,,,,,,,,,,,,,,,
1577742495.232381,55.000000,0.000000,4258.974121,4371.282227,4154.871582,4081.025635,4193.846191,0.000000,4.000000,,,,0.000000,4.000000,4.000000,4.000000,4.000000,4.000000,,,,,,,,,,,,,,,,,,,,,,,,,,,,,,,,,,,,,
1577742495.240278,56.000000,0.000000,4194.358887,4322.563965,4100.512695,4015.384521,4135.384766,0.000000,4.000000,,,,0.000000,4.000000,4.000000,4.000000,4.000000,4.000000,28.000000,0.000000,0.194587,-0.130371,0.878906,0.415527,0.517098,-0.592782,0.591806,4.019225,-46.735195,57.940174,,,,,,,,,,,,,,,,,,,,,,,,,
1577742495.248074,57.000000,0.000000,4169.743652,4313.846191,4090.256348,3984.615479,4111.282227,0.000000,4.000000,,,,0.000000,4.000000,4.000000,4.000000,4.000000,4.000000,,,,,,,,,,,,,,,,,,,,,,,,,,,,,,,,,,,,,
1577742495.255971,58.000000,0.000000,4206.153809,4342.051270,4122.051270,4018.974365,4144.102539,0.000000,4.000000,,,,0.000000,4.000000,4.000000,4.000000,4.000000,4.000000,29.000000,0.000000,0.194065,-0.130371,0.878906,0.415771,0.535653,-0.610361,0.601083,3.437857,-46.727276,58.426769,,,,,,,,,,,,,,,,,,,,,,,,,
1577742495.263767,59.000000,0.000000,4230.769043,4345.641113,4134.358887,4040.000000,4167.692383,0.000000,4.000000,,,,0.000000,4.000000,4.000000,4.000000,4.000000,4.000000,,,,,,,,,,,,,214.618179,37.068001,18.457638,7.494879,6.601612,1.063555,0.931276,2.699793,2.476073,3.110836,2.710162,5.342178,8.760373,4.646997,5.573630,9.809731,8.746164,11.273116,6.312101,6.801899,54.475765,15.479296,9.724768,6.677761,6.691429
1577742495.271464,60.000000,0.000000,4245.128418,4350.256348,4149.743652,4052.820557,4188.205078,0.000000,4.000000,,,,0.000000,4.000000,4.000000,4.000000,4.000000,4.000000,30.000000,0.000000,0.193901,-0.130615,0.878906,0.415771,0.533700,-0.603525,0.604501,5.965209,-46.660332,58.804890,,,,,,,,,,,,,,,,,,,,,,,,,
1577742495.279260,61.000000,0.000000,4235.897461,4336.410156,4140.000000,4047.179443,4175.384766,0.000000,4.000000,,,,0.000000,4.000000,4.000000,4.000000,4.000000,4.000000,,,,,,,,,,,,,,,,,,,,,,,,,,,,,,,,,,,,,
1577742495.286957,62.000000,0.000000,4215.384766,4313.333496,4114.358887,4025.128174,4142.563965,0.000000,4.000000,,,,0.000000,4.000000,4.000000,4.000000,4.000000,4.000000,31.000000,0.000000,0.193211,-0.130859,0.878906,0.416016,0.511727,-0.602548,0.600107,6.265918,-46.540264,59.145199,,,,,,,,,,,,,,,,,,,,,,,,,
1577742495.294754,63.000000,0.000000,4236.922852,4346.153809,4133.846191,4044.615479,4159.487305,0.000000,4.000000,,,,0.000000,4.000000,4.000000,4.000000,4.000000,4.000000,,,,,,,,,,,,,,,,,,,,,,,,,,,,,,,,,,,,,
1577742495.302450,64.000000,0.000000,4249.230957,4369.230957,4147.179688,4063.589844,4174.871582,450.000000,4.000000,,,,0.000000,4.000000,4.000000,4.000000,4.000000,4.000000,32.000000,0.000000,0.193046,-0.131104,0.878906,0.416016,0.512703,-0.592782,0.605478,6.536557,-46.492023,59.511292,,,,,,,,,,,,,,,,,,,,,,,,,
1577742495.310247,65.000000,0.000000,4211.282227,4318.974121,4115.897461,4032.820557,4137.436035,450.000000,4.000000,,,,0.000000,4.000000,4.000000,4.000000,4.000000,4.000000,,,,,,,,,,,,,,,,,,,,,,,,,,,,,,,,,,,,,
1577742495.317943,66.000000,0.000000,4197.948730,4294.871582,4110.769043,4018.974365,4123.589844,16225.000000,4.000000,,,,0.000000,4.000000,4.000000,4.000000,4.000000,4.000000,33.000000,0.000000,0.193405,-0.131348,0.878906,0.415771,0.529305,-0.601572,0.603525,9.591454,-46.448605,59.840778,,,,,,,,,,,,,,,,,,,,,,,,,
1577742495.325740,67.000000,0.000000,4227.692383,4334.871582,4133.846191,4043.076904,4154.358887,450.000000,4.000000,,,,0.000000,4.000000,4.000000,4.000000,4.000000,4.000000,,,,,,,,,,,,,,,,,,,,,,,,,,,,,,,,,,,,,
1577742495.333437,68.000000,0.000000,4249.743652,4358.461426,4137.948730,4057.435791,4175.384766,16248.000000,4.000000,,,,0.000000,4.000000,4.000000,4.000000,4.000000,4.000000,34.000000,0.000000,0.193405,-0.131348,0.878906,0.415771,0.510262,-0.597177,0.614267,9.409908,-46.409527,59.957867,,,,,,,,,,,,,,,,,,,,,,,,,
1577742495.341233,69.000000,0.000000,4244.102539,4332.820313,4126.153809,4049.743652,4167.692383,450.000000,4.000000,,,,0.000000,4.000000,4.000000,4.000000,4.000000,4.000000,,,,,,,,,,,,,,,,,,,,,,,,,,,,,,,,,,,,,
1577742495.348930,70.000000,0.000000,4226.666504,4307.692383,4115.384766,4033.846191,4154.358887,16163.000000,4.000000,,,,0.000000,4.000000,4.000000,4.000000,4.000000,4.000000,35.000000,0.000000,0.193764,-0.131592,0.878906,0.415527,0.514168,-0.595712,0.604013,11.340055,-46.434174,60.182877,,,,,,,,,,,,,,,,,,,,,,,,,
1577742495.356726,71.000000,0.000000,4232.820313,4333.333496,4123.077148,4034.358887,4160.512695,450.000000,4.000000,,,,0.000000,4.000000,4.000000,4.000000,4.000000,4.000000,,,,,,,,,,,,,,,,,,,,,,,,,,,,,,,,,,,,,
1577742495.364423,72.000000,0.000000,4247.692383,4362.563965,4137.436035,4048.718018,4170.769043,450.000000,4.000000,,,,0.000000,4.000000,4.000000,4.000000,4.000000,4.000000,36.000000,0.000000,0.193764,-0.131592,0.878906,0.415527,0.518074,-0.609873,0.598642,10.923834,-46.396538,60.265759,,,,,,,,,,,,,,,,,,,,,,,,,
1577742495.372320,73.000000,0.000000,4243.589844,4336.410156,4135.384766,4051.281982,4163.077148,16210.000000,4.000000,,,,0.000000,4.000000,4.000000,4.000000,4.000000,4.000000,,,,,,,,,,,,,,,,,,,,,,,,,,,,,,,,,,,,,
1577742495.380116,74.000000,0.000000,4252.307617,4315.897461,4145.641113,4061.025635,4167.179688,450.000000,4.000000,,,,0.000000,4.000000,4.000000,4.000000,4.000000,4.000000,37.000000,0.000000,0.193764,-0.131592,0.878906,0.415527,0.507820,-0.597665,0.606455,6.900497,-46.422482,60.459980,,,,,,,,,,,,,,,,,,,,,,,,,
1577742495.388013,75.000000,0.000000,4277.948730,4341.538574,4169.743652,4090.769287,4190.769043,16218.000000,4.000000,,,,0.000000,4.000000,4.000000,4.000000,4.000000,4.000000,,,,,,,,,,,,,220.569809,40.272938,18.849100,7.373486,6.015890,1.145274,0.726801,2.320761,2.495540,2.646506,2.519213,4.718117,8.949286,4.411475,5.118408,8.174705,8.213882,10.091441,5.836254,6.193108,55.090359,16.618328,9.546599,6.207666,6.116195
1577742495.395809,76.000000,0.000000,4262.051270,4343.077148,4156.410156,4080.512939,4176.410156,450.000000,4.000000,,,,0.000000,4.000000,4.000000,4.000000,4.000000,4.000000,38.000000,0.000000,0.193239,-0.131592,0.878906,0.415771,0.519539,-0.584482,0.596689,9.081585,-46.505650,60.634781,,,,,,,,,,,,,,,,,,,,,,,,,
1577742495.403706,77.000000,0.000000,4222.563965,4318.461426,4123.589844,4033.333252,4138.461426,450.000000,4.000000,,,,0.000000,4.000000,4.000000,4.000000,4.000000,4.000000,,,,,,,,,,,,,,,,,,,,,,,,,,,,,,,,,,,,,
1577742495.411503,78.000000,0.000000,4230.769043,4327.179688,4125.128418,4027.692383,4145.128418,450.000000,4.000000,,,,0.000000,4.000000,4.000000,4.000000,4.000000,4.000000,39.000000,0.000000,0.193073,-0.131836,0.878906,0.415771,0.518563,-0.585946,0.608408,9.070658,-46.700127,60.792099,,,,,,,,,,,,,,,,,,,,,,,,,
1577742495.419399,79.000000,0.000000,4239.487305,4342.051270,4127.179688,4035.384521,4154.358887,16218.000000,4.000000,,,,0.000000,4.000000,4.000000,4.000000,4.000000,4.000000,,,,,,,,,,,,,,,,,,,,,,,,,,,,,,,,,,,,,
1577742495.427196,80.000000,0.000000,4222.051270,4338.974121,4117.436035,4026.666748,4141.025879,450.000000,4.000000,,,,0.000000,4.000000,4.000000,4.000000,4.000000,4.000000,40.000000,0.000000,0.193073,-0.131836,0.878906,0.415771,0.508797,-0.603037,0.606455,9.001007,-46.755527,60.933689,,,,,,,,,,,,,,,,,,,,,,,,,
1577742495.435092,81.000000,0.000000,4230.256348,4338.974121,4125.641113,4040.512939,4151.794922,450.000000,4.000000,,,,0.000000,4.000000,4.000000,4.000000,4.000000,4.000000,,,,,,,,,,,,,,,,,,,,,,,,,,,,,,,,,,,,,
1577742495.442889,82.000000,0.000000,4233.846191,4329.743652,4119.487305,4040.000000,4154.358887,450.000000,4.000000,,,,0.000000,4.000000,4.000000,4.000000,4.000000,4.000000,41.000000,0.000000,0.193073,-0.131836,0.878906,0.415771,0.514168,-0.607919,0.610849,11.749643,-46.865204,59.147026,,,,,,,,,,,,,,,,,,,,,,,,,
1577742495.450785,83.000000,0.000000,4227.179688,4331.282227,4115.384766,4031.281982,4146.666504,16218.000000,4.000000,,,,0.000000,4.000000,4.000000,4.000000,4.000000,4.000000,,,,,,,,,,,,,,,,,,,,,,,,,,,,,,,,,,,,,
1577742495.458581,84.000000,0.000000,4262.563965,4357.436035,4153.846191,4071.794922,4183.077148,450.000000,4.000000,,,,0.000000,4.000000,4.000000,4.000000,4.000000,4.000000,42.000000,0.000000,0.192906,-0.132080,0.878906,0.415771,0.525887,-0.600107,0.609873,7.703541,-46.724651,57.539028,,,,,,,,,,,,,,,,,,,,,,,,,
1577742495.466478,85.000000,0.000000,4283.589844,4346.153809,4168.205078,4096.410156,4207.692383,450.000000,4.000000,,,,0.000000,4.000000,4.000000,4.000000,4.000000,4.000000,,,,,,,,,,,,,,,,,,,,,,,,,,,,,,,,,,,,,
1577742495.474274,86.000000,0.000000,4250.769043,4308.717773,4137.436035,4065.128174,4186.666504,450.000000,4.000000,,,,0.000000,4.000000,4.000000,4.000000,4.000000,4.000000,43.000000,0.000000,0.192906,-0.132080,0.878906,0.415771,0.516609,-0.597665,0.603037,7.770602,-46.657970,56.032017,,,,,,,,,,,,,,,,,,,,,,,,,
1577742495.481971,87.000000,0.000000,4256.410156,4312.307617,4140.000000,4065.128174,4197.436035,16218.000000,4.000000,,,,0.000000,4.000000,4.000000,4.000000,4.000000,4.000000,,,,,,,,,,,,,,,,,,,,,,,,,,,,,,,,,,,,,
1577742495.489768,88.000000,0.000000,4284.102539,4315.897461,4157.948730,4081.538574,4217.436035,450.000000,4.000000,,,,0.000000,4.000000,4.000000,4.000000,4.000000,4.000000,44.000000,0.000000,0.192906,-0.132080,0.878906,0.415771,0.512215,-0.606455,0.616220,7.890773,-46.897034,56.589798,,,,,,,,,,,,,,,,,,,,,,,,,
1577742495.497464,89.000000,0.000000,4259.487305,4309.743652,4143.589844,4052.307617,4186.666504,450.000000,4.000000,,,,0.000000,4.000000,4.000000,4.000000,4.000000,4.000000,,,,,,,,,,,,,,,,,,,,,,,,,,,,,,,,,,,,,
1577742495.505261,90.000000,0.000000,4238.461426,4322.051270,4132.820313,4034.871826,4161.538574,450.000000,4.000000,,,,0.000000,4.000000,4.000000,4.000000,4.000000,4.000000,45.000000,0.000000,0.192906,-0.132080,0.878906,0.415771,0.533211,-0.588388,0.610849,9.972833,-46.813114,57.211433,,,,,,,,,,,,,,,,,,,,,,,,,
1577742495.512957,91.000000,0.000000,4254.358887,4333.846191,4141.025879,4052.307617,4171.794922,16218.000000,4.000000,,,,0.000000,4.000000,4.000000,4.000000,4.000000,4.000000,,,,,,,,,,,,,200.761154,39.162025,17.959917,6.739861,5.303397,1.200335,0.610769,1.860509,2.342689,2.271249,2.485496,4.270278,8.976197,3.982627,4.584862,6.725120,7.883209,9.126873,5.110112,5.492317,50.426872,17.134029,9.604927,5.398906,5.441346
1577742495.520754,92.000000,0.000000,4271.794922,4333.333496,4157.436035,4064.615479,4190.256348,450.000000,4.000000,,,,0.000000,4.000000,4.000000,4.000000,4.000000,4.000000,46.000000,0.000000,0.193491,-0.132080,0.878662,0.416016,0.530770,-0.590341,0.611337,9.932595,-46.797401,57.711086,,,,,,,,,,,,,,,,,,,,,,,,,
1577742495.528451,93.000000,0.000000,4265.641113,4327.179688,4156.922852,4050.769287,4188.717773,450.000000,4.000000,,,,0.000000,4.000000,4.000000,4.000000,4.000000,4.000000,,,,,,,,,,,,,,,,,,,,,,,,,,,,,,,,,,,,,
1577742495.536347,94.000000,0.000000,4251.282227,4327.692383,4140.512695,4035.384521,4172.820313,450.000000,4.000000,,,,0.000000,4.000000,4.000000,4.000000,4.000000,4.000000,47.000000,0.000000,0.193849,-0.132324,0.878662,0.415771,0.524422,-0.585946,0.616709,6.068198,-46.902889,58.280407,,,,,,,,,,,,,,,,,,,,,,,,,
1577742495.544144,95.000000,0.000000,4264.102539,4335.897461,4153.333496,4051.281982,4180.000000,16218.000000,4.000000,,,,0.000000,4.000000,4.000000,4.000000,4.000000,4.000000,,,,,,,,,,,,,,,,,,,,,,,,,,,,,,,,,,,,,
1577742495.552041,96.000000,0.000000,4303.077148,4353.333496,4185.128418,4093.333252,4220.512695,450.000000,4.000000,,,,0.000000,4.000000,4.000000,4.000000,4.000000,4.000000,48.000000,0.000000,0.192739,-0.132324,0.878906,0.415771,0.510750,-0.597665,0.611337,5.341748,-46.818382,58.792793,,,,,,,,,,,,,,,,,,,,,,,,,
1577742495.559837,97.000000,0.000000,4302.051270,4346.666504,4171.794922,4094.871826,4225.641113,450.000000,4.000000,,,,0.000000,4.000000,4.000000,4.000000,4.000000,4.000000,,,,,,,,,,,,,,,,,,,,,,,,,,,,,,,,,,,,,
1577742495.567734,98.000000,0.000000,4257.436035,4322.051270,4128.205078,4042.564209,4179.487305,450.000000,4.000000,,,,0.000000,4.000000,4.000000,4.000000,4.000000,4.000000,49.000000,0.000000,0.192739,-0.132324,0.878906,0.415771,0.529305,-0.581552,0.601083,5.764619,-46.802143,59.134312,,,,,,,,,,,,,,,,,,,,,,,,,
1577742495.575531,99.000000,0.000000,4256.922852,4319.487305,4138.461426,4037.948730,4178.461426,16218.000000,4.000000,,,,0.000000,4.000000,4.000000,4.000000,4.000000,4.000000,,,,,,,,,,,,,,,,,,,,,,,,,,,,,,,,,,,,,
1577742495.583427,100.000000,0.000000,4314.871582,4327.179688,4194.358887,4104.102539,4243.077148,450.000000,4.000000,,,,0.000000,4.000000,4.000000,4.000000,4.000000,4.000000,50.000000,0.000000,0.192906,-0.132080,0.878906,0.415771,0.518563,-0.593271,0.600595,6.145203,-46.907158,59.441681,,,,,,,,,,,,,,,,,,,,,,,,,
1577742495.591224,101.000000,0.000000,4341.025879,4331.282227,4204.102539,4123.589844,4269.230957,450.000000,4.000000,,,,0.000000,4.000000,4.000000,4.000000,4.000000,4.000000,,,,,,,,,,,,,,,,,,,,,,,,,,,,,,,,,,,,,
1577742495.599021,102.000000,0.000000,4285.128418,4322.051270,4148.717773,4055.897461,4207.692383,450.000000,4.000000,,,,0.000000,4.000000,4.000000,4.000000,4.000000,4.000000,51.000000,0.000000,0.192906,-0.132080,0.878906,0.415771,0.529305,-0.582040,0.603037,2.659545,-46.882042,59.718311,,,,,,,,,,,,,,,,,,,,,,,,,
1577742495.606718,103.000000,0.000000,4240.512695,4318.974121,4121.538574,4017.948730,4166.153809,16218.000000,4.000000,,,,0.000000,4.000000,4.000000,4.000000,4.000000,4.000000,,,,,,,,,,,,,,,,,,,,,,,,,,,,,,,,,,,,,
1577742495.614514,104.000000,0.000000,4284.615234,4336.410156,4164.615234,4063.076904,4207.692383,450.000000,4.000000,,,,0.000000,4.000000,4.000000,4.000000,4.000000,4.000000,52.000000,0.000000,0.192739,-0.132324,0.878906,0.415771,0.529305,-0.581552,0.601083,6.102143,-47.038883,59.847645,,,,,,,,,,,,,,,,,,,,,,,,,
1577742495.622211,105.000000,0.000000,4334.358887,4342.051270,4198.974121,4105.641113,4251.282227,450.000000,4.000000,,,,0.000000,4.000000,4.000000,4.000000,4.000000,4.000000,,,,,,,,,,,,,,,,,,,,,,,,,,,,,,,,,,,,,
1577742495.630107,106.000000,0.000000,4317.948730,4325.128418,4184.102539,4092.820557,4236.922852,450.000000,4.000000,,,,0.000000,4.000000,4.000000,4.000000,4.000000,4.000000,53.000000,0.000000,0.192906,-0.132080,0.878906,0.415771,0.529305,-0.582040,0.603037,2.620791,-47.000591,60.083679,,,,,,,,,,,,,,,,,,,,,,,,,
1577742495.637904,107.000000,0.000000,4288.717773,4325.641113,4163.077148,4069.230713,4212.820313,16218.000000,4.000000,,,,0.000000,4.000000,4.000000,4.000000,4.000000,4.000000,,,,,,,,,,,,,159.968430,34.100964,16.193911,5.769100,4.585467,1.212212,0.587396,1.420772,2.080546,2.093037,2.682143,4.101400,8.776909,3.468366,4.040541,5.909753,7.752898,8.400961,4.292923,4.806442,41.489399,16.901962,9.816890,4.449162,4.768986
1577742495.645800,108.000000,0.000000,4293.846191,4347.179688,4165.128418,4078.461426,4221.025879,450.000000,4.000000,,,,0.000000,4.000000,4.000000,4.000000,4.000000,4.000000,54.000000,0.000000,0.192379,-0.132080,0.878906,0.416016,0.510262,-0.585946,0.601083,3.196127,-46.966133,60.176479,,,,,,,,,,,,,,,,,,,,,,,,,
1577742495.653597,109.000000,0.000000,4311.282227,4327.179688,4179.487305,4102.051270,4237.948730,450.000000,4.000000,,,,0.000000,4.000000,4.000000,4.000000,4.000000,4.000000,,,,,,,,,,,,,,,,,,,,,,,,,,,,,,,,,,,,,
1577742495.661493,110.000000,0.000000,4312.820313,4298.974121,4176.922852,4097.436035,4234.871582,450.000000,4.000000,,,,0.000000,4.000000,4.000000,4.000000,4.000000,4.000000,55.000000,0.000000,0.193657,-0.131836,0.878662,0.416016,0.519051,-0.596201,0.609873,3.893376,-46.875301,60.259998,,,,,,,,,,,,,,,,,,,,,,,,,
1577742495.669290,111.000000,0.000000,4290.256348,4327.179688,4156.410156,4066.153809,4215.897461,16218.000000,4.000000,,,,0.000000,4.000000,4.000000,4.000000,4.000000,4.000000,,,,,,,,,,,,,,,,,,,,,,,,,,,,,,,,,,,,,
1577742495.676986,112.000000,0.000000,4298.974121,4356.410156,4169.743652,4079.487061,4229.230957,450.000000,4.000000,,,,0.000000,4.000000,4.000000,4.000000,4.000000,4.000000,56.000000,0.000000,0.193657,-0.131836,0.878662,0.416016,0.507332,-0.584482,0.597665,0.513270,-46.853371,60.574429,,,,,,,,,,,,,,,,,,,,,,,,,
1577742495.684883,113.000000,0.000000,4321.025879,4317.948730,4181.025879,4107.179688,4251.282227,450.000000,4.000000,,,,0.000000,4.000000,4.000000,4.000000,4.000000,4.000000,,,,,,,,,,,,,,,,,,,,,,,,,,,,,,,,,,,,,
1577742495.692680,114.000000,0.000000,4294.871582,4293.846191,4148.205078,4072.820557,4224.615234,450.000000,4.000000,,,,0.000000,4.000000,4.000000,4.000000,4.000000,4.000000,57.000000,0.000000,0.193132,-0.131836,0.878662,0.416260,0.523445,-0.596201,0.593271,1.299358,-46.893448,60.677967,,,,,,,,,,,,,,,,,,,,,,,,,
1577742495.700576,115.000000,0.000000,4279.487305,4342.051270,4146.153809,4053.333252,4213.846191,16218.000000,4.000000,,,,0.000000,4.000000,4.000000,4.000000,4.000000,4.000000,,,,,,,,,,,,,,,,,,,,,,,,,,,,,,,,,,,,,
1577742495.708373,116.000000,0.000000,4313.846191,4358.461426,4182.563965,4100.000000,4258.461426,450.000000,4.000000,,,,0.000000,4.000000,4.000000,4.000000,4.000000,4.000000,58.000000,0.000000,0.192605,-0.131836,0.878662,0.416504,0.522469,-0.605966,0.590829,-1.701715,-46.989330,58.916878,,,,,,,,,,,,,,,,,,,,,,,,,
1577742495.716270,117.000000,0.000000,4311.794922,4323.077148,4170.256348,4107.179688,4262.563965,450.000000,4.000000,,,,0.000000,4.000000,4.000000,4.000000,4.000000,4.000000,,,,,,,,,,,,,,,,,,,,,,,,,,,,,,,,,,,,,
1577742495.724067,118.000000,0.000000,4275.897461,4328.717773,4142.563965,4066.666748,4224.102539,450.000000,4.000000,,,,0.000000,4.000000,4.000000,4.000000,4.000000,4.000000,59.000000,0.000000,0.192605,-0.131836,0.878662,0.416504,0.526375,-0.604013,0.610361,2.177009,-46.955997,57.391712,,,,,,,,,,,,,,,,,,,,,,,,,
1577742495.731963,119.000000,0.000000,4292.820313,4362.051270,4172.307617,4084.102539,4241.538574,16218.000000,4.000000,,,,0.000000,4.000000,4.000000,4.000000,4.000000,4.000000,,,,,,,,,,,,,,,,,,,,,,,,,,,,,,,,,,,,,
1577742495.739860,120.000000,0.000000,4302.051270,4346.666504,4182.563965,4104.615234,4257.948730,450.000000,4.000000,,,,0.000000,4.000000,4.000000,4.000000,4.000000,4.000000,60.000000,0.000000,0.192076,-0.131836,0.878662,0.416748,0.516609,-0.597665,0.599619,2.916354,-46.866180,57.753708,,,,,,,,,,,,,,,,,,,,,,,,,
1577742495.747657,121.000000,0.000000,4268.205078,4307.179688,4152.820313,4068.205078,4218.461426,450.000000,4.000000,,,,0.000000,4.000000,4.000000,4.000000,4.000000,4.000000,,,,,,,,,,,,,,,,,,,,,,,,,,,,,,,,,,,,,
1577742495.755454,122.000000,0.000000,4287.692383,4318.461426,4172.820313,4078.974365,4228.717773,450.000000,4.000000,,,,0.000000,4.000000,4.000000,4.000000,4.000000,4.000000,61.000000,0.000000,0.192076,-0.131836,0.878662,0.416748,0.524422,-0.605478,0.603037,3.462134,-46.725529,58.079502,,,,,,,,,,,,,,,,,,,,,,,,,
1577742495.763251,123.000000,0.000000,4327.179688,4347.179688,4202.563965,4121.538574,4267.692383,16218.000000,4.000000,,,,0.000000,4.000000,4.000000,4.000000,4.000000,4.000000,,,,,,,,,,,,,109.536293,26.681402,14.065345,4.721468,3.969891,1.175970,0.632356,1.081888,1.787155,2.138727,3.025113,4.177425,8.284496,2.968626,3.550109,5.771924,7.695824,7.775279,3.564202,4.223305,30.721590,16.005842,9.912603,3.563771,4.188349
1577742495.771148,124.000000,0.000000,4313.333496,4340.512695,4184.615234,4109.743652,4255.897461,450.000000,4.000000,,,,0.000000,4.000000,4.000000,4.000000,4.000000,4.000000,62.000000,0.000000,0.192076,-0.131836,0.878662,0.416748,0.518074,-0.591806,0.607431,6.764657,-46.718575,56.638077,,,,,,,,,,,,,,,,,,,,,,,,,
1577742495.779044,125.000000,0.000000,4288.205078,4321.538574,4165.128418,4082.564209,4233.333496,450.000000,4.000000,,,,0.000000,4.000000,4.000000,4.000000,4.000000,4.000000,,,,,,,,,,,,,,,,,,,,,,,,,,,,,,,,,,,,,
1577742495.786841,126.000000,0.000000,4288.717773,4321.025879,4171.282227,4084.102539,4230.256348,450.000000,4.000000,,,,0.000000,4.000000,4.000000,4.000000,4.000000,4.000000,63.000000,0.000000,0.193190,-0.131836,0.878418,0.416748,0.521981,-0.604501,0.605478,6.925607,-46.712318,57.314697,,,,,,,,,,,,,,,,,,,,,,,,,
1577742495.794738,127.000000,0.000000,4313.846191,4326.153809,4193.846191,4107.179688,4247.692383,236.000000,4.000000,,,,0.000000,4.000000,4.000000,4.000000,4.000000,4.000000,,,,,,,,,,,,,,,,,,,,,,,,,,,,,,,,,,,,,
1577742495.802535,0.000000,0.000000,4370.769043,4349.230957,4241.025879,4158.974121,4310.769043,450.000000,4.000000,,,,0.000000,4.000000,4.000000,4.000000,4.000000,4.000000,0.000000,0.000000,0.193023,-0.132080,0.878418,0.416748,0.530770,-0.599130,0.597177,9.881783,-46.706684,57.804024,,,,,,,,,,,,,,,,,,,,,,,,,
1577742495.810431,1.000000,0.000000,4396.410156,4372.820313,4254.358887,4184.102539,4348.717773,450.000000,4.000000,,,,0.000000,4.000000,4.000000,4.000000,4.000000,4.000000,,,,,,,,,,,,,,,,,,,,,,,,,,,,,,,,,,,,,
1577742495.818228,2.000000,0.000000,4345.641113,4347.692383,4198.974121,4131.794922,4292.820313,16232.000000,4.000000,,,,0.000000,4.000000,4.000000,4.000000,4.000000,4.000000,1.000000,0.000000,0.193023,-0.132080,0.878418,0.416748,0.523445,-0.608408,0.609873,9.790835,-46.881062,58.244419,,,,,,,,,,,,,,,,,,,,,,,,,
1577742495.826125,3.000000,0.000000,4326.153809,4333.846191,4182.563965,4105.641113,4263.077148,450.000000,4.000000,,,,0.000000,4.000000,4.000000,4.000000,4.000000,4.000000,,,,,,,,,,,,,,,,,,,,,,,,,,,,,,,,,,,,,
1577742495.833921,4.000000,0.000000,4363.077148,4354.358887,4218.461426,4141.025879,4309.230957,16259.000000,4.000000,,,,0.000000,4.000000,4.000000,4.000000,4.000000,4.000000,2.000000,0.000000,0.193023,-0.132080,0.878418,0.416748,0.522469,-0.593271,0.601083,9.768798,-46.978184,58.640778,,,,,,,,,,,,,,,,,,,,,,,,,
1577742495.841818,5.000000,0.000000,4352.820313,4333.333496,4206.666504,4132.307617,4310.769043,450.000000,4.000000,,,,0.000000,4.000000,4.000000,4.000000,4.000000,4.000000,,,,,,,,,,,,,,,,,,,,,,,,,,,,,,,,,,,,,
1577742495.849615,6.000000,0.000000,4322.563965,4312.820313,4186.153809,4105.641113,4288.717773,16167.000000,4.000000,,,,0.000000,4.000000,4.000000,4.000000,4.000000,4.000000,3.000000,0.000000,0.193023,-0.132080,0.878418,0.416748,0.520516,-0.599619,0.605966,9.629333,-46.945965,57.143219,,,,,,,,,,,,,,,,,,,,,,,,,
1577742495.857512,7.000000,0.000000,4360.512695,4355.384766,4226.666504,4147.179688,4329.743652,450.000000,4.000000,,,,0.000000,4.000000,4.000000,4.000000,4.000000,4.000000,,,,,,,,,,,,,,,,,,,,,,,,,,,,,,,,,,,,,
1577742495.865308,8.000000,0.000000,4392.820313,4379.487305,4245.128418,4176.410156,4354.871582,450.000000,4.000000,,,,0.000000,4.000000,4.000000,4.000000,4.000000,4.000000,4.000000,0.000000,0.193023,-0.132080,0.878418,0.416748,0.518563,-0.597177,0.604501,9.443999,-46.916965,57.649696,,,,,,,,,,,,,,,,,,,,,,,,,
1577742495.873205,9.000000,0.000000,4358.461426,4352.307617,4206.666504,4137.948730,4317.948730,16222.000000,4.000000,,,,0.000000,4.000000,4.000000,4.000000,4.000000,4.000000,,,,,,,,,,,,,,,,,,,,,,,,,,,,,,,,,,,,,
1577742495.881002,10.000000,0.000000,4349.743652,4344.615234,4202.563965,4129.230957,4313.333496,450.000000,4.000000,,,,0.000000,4.000000,4.000000,4.000000,4.000000,4.000000,5.000000,0.000000,0.192855,-0.132324,0.878418,0.416748,0.526864,-0.593271,0.612314,5.628462,-46.950684,58.045708,,,,,,,,,,,,,,,,,,,,,,,,,
1577742495.888898,11.000000,0.000000,4369.230957,4334.358887,4215.897461,4145.641113,4328.205078,16235.000000,4.000000,,,,0.000000,4.000000,4.000000,4.000000,4.000000,4.000000,,,,,,,,,,,,,62.389084,18.998245,11.970406,3.832179,3.538152,1.112797,0.732615,0.878307,1.522812,2.347394,3.482484,4.326326,7.476166,2.553343,3.171162,5.916370,7.559047,7.087740,3.048243,3.812271,20.531652,14.688399,9.588723,2.887062,3.766262
1577742495.896695,12.000000,0.000000,4353.333496,4321.025879,4196.410156,4125.128418,4304.615234,450.000000,4.000000,,,,0.000000,4.000000,4.000000,4.000000,4.000000,4.000000,6.000000,0.000000,0.192855,-0.132324,0.878418,0.416748,0.526375,-0.615244,0.601083,6.022662,-46.981030,58.461937,,,,,,,,,,,,,,,,,,,,,,,,,
1577742495.904592,13.000000,0.000000,4345.128418,4357.948730,4195.897461,4120.512695,4299.487305,450.000000,4.000000,,,,0.000000,4.000000,4.000000,4.000000,4.000000,4.000000,,,,,,,,,,,,,,,,,,,,,,,,,,,,,,,,,,,,,
1577742495.912489,14.000000,0.000000,4370.256348,4377.436035,4222.051270,4147.692383,4325.128418,450.000000,4.000000,,,,0.000000,4.000000,4.000000,4.000000,4.000000,4.000000,7.000000,0.000000,0.192855,-0.132324,0.878418,0.416748,0.522957,-0.612802,0.588388,6.317626,-47.008339,58.716911,,,,,,,,,,,,,,,,,,,,,,,,,
1577742495.920285,15.000000,0.000000,4366.153809,4336.922852,4215.897461,4140.000000,4319.487305,16235.000000,4.000000,,,,0.000000,4.000000,4.000000,4.000000,4.000000,4.000000,,,,,,,,,,,,,,,,,,,,,,,,,,,,,,,,,,,,,
1577742495.928182,16.000000,0.000000,4355.384766,4330.256348,4210.256348,4132.307617,4310.256348,0.000000,4.000000,,,,0.000000,4.000000,4.000000,4.000000,4.000000,4.000000,8.000000,0.000000,0.192855,-0.132324,0.878418,0.416748,0.512215,-0.603525,0.612802,2.695095,-47.152550,57.151924,,,,,,,,,,,,,,,,,,,,,,,,,
1577742495.935979,17.000000,0.000000,4371.282227,4364.102539,4234.358887,4159.487305,4323.077148,0.000000,4.000000,,,,0.000000,4.000000,4.000000,4.000000,4.000000,4.000000,,,,,,,,,,,,,,,,,,,,,,,,,,,,,,,,,,,,,
1577742495.943875,18.000000,0.000000,4355.384766,4343.589844,4226.666504,4143.077148,4300.512695,0.000000,4.000000,,,,0.000000,4.000000,4.000000,4.000000,4.000000,4.000000,9.000000,0.000000,0.192855,-0.132324,0.878418,0.416748,0.518563,-0.591318,0.604990,6.074323,-46.983261,55.803253,,,,,,,,,,,,,,,,,,,,,,,,,
1577742495.951672,19.000000,0.000000,4323.589844,4324.615234,4196.410156,4100.512695,4265.641113,0.000000,4.000000,,,,0.000000,4.000000,4.000000,4.000000,4.000000,4.000000,,,,,,,,,,,,,,,,,,,,,,,,,,,,,,,,,,,,,
1577742495.959569,20.000000,0.000000,4324.615234,4351.282227,4188.717773,4102.051270,4266.666504,0.000000,4.000000,,,,0.000000,4.000000,4.000000,4.000000,4.000000,4.000000,10.000000,0.000000,0.192327,-0.132324,0.878418,0.416992,0.527840,-0.598642,0.603037,6.364121,-47.070168,56.264282,,,,,,,,,,,,,,,,,,,,,,,,,
1577742495.967366,21.000000,0.000000,4344.102539,4353.333496,4202.563965,4131.282227,4288.717773,0.000000,4.000000,,,,0.000000,4.000000,4.000000,4.000000,4.000000,4.000000,,,,,,,,,,,,,,,,,,,,,,,,,,,,,,,,,,,,,
1577742495.975262,22.000000,0.000000,4354.358887,4336.922852,4218.974121,4144.102539,4307.179688,0.000000,4.000000,,,,0.000000,4.000000,4.000000,4.000000,4.000000,4.000000,11.000000,0.000000,0.192159,-0.132568,0.878418,0.416992,0.519539,-0.592782,0.600107,6.624939,-47.088562,56.798836,,,,,,,,,,,,,,,,,,,,,,,,,
1577742495.983059,23.000000,0.000000,4346.666504,4341.538574,4214.871582,4134.871582,4302.563965,0.000000,4.000000,,,,0.000000,4.000000,4.000000,4.000000,4.000000,4.000000,,,,,,,,,,,,,,,,,,,,,,,,,,,,,,,,,,,,,
1577742495.990956,24.000000,0.000000,4343.589844,4353.846191,4208.205078,4128.205078,4298.461426,0.000000,4.000000,,,,0.000000,4.000000,4.000000,4.000000,4.000000,4.000000,12.000000,0.000000,0.193272,-0.132568,0.878174,0.416992,0.522469,-0.605478,0.599130,9.670999,-47.105122,55.485474,,,,,,,,,,,,,,,,,,,,,,,,,
1577742495.998752,25.000000,0.000000,4347.692383,4346.153809,4211.794922,4131.282227,4306.153809,0.000000,4.000000,,,,0.000000,4.000000,4.000000,4.000000,4.000000,4.000000,,,,,,,,,,,,,,,,,,,,,,,,,,,,,,,,,,,,,
1577742496.006649,26.000000,0.000000,4341.025879,4336.922852,4209.230957,4127.179688,4302.563965,0.000000,4.000000,,,,0.000000,4.000000,4.000000,4.000000,4.000000,4.000000,13.000000,0.000000,0.193272,-0.132568,0.878174,0.416992,0.522469,-0.584970,0.602060,12.292820,-46.880760,56.097908,,,,,,,,,,,,,,,,,,,,,,,,,
1577742496.014446,27.000000,0.000000,4337.436035,4351.282227,4205.641113,4118.974121,4300.512695,0.000000,4.000000,,,,0.000000,4.000000,4.000000,4.000000,4.000000,4.000000,,,,,,,,,,,,,28.194317,12.720887,10.032568,3.263099,3.355580,1.052252,0.886485,0.795544,1.322542,2.624202,4.010839,4.320415,6.423135,2.281547,2.964181,6.050859,7.270507,6.272117,2.815629,3.644457,12.994679,13.222885,8.683783,2.509111,3.565489
1577742496.022342,28.000000,0.000000,4345.128418,4360.000000,4209.230957,4128.717773,4314.871582,0.000000,4.000000,,,,0.000000,4.000000,4.000000,4.000000,4.000000,4.000000,14.000000,0.000000,0.193272,-0.132568,0.878174,0.416992,0.522957,-0.591318,0.590341,11.960769,-46.918098,56.649101,,,,,,,,,,,,,,,,,,,,,,,,,
1577742496.030139,29.000000,0.000000,4332.307617,4329.743652,4197.948730,4127.692383,4307.179688,0.000000,4.000000,,,,0.000000,4.000000,4.000000,4.000000,4.000000,4.000000,,,,,,,,,,,,,,,,,,,,,,,,,,,,,,,,,,,,,
1577742496.038036,30.000000,0.000000,4348.205078,4328.205078,4214.358887,4143.589844,4317.436035,0.000000,4.000000,,,,0.000000,4.000000,4.000000,4.000000,4.000000,4.000000,15.000000,0.000000,0.192744,-0.132568,0.878174,0.417236,0.527352,-0.603525,0.604501,11.542292,-46.772259,57.085358,,,,,,,,,,,,,,,,,,,,,,,,,
1577742496.045833,31.000000,0.000000,4395.384766,4373.846191,4256.410156,4189.230957,4362.051270,0.000000,4.000000,,,,0.000000,4.000000,4.000000,4.000000,4.000000,4.000000,,,,,,,,,,,,,,,,,,,,,,,,,,,,,,,,,,,,,
1577742496.053729,32.000000,0.000000,4354.871582,4356.410156,4224.102539,4158.974121,4327.179688,0.000000,4.000000,,,,0.000000,4.000000,4.000000,4.000000,4.000000,4.000000,16.000000,0.000000,0.193272,-0.132568,0.878174,0.416992,0.522469,-0.584970,0.602060,11.285293,-46.760632,57.537804,,,,,,,,,,,,,,,,,,,,,,,,,
1577742496.061526,33.000000,0.000000,4292.820313,4315.897461,4180.000000,4095.384521,4265.641113,0.000000,4.000000,,,,0.000000,4.000000,4.000000,4.000000,4.000000,4.000000,,,,,,,,,,,,,,,,,,,,,,,,,,,,,,,,,,,,,
1577742496.069423,34.000000,0.000000,4315.897461,4331.282227,4207.179688,4110.769043,4287.179688,0.000000,4.000000,,,,0.000000,4.000000,4.000000,4.000000,4.000000,4.000000,17.000000,0.000000,0.192744,-0.132568,0.878174,0.417236,0.527352,-0.603525,0.604501,10.934363,-46.630535,57.885193,,,,,,,,,,,,,,,,,,,,,,,,,
1577742496.077220,35.000000,0.000000,4347.692383,4353.846191,4235.897461,4148.205078,4322.563965,0.000000,4.000000,,,,0.000000,4.000000,4.000000,4.000000,4.000000,4.000000,,,,,,,,,,,,,,,,,,,,,,,,,,,,,,,,,,,,,
1577742496.085116,36.000000,0.000000,4343.077148,4352.307617,4231.794922,4147.692383,4318.974121,0.000000,4.000000,,,,0.000000,4.000000,4.000000,4.000000,4.000000,4.000000,18.000000,0.000000,0.192744,-0.132568,0.878174,0.417236,0.519051,-0.607431,0.602548,10.618526,-46.692894,58.317471,,,,,,,,,,,,,,,,,,,,,,,,,
1577742496.093013,37.000000,0.000000,4334.358887,4345.128418,4218.974121,4139.487305,4308.205078,0.000000,4.000000,,,,0.000000,4.000000,4.000000,4.000000,4.000000,4.000000,,,,,,,,,,,,,,,,,,,,,,,,,,,,,,,,,,,,,
1577742496.100810,38.000000,0.000000,4315.897461,4327.692383,4196.410156,4121.538574,4288.205078,0.000000,4.000000,,,,0.000000,4.000000,4.000000,4.000000,4.000000,4.000000,19.000000,0.000000,0.192744,-0.132568,0.878174,0.417236,0.521492,-0.603525,0.597177,13.325043,-46.689205,56.852245,,,,,,,,,,,,,,,,,,,,,,,,,
1577742496.108706,39.000000,0.000000,4301.025879,4324.102539,4177.436035,4097.436035,4267.692383,0.000000,4.000000,,,,0.000000,4.000000,4.000000,4.000000,4.000000,4.000000,,,,,,,,,,,,,,,,,,,,,,,,,,,,,,,,,,,,,
1577742496.116503,40.000000,0.000000,4305.128418,4333.333496,4175.897461,4095.897461,4268.717773,0.000000,4.000000,,,,0.000000,4.000000,4.000000,4.000000,4.000000,4.000000,20.000000,0.000000,0.192744,-0.132568,0.878174,0.417236,0.527840,-0.617197,0.618173,12.770138,-46.566250,57.268188,,,,,,,,,,,,,,,,,,,,,,,,,
1577742496.124300,41.000000,0.000000,4286.153809,4324.615234,4166.153809,4084.102539,4252.307617,0.000000,4.000000,,,,0.000000,4.000000,4.000000,4.000000,4.000000,4.000000,,,,,,,,,,,,,,,,,,,,,,,,,,,,,,,,,,,,,
1577742496.132196,42.000000,0.000000,4288.205078,4339.487305,4176.410156,4090.769287,4258.461426,0.000000,4.000000,,,,0.000000,4.000000,4.000000,4.000000,4.000000,4.000000,21.000000,0.000000,0.193272,-0.132568,0.878174,0.416992,0.518563,-0.603037,0.604501,12.270723,-46.515408,55.788261,,,,,,,,,,,,,,,,,,,,,,,,,
1577742496.139993,43.000000,0.000000,4337.436035,4366.153809,4220.000000,4145.128418,4315.384766,0.000000,4.000000,,,,0.000000,4.000000,4.000000,4.000000,4.000000,4.000000,,,,,,,,,,,,,10.432041,8.572526,8.167210,3.052872,3.452645,0.996893,1.101066,0.791748,1.203785,2.895530,4.365851,4.038977,5.267519,2.196763,2.968919,5.905160,6.867648,5.405173,2.864392,3.764327,8.903677,11.771407,7.280705,2.457792,3.627892
1577742496.147890,44.000000,0.000000,4337.948730,4332.820313,4225.128418,4149.743652,4322.563965,0.000000,4.000000,,,,0.000000,4.000000,4.000000,4.000000,4.000000,4.000000,22.000000,0.000000,0.192159,-0.132568,0.878418,0.416992,0.529305,-0.608408,0.602060,11.821251,-46.589283,56.310600,,,,,,,,,,,,,,,,,,,,,,,,,
1577742496.155687,45.000000,0.000000,4297.948730,4297.948730,4200.000000,4100.000000,4281.025879,0.000000,4.000000,,,,0.000000,4.000000,4.000000,4.000000,4.000000,4.000000,,,,,,,,,,,,,,,,,,,,,,,,,,,,,,,,,,,,,
1577742496.163583,46.000000,0.000000,4288.205078,4320.512695,4184.615234,4084.102539,4269.230957,0.000000,4.000000,,,,0.000000,4.000000,4.000000,4.000000,4.000000,4.000000,23.000000,0.000000,0.192159,-0.132568,0.878418,0.416992,0.519539,-0.599619,0.601083,11.476542,-46.536137,56.900341,,,,,,,,,,,,,,,,,,,,,,,,,
1577742496.171480,47.000000,0.000000,4299.487305,4345.128418,4183.077148,4100.000000,4282.051270,0.000000,4.000000,,,,0.000000,4.000000,4.000000,4.000000,4.000000,4.000000,,,,,,,,,,,,,,,,,,,,,,,,,,,,,,,,,,,,,
1577742496.179277,48.000000,0.000000,4314.871582,4351.794922,4201.025879,4122.563965,4298.974121,0.000000,4.000000,,,,0.000000,4.000000,4.000000,4.000000,4.000000,4.000000,24.000000,0.000000,0.192744,-0.132568,0.878174,0.417236,0.518563,-0.598642,0.604501,11.226117,-46.727570,57.431103,,,,,,,,,,,,,,,,,,,,,,,,,
1577742496.187173,49.000000,0.000000,4320.512695,4346.666504,4202.051270,4133.333496,4300.512695,0.000000,4.000000,,,,0.000000,4.000000,4.000000,4.000000,4.000000,4.000000,,,,,,,,,,,,,,,,,,,,,,,,,,,,,,,,,,,,,
1577742496.194970,50.000000,0.000000,4308.205078,4318.461426,4178.461426,4122.051270,4285.128418,0.000000,4.000000,,,,0.000000,4.000000,4.000000,4.000000,4.000000,4.000000,25.000000,0.000000,0.192912,-0.132324,0.878174,0.417236,0.530770,-0.569345,0.601572,7.172553,-46.720409,57.908791,,,,,,,,,,,,,,,,,,,,,,,,,
1577742496.202867,51.000000,0.000000,4308.717773,4319.487305,4177.436035,4129.743652,4286.153809,0.000000,4.000000,,,,0.000000,4.000000,4.000000,4.000000,4.000000,4.000000,,,,,,,,,,,,,,,,,,,,,,,,,,,,,,,,,,,,,
1577742496.210664,52.000000,0.000000,4316.922852,4350.256348,4183.589844,4149.743652,4290.256348,0.000000,4.000000,,,,0.000000,4.000000,4.000000,4.000000,4.000000,4.000000,26.000000,0.000000,0.192383,-0.132324,0.878174,0.417480,0.519539,-0.601572,0.604013,6.395482,-46.893414,58.219078,,,,,,,,,,,,,,,,,,,,,,,,,
1577742496.218560,53.000000,0.000000,4308.205078,4340.512695,4160.512695,4134.358887,4270.769043,0.000000,4.000000,,,,0.000000,4.000000,4.000000,4.000000,4.000000,4.000000,,,,,,,,,,,,,,,,,,,,,,,,,,,,,,,,,,,,,
1577742496.226357,54.000000,0.000000,4306.666504,4308.717773,4135.897461,4100.000000,4259.487305,0.000000,4.000000,,,,0.000000,4.000000,4.000000,4.000000,4.000000,4.000000,27.000000,0.000000,0.192550,-0.132080,0.878174,0.417480,0.510750,-0.608408,0.596689,2.884796,-46.929485,58.617970,,,,,,,,,,,,,,,,,,,,,,,,,
1577742496.234254,55.000000,0.000000,4347.692383,4324.615234,4135.897461,4081.538574,4274.358887,0.000000,4.000000,,,,0.000000,4.000000,4.000000,4.000000,4.000000,4.000000,,,,,,,,,,,,,,,,,,,,,,,,,,,,,,,,,,,,,
1577742496.242050,56.000000,0.000000,4454.358887,4367.692383,4173.846191,4106.153809,4332.820313,0.000000,4.000000,,,,0.000000,4.000000,4.000000,4.000000,4.000000,4.000000,28.000000,0.000000,0.192550,-0.132080,0.878174,0.417480,0.509773,-0.617685,0.599619,-0.394452,-46.961952,59.156418,,,,,,,,,,,,,,,,,,,,,,,,,
1577742496.249947,57.000000,0.000000,4595.897461,4392.307617,4239.487305,4181.538574,4431.794922,0.000000,4.000000,,,,0.000000,4.000000,4.000000,4.000000,4.000000,4.000000,,,,,,,,,,,,,,,,,,,,,,,,,,,,,,,,,,,,,
1577742496.257744,58.000000,0.000000,4665.641113,4372.820313,4248.717773,4205.641113,4475.384766,0.000000,4.000000,,,,0.000000,4.000000,4.000000,4.000000,4.000000,4.000000,29.000000,0.000000,0.192550,-0.132080,0.878174,0.417480,0.523934,-0.612802,0.599130,3.353546,-46.931355,59.341942,,,,,,,,,,,,,,,,,,,,,,,,,
1577742496.265641,59.000000,0.000000,4668.717773,4326.153809,4200.512695,4151.282227,4453.333496,0.000000,4.000000,,,,0.000000,4.000000,4.000000,4.000000,4.000000,4.000000,,,,,,,,,,,,,5.187791,6.159186,6.266375,3.139155,3.783079,0.925946,1.350304,0.805571,1.182144,3.119051,4.515448,3.498461,4.139775,2.303063,3.161039,5.403161,6.371973,4.588664,3.137709,4.131773,7.443771,10.268602,5.621793,2.704383,3.923551
1577742496.273437,60.000000,0.000000,4713.846191,4330.256348,4199.487305,4152.820313,4474.871582,0.000000,4.000000,,,,0.000000,4.000000,4.000000,4.000000,4.000000,4.000000,30.000000,0.000000,0.192912,-0.132324,0.878174,0.417236,0.526864,-0.611826,0.600107,3.975238,-46.903816,57.594822,,,,,,,,,,,,,,,,,,,,,,,,,
1577742496.281334,61.000000,0.000000,4752.307617,4352.307617,4218.461426,4195.384766,4507.179688,0.000000,4.000000,,,,0.000000,4.000000,4.000000,4.000000,4.000000,4.000000,,,,,,,,,,,,,,,,,,,,,,,,,,,,,,,,,,,,,
1577742496.289131,62.000000,0.000000,4683.589844,4322.051270,4169.230957,4144.615234,4450.769043,0.000000,4.000000,,,,0.000000,4.000000,4.000000,4.000000,4.000000,4.000000,31.000000,0.000000,0.192912,-0.132324,0.878174,0.417236,0.516121,-0.610849,0.613779,4.355314,-46.998665,57.936508,,,,,,,,,,,,,,,,,,,,,,,,,
1577742496.297027,63.000000,0.000000,4602.051270,4312.307617,4121.538574,4073.846191,4383.077148,0.000000,4.000000,,,,0.000000,4.000000,4.000000,4.000000,4.000000,4.000000,,,,,,,,,,,,,,,,,,,,,,,,,,,,,,,,,,,,,
1577742496.304824,64.000000,0.000000,4616.410156,4349.230957,4157.948730,4111.794922,4404.615234,450.000000,4.000000,,,,0.000000,4.000000,4.000000,4.000000,4.000000,4.000000,32.000000,0.000000,0.192215,-0.132568,0.878174,0.417480,0.527352,-0.587411,0.602060,0.929014,-46.904583,58.363655,,,,,,,,,,,,,,,,,,,,,,,,,
1577742496.312721,65.000000,0.000000,4642.051270,4349.230957,4202.051270,4170.769043,4448.717773,450.000000,4.000000,,,,0.000000,4.000000,4.000000,4.000000,4.000000,4.000000,,,,,,,,,,,,,,,,,,,,,,,,,,,,,,,,,,,,,
1577742496.320518,66.000000,0.000000,4595.897461,4319.487305,4186.666504,4150.256348,4427.692383,16227.000000,4.000000,,,,0.000000,4.000000,4.000000,4.000000,4.000000,4.000000,33.000000,0.000000,0.192215,-0.132568,0.878174,0.417480,0.516121,-0.597665,0.604501,4.484850,-46.939537,58.688274,,,,,,,,,,,,,,,,,,,,,,,,,
1577742496.328414,67.000000,0.000000,4552.820313,4337.436035,4176.922852,4135.897461,4394.871582,450.000000,4.000000,,,,0.000000,4.000000,4.000000,4.000000,4.000000,4.000000,,,,,,,,,,,,,,,,,,,,,,,,,,,,,,,,,,,,,
1577742496.336211,68.000000,0.000000,4549.743652,4368.205078,4204.615234,4166.666504,4395.384766,16258.000000,4.000000,,,,0.000000,4.000000,4.000000,4.000000,4.000000,4.000000,34.000000,0.000000,0.192046,-0.132813,0.878174,0.417480,0.528328,-0.602060,0.596201,4.873780,-46.791553,59.040245,,,,,,,,,,,,,,,,,,,,,,,,,
1577742496.344108,69.000000,0.000000,4497.948730,4344.102539,4188.717773,4143.077148,4355.384766,450.000000,4.000000,,,,0.000000,4.000000,4.000000,4.000000,4.000000,4.000000,,,,,,,,,,,,,,,,,,,,,,,,,,,,,,,,,,,,,
1577742496.351904,70.000000,0.000000,4419.487305,4309.230957,4145.128418,4089.743652,4286.153809,16172.000000,4.000000,,,,0.000000,4.000000,4.000000,4.000000,4.000000,4.000000,35.000000,0.000000,0.191514,-0.132813,0.878174,0.417725,0.528817,-0.604013,0.601572,1.395634,-46.718182,59.357018,,,,,,,,,,,,,,,,,,,,,,,,,
1577742496.359801,71.000000,0.000000,4420.512695,4326.153809,4171.282227,4113.333496,4296.922852,450.000000,4.000000,,,,0.000000,4.000000,4.000000,4.000000,4.000000,4.000000,,,,,,,,,,,,,,,,,,,,,,,,,,,,,,,,,,,,,
1577742496.367698,72.000000,0.000000,4440.000000,4352.307617,4212.307617,4146.153809,4328.717773,450.000000,4.000000,,,,0.000000,4.000000,4.000000,4.000000,4.000000,4.000000,36.000000,0.000000,0.192046,-0.132813,0.878174,0.417480,0.508309,-0.617685,0.598642,2.153301,-46.771774,59.522484,,,,,,,,,,,,,,,,,,,,,,,,,
1577742496.375495,73.000000,0.000000,4405.128418,4335.384766,4189.230957,4115.897461,4302.051270,16217.000000,4.000000,,,,0.000000,4.000000,4.000000,4.000000,4.000000,4.000000,,,,,,,,,,,,,,,,,,,,,,,,,,,,,,,,,,,,,
1577742496.383391,74.000000,0.000000,4392.820313,4318.974121,4183.077148,4114.871582,4302.051270,450.000000,4.000000,,,,0.000000,4.000000,4.000000,4.000000,4.000000,4.000000,37.000000,0.000000,0.192046,-0.132813,0.878174,0.417480,0.527352,-0.584482,0.597665,2.835201,-46.820011,59.671402,,,,,,,,,,,,,,,,,,,,,,,,,
1577742496.391188,75.000000,0.000000,4411.282227,4329.230957,4208.717773,4146.153809,4335.897461,16227.000000,4.000000,,,,0.000000,4.000000,4.000000,4.000000,4.000000,4.000000,,,,,,,,,,,,,5.067920,4.988389,4.402354,3.416075,4.206885,0.840977,1.568624,0.788483,1.268604,3.272767,4.397237,2.901491,3.174875,2.565302,3.439294,4.680940,5.815867,3.870752,3.572786,4.604318,7.070415,8.743213,4.025345,3.182405,4.325348
1577742496.399085,76.000000,0.000000,4408.717773,4346.153809,4209.230957,4149.743652,4338.461426,450.000000,4.000000,,,,0.000000,4.000000,4.000000,4.000000,4.000000,4.000000,38.000000,0.000000,0.192046,-0.132813,0.878174,0.417480,0.521004,-0.602060,0.606943,-0.439087,-46.803608,59.865246,,,,,,,,,,,,,,,,,,,,,,,,,
1577742496.406881,77.000000,0.000000,4407.692383,4366.666504,4214.871582,4161.538574,4342.051270,450.000000,4.000000,,,,0.000000,4.000000,4.000000,4.000000,4.000000,4.000000,,,,,,,,,,,,,,,,,,,,,,,,,,,,,,,,,,,,,
1577742496.414778,78.000000,0.000000,4383.589844,4351.282227,4202.051270,4150.769043,4326.666504,450.000000,4.000000,,,,0.000000,4.000000,4.000000,4.000000,4.000000,4.000000,39.000000,0.000000,0.192046,-0.132813,0.878174,0.417480,0.508797,-0.602060,0.592294,-0.454994,-46.788845,59.979889,,,,,,,,,,,,,,,,,,,,,,,,,
1577742496.422575,79.000000,0.000000,4322.051270,4312.307617,4154.358887,4098.974121,4267.179688,16227.000000,4.000000,,,,0.000000,4.000000,4.000000,4.000000,4.000000,4.000000,,,,,,,,,,,,,,,,,,,,,,,,,,,,,,,,,,,,,
1577742496.430471,80.000000,0.000000,4308.717773,4312.820313,4163.077148,4106.153809,4252.307617,450.000000,4.000000,,,,0.000000,4.000000,4.000000,4.000000,4.000000,4.000000,40.000000,0.000000,0.192630,-0.132813,0.877930,0.417725,0.525399,-0.588876,0.598154,-3.340447,-46.715744,60.142879,,,,,,,,,,,,,,,,,,,,,,,,,
1577742496.438268,81.000000,0.000000,4325.641113,4334.871582,4206.153809,4145.641113,4272.820313,450.000000,4.000000,,,,0.000000,4.000000,4.000000,4.000000,4.000000,4.000000,,,,,,,,,,,,,,,,,,,,,,,,,,,,,,,,,,,,,
1577742496.446165,82.000000,0.000000,4306.153809,4340.512695,4203.077148,4133.333496,4254.871582,450.000000,4.000000,,,,0.000000,4.000000,4.000000,4.000000,4.000000,4.000000,41.000000,0.000000,0.192630,-0.132813,0.877930,0.417725,0.521492,-0.603525,0.589853,-2.168988,-46.769585,60.349392,,,,,,,,,,,,,,,,,,,,,,,,,
1577742496.453962,83.000000,0.000000,4306.666504,4348.205078,4202.051270,4132.307617,4254.871582,16227.000000,4.000000,,,,0.000000,4.000000,4.000000,4.000000,4.000000,4.000000,,,,,,,,,,,,,,,,,,,,,,,,,,,,,,,,,,,,,
1577742496.461858,84.000000,0.000000,4336.922852,4351.282227,4222.051270,4163.589844,4289.743652,450.000000,4.000000,,,,0.000000,4.000000,4.000000,4.000000,4.000000,4.000000,42.000000,0.000000,0.192462,-0.133057,0.877930,0.417725,0.521004,-0.615732,0.601572,-0.995043,-46.818039,58.621159,,,,,,,,,,,,,,,,,,,,,,,,,
1577742496.469755,85.000000,0.000000,4295.897461,4327.692383,4186.153809,4127.692383,4252.307617,450.000000,4.000000,,,,0.000000,4.000000,4.000000,4.000000,4.000000,4.000000,,,,,,,,,,,,,,,,,,,,,,,,,,,,,,,,,,,,,
1577742496.477552,86.000000,0.000000,4242.051270,4320.000000,4153.333496,4085.128174,4202.051270,450.000000,4.000000,,,,0.000000,4.000000,4.000000,4.000000,4.000000,4.000000,43.000000,0.000000,0.192630,-0.132813,0.877930,0.417725,0.514168,-0.609384,0.604501,-0.117939,-46.682205,58.860210,,,,,,,,,,,,,,,,,,,,,,,,,
1577742496.485448,87.000000,0.000000,4264.615234,4323.589844,4178.974121,4119.487305,4234.358887,16227.000000,4.000000,,,,0.000000,4.000000,4.000000,4.000000,4.000000,4.000000,,,,,,,,,,,,,,,,,,,,,,,,,,,,,,,,,,,,,
1577742496.493245,88.000000,0.000000,4262.563965,4311.794922,4174.871582,4125.641113,4240.512695,450.000000,4.000000,,,,0.000000,4.000000,4.000000,4.000000,4.000000,4.000000,44.000000,0.000000,0.192630,-0.132813,0.877930,0.417725,0.521492,-0.603525,0.589853,3.662223,-46.739399,57.280895,,,,,,,,,,,,,,,,,,,,,,,,,
1577742496.501142,89.000000,0.000000,4215.897461,4314.358887,4151.282227,4089.743652,4197.948730,450.000000,4.000000,,,,0.000000,4.000000,4.000000,4.000000,4.000000,4.000000,,,,,,,,,,,,,,,,,,,,,,,,,,,,,,,,,,,,,
1577742496.508939,90.000000,0.000000,4231.794922,4332.820313,4181.538574,4116.922852,4214.871582,450.000000,4.000000,,,,0.000000,4.000000,4.000000,4.000000,4.000000,4.000000,45.000000,0.000000,0.192630,-0.132813,0.877930,0.417725,0.514168,-0.609384,0.604501,4.073600,-46.611427,57.653973,,,,,,,,,,,,,,,,,,,,,,,,,
1577742496.516735,91.000000,0.000000,4257.948730,4331.282227,4197.436035,4146.666504,4236.922852,16227.000000,4.000000,,,,0.000000,4.000000,4.000000,4.000000,4.000000,4.000000,,,,,,,,,,,,,9.707178,5.280420,3.109398,3.832619,4.570170,0.762073,1.683510,0.753444,1.464937,3.362103,4.218628,2.551090,2.532353,2.944289,3.681972,4.172052,5.185426,3.305206,4.155727,5.021553,8.122732,7.451812,2.895423,3.845561,4.681316
1577742496.524632,92.000000,0.000000,4206.666504,4309.230957,4143.077148,4092.820557,4181.538574,450.000000,4.000000,,,,0.000000,4.000000,4.000000,4.000000,4.000000,4.000000,46.000000,0.000000,0.192630,-0.132813,0.877930,0.417725,0.509773,-0.602548,0.603525,0.914734,-46.675697,58.049557,,,,,,,,,,,,,,,,,,,,,,,,,
1577742496.532529,93.000000,0.000000,4185.641113,4303.589844,4125.128418,4067.692383,4161.538574,450.000000,4.000000,,,,0.000000,4.000000,4.000000,4.000000,4.000000,4.000000,,,,,,,,,,,,,,,,,,,,,,,,,,,,,,,,,,,,,
1577742496.540325,94.000000,0.000000,4225.128418,4317.948730,4157.948730,4103.589844,4197.436035,450.000000,4.000000,,,,0.000000,4.000000,4.000000,4.000000,4.000000,4.000000,47.000000,0.000000,0.192462,-0.133057,0.877930,0.417725,0.517098,-0.599619,0.612802,3.694398,-46.673725,58.525215,,,,,,,,,,,,,,,,,,,,,,,,,
1577742496.548222,95.000000,0.000000,4196.410156,4322.051270,4130.769043,4074.871826,4158.461426,16227.000000,4.000000,,,,0.000000,4.000000,4.000000,4.000000,4.000000,4.000000,,,,,,,,,,,,,,,,,,,,,,,,,,,,,,,,,,,,,
1577742496.556019,96.000000,0.000000,4125.641113,4307.179688,4076.410156,4011.281982,4087.179443,450.000000,4.000000,,,,0.000000,4.000000,4.000000,4.000000,4.000000,4.000000,48.000000,0.000000,0.191931,-0.133057,0.877930,0.417969,0.524910,-0.600595,0.604990,6.196095,-46.671951,59.013123,,,,,,,,,,,,,,,,,,,,,,,,,
1577742496.563916,97.000000,0.000000,4126.666504,4298.461426,4082.564209,4023.076904,4095.384521,450.000000,4.000000,,,,0.000000,4.000000,4.000000,4.000000,4.000000,4.000000,,,,,,,,,,,,,,,,,,,,,,,,,,,,,,,,,,,,,
1577742496.571712,98.000000,0.000000,4173.846191,4317.436035,4122.563965,4076.410156,4144.102539,450.000000,4.000000,,,,0.000000,4.000000,4.000000,4.000000,4.000000,4.000000,49.000000,0.000000,0.191931,-0.133057,0.877930,0.417969,0.502449,-0.604990,0.604013,2.645533,-46.849800,59.392426,,,,,,,,,,,,,,,,,,,,,,,,,
1577742496.579609,99.000000,0.000000,4161.025879,4330.256348,4118.974121,4067.179443,4135.897461,16227.000000,4.000000,,,,0.000000,4.000000,4.000000,4.000000,4.000000,4.000000,,,,,,,,,,,,,,,,,,,,,,,,,,,,,,,,,,,,,
1577742496.587406,100.000000,0.000000,4096.410156,4292.307617,4074.871826,4004.102539,4072.307617,450.000000,4.000000,,,,0.000000,4.000000,4.000000,4.000000,4.000000,4.000000,50.000000,0.000000,0.191931,-0.133057,0.877930,0.417969,0.517098,-0.600107,0.600595,5.252117,-46.830421,59.733795,,,,,,,,,,,,,,,,,,,,,,,,,
1577742496.595302,101.000000,0.000000,4097.436035,4286.153809,4077.948730,4008.205078,4070.769287,450.000000,4.000000,,,,0.000000,4.000000,4.000000,4.000000,4.000000,4.000000,,,,,,,,,,,,,,,,,,,,,,,,,,,,,,,,,,,,,
1577742496.603099,102.000000,0.000000,4144.102539,4329.743652,4114.871582,4056.923096,4123.077148,450.000000,4.000000,,,,0.000000,4.000000,4.000000,4.000000,4.000000,4.000000,51.000000,0.000000,0.191931,-0.133057,0.877930,0.417969,0.522957,-0.611337,0.595224,1.795953,-46.753162,59.921398,,,,,,,,,,,,,,,,,,,,,,,,,
1577742496.610996,103.000000,0.000000,4127.179688,4322.051270,4098.461426,4041.538574,4116.922852,16227.000000,4.000000,,,,0.000000,4.000000,4.000000,4.000000,4.000000,4.000000,,,,,,,,,,,,,,,,,,,,,,,,,,,,,,,,,,,,,
1577742496.618793,104.000000,0.000000,4085.128174,4284.615234,4054.871826,3999.487061,4075.384521,450.000000,4.000000,,,,0.000000,4.000000,4.000000,4.000000,4.000000,4.000000,52.000000,0.000000,0.191931,-0.133057,0.877930,0.417969,0.525887,-0.602548,0.590829,2.453773,-46.683628,60.209873,,,,,,,,,,,,,,,,,,,,,,,,,
1577742496.626689,105.000000,0.000000,4095.897461,4291.794922,4059.487061,4006.153809,4083.076904,450.000000,4.000000,,,,0.000000,4.000000,4.000000,4.000000,4.000000,4.000000,,,,,,,,,,,,,,,,,,,,,,,,,,,,,,,,,,,,,
1577742496.634486,106.000000,0.000000,4107.692383,4321.025879,4081.538574,4019.487061,4106.153809,450.000000,4.000000,,,,0.000000,4.000000,4.000000,4.000000,4.000000,4.000000,53.000000,0.000000,0.191931,-0.133057,0.877930,0.417969,0.525399,-0.596689,0.622080,-0.842188,-46.621048,60.409683,,,,,,,,,,,,,,,,,,,,,,,,,
1577742496.642383,107.000000,0.000000,4094.871826,4325.128418,4082.051270,4016.923096,4107.692383,16227.000000,4.000000,,,,0.000000,4.000000,4.000000,4.000000,4.000000,4.000000,,,,,,,,,,,,,25.895088,8.169779,3.172345,4.395938,4.798957,0.711884,1.665103,0.785109,1.749393,3.421829,3.946227,2.715708,2.401082,3.416413,3.822887,4.120472,4.462506,3.063221,4.889220,5.301032,12.471989,7.121242,2.730070,4.660726,4.898940
1577742496.650279,108.000000,0.000000,4098.974121,4300.512695,4086.153809,4026.666748,4113.846191,450.000000,4.000000,,,,0.000000,4.000000,4.000000,4.000000,4.000000,4.000000,54.000000,0.000000,0.191398,-0.133057,0.877930,0.418213,0.523445,-0.596201,0.601083,-3.688922,-46.684357,60.589512,,,,,,,,,,,,,,,,,,,,,,,,,
1577742496.658076,109.000000,0.000000,4106.666504,4283.589844,4095.384521,4028.205078,4114.358887,450.000000,4.000000,,,,0.000000,4.000000,4.000000,4.000000,4.000000,4.000000,,,,,,,,,,,,,,,,,,,,,,,,,,,,,,,,,,,,,
1577742496.665973,110.000000,0.000000,4098.461426,4297.948730,4096.922852,4015.384521,4101.025879,450.000000,4.000000,,,,0.000000,4.000000,4.000000,4.000000,4.000000,4.000000,55.000000,0.000000,0.191568,-0.132813,0.877930,0.418213,0.502449,-0.608408,0.601083,-2.422800,-46.681519,60.751358,,,,,,,,,,,,,,,,,,,,,,,,,
1577742496.673770,111.000000,0.000000,4089.743652,4297.948730,4095.897461,4010.769287,4091.794922,16227.000000,4.000000,,,,0.000000,4.000000,4.000000,4.000000,4.000000,4.000000,,,,,,,,,,,,,,,,,,,,,,,,,,,,,,,,,,,,,
1577742496.681566,112.000000,0.000000,4093.333252,4285.128418,4102.051270,4021.538574,4097.948730,450.000000,4.000000,,,,0.000000,4.000000,4.000000,4.000000,4.000000,4.000000,56.000000,0.000000,0.191568,-0.132813,0.877930,0.418213,0.512703,-0.601083,0.599130,1.528033,-46.678967,59.042744,,,,,,,,,,,,,,,,,,,,,,,,,
1577742496.689463,113.000000,0.000000,4104.615234,4289.230957,4109.743652,4032.820557,4107.179688,450.000000,4.000000,,,,0.000000,4.000000,4.000000,4.000000,4.000000,4.000000,,,,,,,,,,,,,,,,,,,,,,,,,,,,,,,,,,,,,
1577742496.697260,114.000000,0.000000,4094.358887,4281.538574,4096.410156,4020.512939,4092.307617,450.000000,4.000000,,,,0.000000,4.000000,4.000000,4.000000,4.000000,4.000000,57.000000,0.000000,0.191568,-0.132813,0.877930,0.418213,0.513680,-0.604990,0.606943,2.152829,-46.676670,59.299454,,,,,,,,,,,,,,,,,,,,,,,,,
1577742496.705156,115.000000,0.000000,4079.487061,4269.743652,4082.051270,4012.307617,4077.948730,16227.000000,4.000000,,,,0.000000,4.000000,4.000000,4.000000,4.000000,4.000000,,,,,,,,,,,,,,,,,,,,,,,,,,,,,,,,,,,,,
1577742496.712953,116.000000,0.000000,4085.128174,4285.128418,4076.923096,4004.615479,4081.538574,450.000000,4.000000,,,,0.000000,4.000000,4.000000,4.000000,4.000000,4.000000,58.000000,0.000000,0.191034,-0.132813,0.877930,0.418457,0.511727,-0.617685,0.607431,2.715146,-46.674599,59.650120,,,,,,,,,,,,,,,,,,,,,,,,,
1577742496.720850,117.000000,0.000000,4092.307617,4288.717773,4072.820557,3984.102539,4080.000000,450.000000,4.000000,,,,0.000000,4.000000,4.000000,4.000000,4.000000,4.000000,,,,,,,,,,,,,,,,,,,,,,,,,,,,,,,,,,,,,
1577742496.728647,118.000000,0.000000,4094.358887,4274.358887,4081.538574,4001.025635,4081.538574,450.000000,4.000000,,,,0.000000,4.000000,4.000000,4.000000,4.000000,4.000000,59.000000,0.000000,0.191568,-0.132813,0.877930,0.418213,0.512703,-0.600595,0.599130,-0.427506,-46.612923,59.846092,,,,,,,,,,,,,,,,,,,,,,,,,
1577742496.736543,119.000000,0.000000,4096.410156,4292.820313,4087.692383,4026.153809,4085.641113,16227.000000,4.000000,,,,0.000000,4.000000,4.000000,4.000000,4.000000,4.000000,,,,,,,,,,,,,,,,,,,,,,,,,,,,,,,,,,,,,
1577742496.744440,120.000000,0.000000,4086.153809,4320.512695,4070.769287,4004.615479,4069.230713,450.000000,4.000000,,,,0.000000,4.000000,4.000000,4.000000,4.000000,4.000000,60.000000,0.000000,0.191737,-0.132568,0.877930,0.418213,0.502449,-0.601083,0.598154,2.486382,-46.736862,60.022465,,,,,,,,,,,,,,,,,,,,,,,,,
1577742496.752237,121.000000,0.000000,4065.641113,4292.307617,4056.923096,3983.589844,4045.641113,450.000000,4.000000,,,,0.000000,4.000000,4.000000,4.000000,4.000000,4.000000,,,,,,,,,,,,,,,,,,,,,,,,,,,,,,,,,,,,,
1577742496.760033,122.000000,0.000000,4081.025635,4242.051270,4083.589844,4005.641113,4061.538574,450.000000,4.000000,,,,0.000000,4.000000,4.000000,4.000000,4.000000,4.000000,61.000000,0.000000,0.191568,-0.132813,0.877930,0.418213,0.507332,-0.596201,0.598642,3.134974,-46.788589,60.181202,,,,,,,,,,,,,,,,,,,,,,,,,
1577742496.767930,123.000000,0.000000,4106.153809,4260.512695,4110.769043,4023.589844,4091.794922,16227.000000,4.000000,,,,0.000000,4.000000,4.000000,4.000000,4.000000,4.000000,,,,,,,,,,,,,58.973663,14.438089,5.101149,5.084877,4.921828,0.702530,1.533466,0.974081,2.070393,3.485733,3.548302,3.487080,2.943039,3.947975,3.878979,4.467173,3.704382,3.359511,5.725980,5.467332,21.342834,8.414984,3.900322,5.560043,4.983408
1577742496.775727,124.000000,0.000000,4070.769287,4300.000000,4073.333252,3998.461426,4060.512939,450.000000,4.000000,,,,0.000000,4.000000,4.000000,4.000000,4.000000,4.000000,62.000000,0.000000,0.191737,-0.132568,0.877930,0.418213,0.532235,-0.620615,0.599130,3.599077,-46.775330,60.264248,,,,,,,,,,,,,,,,,,,,,,,,,
1577742496.783624,125.000000,0.000000,4034.871826,4299.487305,4032.307617,3994.871826,4023.076904,450.000000,4.000000,,,,0.000000,4.000000,4.000000,4.000000,4.000000,4.000000,,,,,,,,,,,,,,,,,,,,,,,,,,,,,,,,,,,,,
1577742496.791420,126.000000,0.000000,4069.230713,4283.077148,4058.974365,4029.743652,4056.923096,450.000000,4.000000,,,,0.000000,4.000000,4.000000,4.000000,4.000000,4.000000,63.000000,0.000000,0.191737,-0.132568,0.877930,0.418213,0.508797,-0.601083,0.593271,4.016769,-46.703579,60.398808,,,,,,,,,,,,,,,,,,,,,,,,,
1577742496.799317,127.000000,0.000000,4115.897461,4264.615234,4104.102539,4056.923096,4101.538574,236.000000,4.000000,,,,0.000000,4.000000,4.000000,4.000000,4.000000,4.000000,,,,,,,,,,,,,,,,,,,,,,,,,,,,,,,,,,,,,
1577742496.807214,0.000000,0.000000,4097.436035,4272.307617,4074.358887,4052.307617,4076.410156,450.000000,4.000000,,,,0.000000,4.000000,4.000000,4.000000,4.000000,4.000000,0.000000,0.000000,0.191737,-0.132568,0.877930,0.418213,0.525887,-0.610849,0.592294,4.452507,-46.818451,60.579723,,,,,,,,,,,,,,,,,,,,,,,,,
1577742496.815010,1.000000,0.000000,4056.923096,4284.102539,4021.538574,4041.538574,4038.974365,450.000000,4.000000,,,,0.000000,4.000000,4.000000,4.000000,4.000000,4.000000,,,,,,,,,,,,,,,,,,,,,,,,,,,,,,,,,,,,,
1577742496.822907,2.000000,0.000000,4065.641113,4247.179688,4041.538574,4032.307617,4057.435791,16214.000000,4.000000,,,,0.000000,4.000000,4.000000,4.000000,4.000000,4.000000,1.000000,0.000000,0.191906,-0.132324,0.877930,0.418213,0.506844,-0.618662,0.610361,7.775624,-46.742390,60.622917,,,,,,,,,,,,,,,,,,,,,,,,,
1577742496.830704,3.000000,0.000000,4101.538574,4215.897461,4103.077148,3986.153809,4092.307617,450.000000,4.000000,,,,0.000000,4.000000,4.000000,4.000000,4.000000,4.000000,,,,,,,,,,,,,,,,,,,,,,,,,,,,,,,,,,,,,
1577742496.838600,4.000000,0.000000,4118.974121,4250.769043,4130.256348,3935.897461,4108.717773,16233.000000,4.000000,,,,0.000000,4.000000,4.000000,4.000000,4.000000,4.000000,2.000000,0.000000,0.191320,-0.132324,0.878174,0.417969,0.520516,-0.607431,0.602548,6.818616,-46.793564,60.841240,,,,,,,,,,,,,,,,,,,,,,,,,
1577742496.846397,5.000000,0.000000,4125.641113,4243.589844,4133.333496,3977.435791,4126.666504,450.000000,4.000000,,,,0.000000,4.000000,4.000000,4.000000,4.000000,4.000000,,,,,,,,,,,,,,,,,,,,,,,,,,,,,,,,,,,,,
1577742496.854294,6.000000,0.000000,4113.333496,4113.846191,4129.230957,4001.025635,4137.436035,16147.000000,4.000000,,,,0.000000,4.000000,4.000000,4.000000,4.000000,4.000000,3.000000,0.000000,0.192383,-0.132324,0.878174,0.417480,0.522957,-0.613291,0.607919,9.845307,-46.779804,60.977913,,,,,,,,,,,,,,,,,,,,,,,,,
1577742496.862091,7.000000,0.000000,4129.230957,4070.256348,4155.384766,3897.948730,4172.820313,450.000000,4.000000,,,,0.000000,4.000000,4.000000,4.000000,4.000000,4.000000,,,,,,,,,,,,,,,,,,,,,,,,,,,,,,,,,,,,,
1577742496.869987,8.000000,0.000000,4094.871826,4268.717773,4134.871582,3897.435791,4155.897461,450.000000,4.000000,,,,0.000000,4.000000,4.000000,4.000000,4.000000,4.000000,4.000000,0.000000,0.191797,-0.132324,0.878418,0.417236,0.517586,-0.610849,0.609873,11.731914,-46.767422,61.220551,,,,,,,,,,,,,,,,,,,,,,,,,
1577742496.877784,9.000000,0.000000,3940.000000,4324.102539,3949.230713,4056.410156,3996.923096,16191.000000,4.000000,,,,0.000000,4.000000,4.000000,4.000000,4.000000,4.000000,,,,,,,,,,,,,,,,,,,,,,,,,,,,,,,,,,,,,
