title:009, start timestamp:2019-12-31T00:48:51.229518+03:00, stop timestamp:2019-12-31T00:49:22.178944+03:00, headset type:INSIGHT, headset serial:A2D200FB, headset firmware:930, subject name:Qasim, channels:56, sampling rate:eeg_128;mot_64;pow_8, samples:3971      , version:2.0
Timestamp,EEG.Counter,EEG.Interpolated,EEG.AF3,EEG.T7,EEG.Pz,EEG.T8,EEG.AF4,EEG.RawCq,EEG.Battery,MarkerIndex,MarkerType,MarkerValueInt,EEG.MarkerHardware,CQ.AF3,CQ.T7,CQ.Pz,CQ.T8,CQ.AF4,MOT.CounterMems,MOT.InterpolatedMems,MOT.Q0,MOT.Q1,MOT.Q2,MOT.Q3,MOT.AccX,MOT.AccY,MOT.AccZ,MOT.MagX,MOT.MagY,MOT.MagZ,POW.AF3.Theta,POW.AF3.Alpha,POW.AF3.BetaL,POW.AF3.BetaH,POW.AF3.Gamma,POW.T7.Theta,POW.T7.Alpha,POW.T7.BetaL,POW.T7.BetaH,POW.T7.Gamma,POW.Pz.Theta,POW.Pz.Alpha,POW.Pz.BetaL,POW.Pz.BetaH,POW.Pz.Gamma,POW.T8.Theta,POW.T8.Alpha,POW.T8.BetaL,POW.T8.BetaH,POW.T8.Gamma,POW.AF4.Theta,POW.AF4.Alpha,POW.AF4.BetaL,POW.AF4.BetaH,POW.AF4.Gamma
1577742531.229518,65.000000,0.000000,4215.897461,4332.307617,4188.717773,4142.051270,4240.000000,450.000000,4.000000,,,,0.000000,4.000000,4.000000,4.000000,4.000000,4.000000,,,,,,,,,,,,,,,,,,,,,,,,,,,,,,,,,,,,,
1577742531.237414,66.000000,0.000000,4205.641113,4327.179688,4187.692383,4143.077148,4226.153809,16213.000000,4.000000,,,,0.000000,4.000000,4.000000,4.000000,4.000000,4.000000,33.000000,0.000000,0.171715,-0.188965,0.874512,0.412354,0.523934,-0.577157,0.621592,16.482395,-47.299313,59.057236,,,,,,,,,,,,,,,,,,,,,,,,,
1577742531.245210,67.000000,0.000000,4176.410156,4309.743652,4173.846191,4126.666504,4199.487305,450.000000,4.000000,,,,0.000000,4.000000,4.000000,4.000000,4.000000,4.000000,,,,,,,,,,,,,,,,,,,,,,,,,,,,,,,,,,,,,
1577742531.253107,68.000000,0.000000,4163.077148,4313.333496,4165.641113,4110.769043,4186.153809,16237.000000,4.000000,,,,0.000000,4.000000,4.000000,4.000000,4.000000,4.000000,34.000000,0.000000,0.172954,-0.188965,0.874268,0.412354,0.514656,-0.582040,0.633310,11.783571,-47.234982,59.432125,,,,,,,,,,,,,,,,,,,,,,,,,
1577742531.260903,69.000000,0.000000,4188.205078,4328.205078,4180.000000,4132.307617,4212.820313,450.000000,4.000000,,,,0.000000,4.000000,4.000000,4.000000,4.000000,4.000000,,,,,,,,,,,,,,,,,,,,,,,,,,,,,,,,,,,,,
1577742531.268800,70.000000,0.000000,4216.922852,4333.333496,4202.051270,4164.102539,4245.128418,16150.000000,4.000000,,,,0.000000,4.000000,4.000000,4.000000,4.000000,4.000000,35.000000,0.000000,0.172954,-0.188965,0.874268,0.412354,0.521004,-0.585458,0.631846,14.373583,-47.236897,59.649895,,,,,,,,,,,,,,,,,,,,,,,,,
1577742531.276596,71.000000,0.000000,4208.205078,4333.846191,4194.871582,4154.871582,4235.897461,450.000000,4.000000,,,,0.000000,4.000000,4.000000,4.000000,4.000000,4.000000,,,,,,,,,,,,,,,,,,,,,,,,,,,,,,,,,,,,,
1577742531.284493,72.000000,0.000000,4220.000000,4339.487305,4201.025879,4161.538574,4243.077148,450.000000,4.000000,,,,0.000000,4.000000,4.000000,4.000000,4.000000,4.000000,36.000000,0.000000,0.172371,-0.188965,0.874268,0.412598,0.517586,-0.588876,0.633799,13.893270,-47.059174,59.965519,,,,,,,,,,,,,,,,,,,,,,,,,
1577742531.292289,73.000000,0.000000,4230.256348,4333.846191,4204.615234,4168.717773,4253.333496,16195.000000,4.000000,,,,0.000000,4.000000,4.000000,4.000000,4.000000,4.000000,,,,,,,,,,,,,,,,,,,,,,,,,,,,,,,,,,,,,
1577742531.300186,74.000000,0.000000,4195.384766,4320.000000,4178.461426,4133.333496,4222.051270,450.000000,4.000000,,,,0.000000,4.000000,4.000000,4.000000,4.000000,4.000000,37.000000,0.000000,0.172371,-0.188965,0.874268,0.412598,0.542000,-0.557137,0.621592,9.513175,-47.018856,60.129951,,,,,,,,,,,,,,,,,,,,,,,,,
1577742531.307982,75.000000,0.000000,4195.384766,4320.000000,4181.025879,4138.974121,4221.025879,16204.000000,4.000000,,,,0.000000,4.000000,4.000000,4.000000,4.000000,4.000000,,,,,,,,,,,,,8.392354,14.572426,9.976906,4.067191,4.558527,1.259363,3.425002,2.654078,1.197480,2.401382,8.661372,7.535266,6.962408,3.855628,3.699136,12.243947,15.591753,8.646329,3.903286,4.515400,9.615232,20.074396,8.493059,4.723034,4.667068
1577742531.315879,76.000000,0.000000,4223.077148,4326.153809,4194.358887,4170.769043,4243.077148,450.000000,4.000000,,,,0.000000,4.000000,4.000000,4.000000,4.000000,4.000000,38.000000,0.000000,0.172756,-0.189209,0.874023,0.412842,0.535164,-0.581064,0.630869,9.399273,-46.922752,58.304031,,,,,,,,,,,,,,,,,,,,,,,,,
1577742531.323675,77.000000,0.000000,4207.179688,4317.948730,4167.692383,4147.179688,4215.384766,450.000000,4.000000,,,,0.000000,4.000000,4.000000,4.000000,4.000000,4.000000,,,,,,,,,,,,,,,,,,,,,,,,,,,,,,,,,,,,,
1577742531.331372,78.000000,0.000000,4192.307617,4315.897461,4157.436035,4129.743652,4195.897461,450.000000,4.000000,,,,0.000000,4.000000,4.000000,4.000000,4.000000,4.000000,39.000000,0.000000,0.172488,-0.189453,0.874023,0.412842,0.520027,-0.562020,0.618662,9.236945,-47.015705,58.754242,,,,,,,,,,,,,,,,,,,,,,,,,
1577742531.339168,79.000000,0.000000,4228.717773,4332.820313,4190.769043,4170.769043,4236.922852,16204.000000,4.000000,,,,0.000000,4.000000,4.000000,4.000000,4.000000,4.000000,,,,,,,,,,,,,,,,,,,,,,,,,,,,,,,,,,,,,
1577742531.346865,80.000000,0.000000,4223.077148,4310.256348,4174.871582,4165.128418,4233.846191,450.000000,4.000000,,,,0.000000,4.000000,4.000000,4.000000,4.000000,4.000000,40.000000,0.000000,0.173139,-0.189453,0.873779,0.413086,0.529305,-0.571786,0.615732,5.382298,-47.099365,59.099613,,,,,,,,,,,,,,,,,,,,,,,,,
1577742531.354662,81.000000,0.000000,4160.512695,4278.461426,4117.948730,4095.897461,4177.948730,450.000000,4.000000,,,,0.000000,4.000000,4.000000,4.000000,4.000000,4.000000,,,,,,,,,,,,,,,,,,,,,,,,,,,,,,,,,,,,,
1577742531.362358,82.000000,0.000000,4177.436035,4318.974121,4143.589844,4102.051270,4194.358887,450.000000,4.000000,,,,0.000000,4.000000,4.000000,4.000000,4.000000,4.000000,41.000000,0.000000,0.172287,-0.189697,0.873779,0.413330,0.532723,-0.565438,0.623545,7.715205,-46.995213,59.231007,,,,,,,,,,,,,,,,,,,,,,,,,
1577742531.370155,83.000000,0.000000,4248.717773,4354.358887,4207.179688,4166.153809,4249.743652,16204.000000,4.000000,,,,0.000000,4.000000,4.000000,4.000000,4.000000,4.000000,,,,,,,,,,,,,,,,,,,,,,,,,,,,,,,,,,,,,
1577742531.377851,84.000000,0.000000,4258.974121,4313.333496,4207.692383,4170.256348,4251.794922,450.000000,4.000000,,,,0.000000,4.000000,4.000000,4.000000,4.000000,4.000000,42.000000,0.000000,0.172018,-0.189941,0.873779,0.413330,0.537606,-0.576669,0.615732,4.072547,-46.781845,59.468887,,,,,,,,,,,,,,,,,,,,,,,,,
1577742531.385648,85.000000,0.000000,4230.769043,4298.974121,4184.102539,4137.436035,4228.717773,450.000000,4.000000,,,,0.000000,4.000000,4.000000,4.000000,4.000000,4.000000,,,,,,,,,,,,,,,,,,,,,,,,,,,,,,,,,,,,,
1577742531.393344,86.000000,0.000000,4237.436035,4342.563965,4192.820313,4143.077148,4234.871582,450.000000,4.000000,,,,0.000000,4.000000,4.000000,4.000000,4.000000,4.000000,43.000000,0.000000,0.172018,-0.189941,0.873779,0.413330,0.538094,-0.583993,0.633799,4.383077,-46.709442,59.742798,,,,,,,,,,,,,,,,,,,,,,,,,
1577742531.401141,87.000000,0.000000,4264.102539,4350.256348,4202.563965,4168.205078,4256.410156,16204.000000,4.000000,,,,0.000000,4.000000,4.000000,4.000000,4.000000,4.000000,,,,,,,,,,,,,,,,,,,,,,,,,,,,,,,,,,,,,
1577742531.408838,88.000000,0.000000,4256.922852,4316.922852,4183.077148,4164.102539,4247.179688,450.000000,4.000000,,,,0.000000,4.000000,4.000000,4.000000,4.000000,4.000000,44.000000,0.000000,0.172604,-0.189941,0.873779,0.413086,0.518563,-0.585458,0.635264,1.013816,-46.704098,59.929501,,,,,,,,,,,,,,,,,,,,,,,,,
1577742531.416634,89.000000,0.000000,4233.846191,4306.666504,4169.230957,4149.743652,4235.384766,450.000000,4.000000,,,,0.000000,4.000000,4.000000,4.000000,4.000000,4.000000,,,,,,,,,,,,,,,,,,,,,,,,,,,,,,,,,,,,,
1577742531.424331,90.000000,0.000000,4223.077148,4314.871582,4170.256348,4138.974121,4225.641113,450.000000,4.000000,,,,0.000000,4.000000,4.000000,4.000000,4.000000,4.000000,45.000000,0.000000,0.171950,-0.189941,0.874023,0.412842,0.521004,-0.572274,0.635752,4.680803,-46.699284,60.276978,,,,,,,,,,,,,,,,,,,,,,,,,
1577742531.432227,91.000000,0.000000,4214.871582,4313.846191,4169.230957,4121.025879,4205.128418,16204.000000,4.000000,,,,0.000000,4.000000,4.000000,4.000000,4.000000,4.000000,,,,,,,,,,,,,8.582672,13.021339,10.280045,4.374802,4.542960,1.243788,3.054820,2.615468,1.575347,2.402908,8.322402,6.743493,6.807743,3.933349,3.689975,12.203574,14.593725,8.833324,4.198604,4.558996,10.362226,18.053490,9.000810,5.065068,4.654593
1577742531.440024,92.000000,0.000000,4221.025879,4318.461426,4177.948730,4118.974121,4207.179688,450.000000,4.000000,,,,0.000000,4.000000,4.000000,4.000000,4.000000,4.000000,46.000000,0.000000,0.172535,-0.189941,0.874023,0.412598,0.504891,-0.564950,0.643076,4.930507,-46.635139,60.470078,,,,,,,,,,,,,,,,,,,,,,,,,
1577742531.447820,93.000000,0.000000,4233.846191,4320.000000,4191.282227,4133.333496,4218.974121,450.000000,4.000000,,,,0.000000,4.000000,4.000000,4.000000,4.000000,4.000000,,,,,,,,,,,,,,,,,,,,,,,,,,,,,,,,,,,,,
1577742531.455517,94.000000,0.000000,4243.077148,4317.948730,4202.051270,4151.282227,4226.666504,450.000000,4.000000,,,,0.000000,4.000000,4.000000,4.000000,4.000000,4.000000,47.000000,0.000000,0.171881,-0.189941,0.874268,0.412354,0.513680,-0.570321,0.637705,5.274871,-46.816669,60.703686,,,,,,,,,,,,,,,,,,,,,,,,,
1577742531.463313,95.000000,0.000000,4229.743652,4322.563965,4189.743652,4145.128418,4211.794922,16204.000000,4.000000,,,,0.000000,4.000000,4.000000,4.000000,4.000000,4.000000,,,,,,,,,,,,,,,,,,,,,,,,,,,,,,,,,,,,,
1577742531.471010,96.000000,0.000000,4184.102539,4296.922852,4142.563965,4096.922852,4157.436035,450.000000,4.000000,,,,0.000000,4.000000,4.000000,4.000000,4.000000,4.000000,48.000000,0.000000,0.171950,-0.189941,0.874023,0.412842,0.521004,-0.572274,0.635752,5.704430,-46.860416,60.854115,,,,,,,,,,,,,,,,,,,,,,,,,
1577742531.478807,97.000000,0.000000,4177.436035,4288.205078,4131.794922,4084.615479,4143.589844,450.000000,4.000000,,,,0.000000,4.000000,4.000000,4.000000,4.000000,4.000000,,,,,,,,,,,,,,,,,,,,,,,,,,,,,,,,,,,,,
1577742531.486503,98.000000,0.000000,4225.128418,4338.461426,4177.436035,4135.384766,4194.358887,450.000000,4.000000,,,,0.000000,4.000000,4.000000,4.000000,4.000000,4.000000,49.000000,0.000000,0.171881,-0.189941,0.874268,0.412354,0.513680,-0.570321,0.637705,5.971402,-47.019421,61.049316,,,,,,,,,,,,,,,,,,,,,,,,,
1577742531.494300,99.000000,0.000000,4214.358887,4334.871582,4171.794922,4126.666504,4189.230957,16204.000000,4.000000,,,,0.000000,4.000000,4.000000,4.000000,4.000000,4.000000,,,,,,,,,,,,,,,,,,,,,,,,,,,,,,,,,,,,,
1577742531.501996,100.000000,0.000000,4169.743652,4289.230957,4134.358887,4077.948730,4143.589844,450.000000,4.000000,,,,0.000000,4.000000,4.000000,4.000000,4.000000,4.000000,50.000000,0.000000,0.172196,-0.190186,0.874268,0.412109,0.526375,-0.568856,0.631846,6.271492,-46.983078,61.105366,,,,,,,,,,,,,,,,,,,,,,,,,
1577742531.509893,101.000000,0.000000,4223.077148,4328.205078,4180.512695,4127.179688,4196.922852,450.000000,4.000000,,,,0.000000,4.000000,4.000000,4.000000,4.000000,4.000000,,,,,,,,,,,,,,,,,,,,,,,,,,,,,,,,,,,,,
1577742531.517689,102.000000,0.000000,4287.179688,4369.743652,4229.230957,4186.153809,4270.256348,450.000000,4.000000,,,,0.000000,4.000000,4.000000,4.000000,4.000000,4.000000,51.000000,0.000000,0.172779,-0.190186,0.874268,0.411865,0.540047,-0.560555,0.633310,9.293080,-47.010181,61.335258,,,,,,,,,,,,,,,,,,,,,,,,,
1577742531.525486,103.000000,0.000000,4244.102539,4308.717773,4183.077148,4137.436035,4228.717773,16204.000000,4.000000,,,,0.000000,4.000000,4.000000,4.000000,4.000000,4.000000,,,,,,,,,,,,,,,,,,,,,,,,,,,,,,,,,,,,,
1577742531.533182,104.000000,0.000000,4188.717773,4264.615234,4132.307617,4084.102539,4165.641113,450.000000,4.000000,,,,0.000000,4.000000,4.000000,4.000000,4.000000,4.000000,52.000000,0.000000,0.173092,-0.190430,0.874268,0.411621,0.532235,-0.547860,0.622568,9.201187,-47.154209,61.482346,,,,,,,,,,,,,,,,,,,,,,,,,
1577742531.541079,105.000000,0.000000,4201.025879,4309.230957,4142.563965,4109.230957,4181.025879,450.000000,4.000000,,,,0.000000,4.000000,4.000000,4.000000,4.000000,4.000000,,,,,,,,,,,,,,,,,,,,,,,,,,,,,,,,,,,,,
1577742531.548875,106.000000,0.000000,4259.487305,4353.333496,4189.743652,4180.000000,4245.128418,450.000000,4.000000,,,,0.000000,4.000000,4.000000,4.000000,4.000000,4.000000,53.000000,0.000000,0.172168,-0.190674,0.874512,0.411377,0.533211,-0.536629,0.621103,5.350116,-47.104385,61.495094,,,,,,,,,,,,,,,,,,,,,,,,,
1577742531.556572,107.000000,0.000000,4282.051270,4340.000000,4204.615234,4208.717773,4263.589844,16204.000000,4.000000,,,,0.000000,4.000000,4.000000,4.000000,4.000000,4.000000,,,,,,,,,,,,,8.489190,10.570602,10.268263,4.743687,4.374711,1.260020,2.551658,2.367742,2.035289,2.373409,7.772725,5.668595,6.562657,4.088411,3.593390,11.930436,12.386521,8.899325,4.598752,4.524214,10.482683,14.555130,9.516929,5.435751,4.488379
1577742531.564369,108.000000,0.000000,4241.538574,4306.666504,4168.717773,4160.512695,4222.563965,450.000000,4.000000,,,,0.000000,4.000000,4.000000,4.000000,4.000000,4.000000,54.000000,0.000000,0.173134,-0.190918,0.874268,0.411377,0.532723,-0.546395,0.630869,5.532889,-47.119362,61.386936,,,,,,,,,,,,,,,,,,,,,,,,,
1577742531.572065,109.000000,0.000000,4231.794922,4314.358887,4162.051270,4136.410156,4207.179688,450.000000,4.000000,,,,0.000000,4.000000,4.000000,4.000000,4.000000,4.000000,,,,,,,,,,,,,,,,,,,,,,,,,,,,,,,,,,,,,
1577742531.579862,110.000000,0.000000,4257.948730,4341.025879,4186.666504,4161.025879,4225.641113,450.000000,4.000000,,,,0.000000,4.000000,4.000000,4.000000,4.000000,4.000000,55.000000,0.000000,0.172594,-0.191406,0.874268,0.411377,0.526375,-0.515145,0.647959,1.929016,-47.013210,61.528858,,,,,,,,,,,,,,,,,,,,,,,,,
1577742531.587558,111.000000,0.000000,4250.769043,4333.333496,4173.333496,4152.307617,4222.051270,16204.000000,4.000000,,,,0.000000,4.000000,4.000000,4.000000,4.000000,4.000000,,,,,,,,,,,,,,,,,,,,,,,,,,,,,,,,,,,,,
1577742531.595355,112.000000,0.000000,4218.974121,4295.384766,4128.205078,4105.128418,4190.256348,450.000000,4.000000,,,,0.000000,4.000000,4.000000,4.000000,4.000000,4.000000,56.000000,0.000000,0.171739,-0.191650,0.874268,0.411621,0.526864,-0.538094,0.638193,1.616484,-47.276562,61.536953,,,,,,,,,,,,,,,,,,,,,,,,,
1577742531.603051,113.000000,0.000000,4250.256348,4311.282227,4136.922852,4113.846191,4217.436035,450.000000,4.000000,,,,0.000000,4.000000,4.000000,4.000000,4.000000,4.000000,,,,,,,,,,,,,,,,,,,,,,,,,,,,,,,,,,,,,
1577742531.610848,114.000000,0.000000,4292.820313,4343.077148,4157.948730,4144.102539,4258.461426,450.000000,4.000000,,,,0.000000,4.000000,4.000000,4.000000,4.000000,4.000000,57.000000,0.000000,0.172395,-0.191650,0.874023,0.411865,0.531746,-0.540047,0.633310,-1.595748,-47.154690,61.484425,,,,,,,,,,,,,,,,,,,,,,,,,
1577742531.618545,115.000000,0.000000,4259.487305,4300.000000,4098.461426,4078.974365,4202.051270,16204.000000,4.000000,,,,0.000000,4.000000,4.000000,4.000000,4.000000,4.000000,,,,,,,,,,,,,,,,,,,,,,,,,,,,,,,,,,,,,
1577742531.626341,116.000000,0.000000,4301.538574,4298.461426,4083.589844,4048.718018,4203.077148,450.000000,4.000000,,,,0.000000,4.000000,4.000000,4.000000,4.000000,4.000000,58.000000,0.000000,0.171811,-0.191650,0.874023,0.412109,0.525887,-0.550790,0.647959,-0.658574,-47.224449,61.556782,,,,,,,,,,,,,,,,,,,,,,,,,
1577742531.634038,117.000000,0.000000,4476.922852,4372.820313,4178.461426,4152.307617,4339.487305,450.000000,4.000000,,,,0.000000,4.000000,4.000000,4.000000,4.000000,4.000000,,,,,,,,,,,,,,,,,,,,,,,,,,,,,,,,,,,,,
1577742531.641834,118.000000,0.000000,4588.717773,4365.641113,4224.102539,4212.307617,4422.563965,450.000000,4.000000,,,,0.000000,4.000000,4.000000,4.000000,4.000000,4.000000,59.000000,0.000000,0.171881,-0.191650,0.873779,0.412598,0.536141,-0.557626,0.628916,-3.523669,-47.107788,61.681717,,,,,,,,,,,,,,,,,,,,,,,,,
1577742531.649531,119.000000,0.000000,4589.743652,4306.153809,4178.974121,4155.384766,4395.384766,16204.000000,4.000000,,,,0.000000,4.000000,4.000000,4.000000,4.000000,4.000000,,,,,,,,,,,,,,,,,,,,,,,,,,,,,,,,,,,,,
1577742531.657327,120.000000,0.000000,4630.769043,4331.794922,4176.922852,4135.384766,4397.436035,450.000000,4.000000,,,,0.000000,4.000000,4.000000,4.000000,4.000000,4.000000,60.000000,0.000000,0.171566,-0.191406,0.873779,0.412842,0.544442,-0.557626,0.629892,-3.410564,-47.182240,61.674526,,,,,,,,,,,,,,,,,,,,,,,,,
1577742531.665024,121.000000,0.000000,4700.000000,4373.846191,4217.948730,4171.794922,4437.436035,450.000000,4.000000,,,,0.000000,4.000000,4.000000,4.000000,4.000000,4.000000,,,,,,,,,,,,,,,,,,,,,,,,,,,,,,,,,,,,,
1577742531.672921,122.000000,0.000000,4669.743652,4336.410156,4187.692383,4137.948730,4395.384766,450.000000,4.000000,,,,0.000000,4.000000,4.000000,4.000000,4.000000,4.000000,61.000000,0.000000,0.171251,-0.191162,0.873779,0.413086,0.535653,-0.571298,0.632822,-6.000460,-47.309059,59.753967,,,,,,,,,,,,,,,,,,,,,,,,,
1577742531.680717,123.000000,0.000000,4606.153809,4310.769043,4142.563965,4094.871826,4334.871582,16204.000000,4.000000,,,,0.000000,4.000000,4.000000,4.000000,4.000000,4.000000,,,,,,,,,,,,,7.801574,7.823355,9.757119,5.224704,4.156792,1.279782,2.026369,1.939320,2.481431,2.337025,6.873660,4.478081,6.183363,4.401192,3.477900,11.190166,9.513453,8.591860,5.125594,4.481471,9.740534,10.574967,9.740031,5.878111,4.263927
1577742531.688613,124.000000,0.000000,4600.512695,4332.307617,4162.563965,4123.589844,4343.589844,450.000000,4.000000,,,,0.000000,4.000000,4.000000,4.000000,4.000000,4.000000,62.000000,0.000000,0.171206,-0.190674,0.873779,0.413330,0.547860,-0.582528,0.618173,-4.562999,-47.363384,59.939552,,,,,,,,,,,,,,,,,,,,,,,,,
1577742531.696410,125.000000,0.000000,4586.153809,4340.512695,4181.025879,4146.666504,4344.615234,450.000000,4.000000,,,,0.000000,4.000000,4.000000,4.000000,4.000000,4.000000,,,,,,,,,,,,,,,,,,,,,,,,,,,,,,,,,,,,,
1577742531.704306,126.000000,0.000000,4521.025879,4333.333496,4158.461426,4122.563965,4297.948730,450.000000,4.000000,,,,0.000000,4.000000,4.000000,4.000000,4.000000,4.000000,63.000000,0.000000,0.171045,-0.189697,0.874023,0.413330,0.543465,-0.559579,0.620615,-0.457962,-47.352459,58.132671,,,,,,,,,,,,,,,,,,,,,,,,,
1577742531.712103,127.000000,0.000000,4464.102539,4329.743652,4144.102539,4104.102539,4261.538574,236.000000,4.000000,,,,0.000000,4.000000,4.000000,4.000000,4.000000,4.000000,,,,,,,,,,,,,,,,,,,,,,,,,,,,,,,,,,,,,
1577742531.719999,0.000000,0.000000,4425.128418,4312.820313,4135.897461,4090.769287,4244.615234,450.000000,4.000000,,,,0.000000,4.000000,4.000000,4.000000,4.000000,4.000000,0.000000,0.000000,0.170877,-0.188721,0.874268,0.413330,0.534676,-0.586923,0.626474,0.425249,-47.222996,58.420574,,,,,,,,,,,,,,,,,,,,,,,,,
1577742531.727796,1.000000,0.000000,4376.410156,4298.461426,4111.282227,4066.666748,4215.384766,450.000000,4.000000,,,,0.000000,4.000000,4.000000,4.000000,4.000000,4.000000,,,,,,,,,,,,,,,,,,,,,,,,,,,,,,,,,,,,,
1577742531.735692,2.000000,0.000000,4346.153809,4316.922852,4105.641113,4067.179443,4199.487305,16213.000000,4.000000,,,,0.000000,4.000000,4.000000,4.000000,4.000000,4.000000,1.000000,0.000000,0.170703,-0.187744,0.874512,0.413330,0.499519,-0.595224,0.629404,-2.608044,-47.405556,58.679684,,,,,,,,,,,,,,,,,,,,,,,,,
1577742531.743489,3.000000,0.000000,4350.256348,4334.358887,4130.769043,4090.769287,4215.897461,450.000000,4.000000,,,,0.000000,4.000000,4.000000,4.000000,4.000000,4.000000,,,,,,,,,,,,,,,,,,,,,,,,,,,,,,,,,,,,,
1577742531.751285,4.000000,0.000000,4350.256348,4334.871582,4155.897461,4112.820313,4231.794922,16233.000000,4.000000,,,,0.000000,4.000000,4.000000,4.000000,4.000000,4.000000,2.000000,0.000000,0.171505,-0.187012,0.874512,0.413330,0.505379,-0.606455,0.621103,-1.509824,-47.390415,59.092327,,,,,,,,,,,,,,,,,,,,,,,,,
1577742531.759082,5.000000,0.000000,4349.743652,4346.153809,4183.077148,4143.589844,4246.666504,450.000000,4.000000,,,,0.000000,4.000000,4.000000,4.000000,4.000000,4.000000,,,,,,,,,,,,,,,,,,,,,,,,,,,,,,,,,,,,,
1577742531.766779,6.000000,0.000000,4352.307617,4362.563965,4202.563965,4167.692383,4254.871582,16150.000000,4.000000,,,,0.000000,4.000000,4.000000,4.000000,4.000000,4.000000,3.000000,0.000000,0.170791,-0.186523,0.874756,0.413330,0.497566,-0.599619,0.625498,-0.521427,-47.257156,59.284264,,,,,,,,,,,,,,,,,,,,,,,,,
1577742531.774575,7.000000,0.000000,4320.000000,4348.717773,4181.025879,4147.179688,4225.641113,450.000000,4.000000,,,,0.000000,4.000000,4.000000,4.000000,4.000000,4.000000,,,,,,,,,,,,,,,,,,,,,,,,,,,,,,,,,,,,,
1577742531.782272,8.000000,0.000000,4282.051270,4315.897461,4158.461426,4125.641113,4196.410156,450.000000,4.000000,,,,0.000000,4.000000,4.000000,4.000000,4.000000,4.000000,4.000000,0.000000,0.170466,-0.186279,0.874756,0.413574,0.520027,-0.595224,0.631357,0.308316,-47.256855,59.516819,,,,,,,,,,,,,,,,,,,,,,,,,
1577742531.790068,9.000000,0.000000,4273.846191,4322.051270,4161.538574,4130.256348,4195.384766,16195.000000,4.000000,,,,0.000000,4.000000,4.000000,4.000000,4.000000,4.000000,,,,,,,,,,,,,,,,,,,,,,,,,,,,,,,,,,,,,
1577742531.797765,10.000000,0.000000,4243.077148,4346.666504,4141.025879,4104.102539,4170.256348,450.000000,4.000000,,,,0.000000,4.000000,4.000000,4.000000,4.000000,4.000000,5.000000,0.000000,0.170732,-0.186035,0.874756,0.413574,0.512215,-0.593759,0.614755,1.234530,-47.136951,59.845749,,,,,,,,,,,,,,,,,,,,,,,,,
1577742531.805561,11.000000,0.000000,4210.769043,4346.153809,4127.179688,4076.410156,4135.897461,16203.000000,4.000000,,,,0.000000,4.000000,4.000000,4.000000,4.000000,4.000000,,,,,,,,,,,,,7.004296,5.598893,8.820458,5.778960,4.054050,1.328863,1.588401,1.425762,2.805621,2.370198,5.818621,3.448008,5.781970,4.840905,3.445555,9.953712,6.783110,7.915367,5.722672,4.547992,8.598999,7.262403,9.554858,6.352880,4.138582
1577742531.813258,12.000000,0.000000,4231.282227,4342.051270,4158.461426,4105.128418,4154.871582,450.000000,4.000000,,,,0.000000,4.000000,4.000000,4.000000,4.000000,4.000000,6.000000,0.000000,0.171978,-0.186035,0.874512,0.413574,0.529793,-0.579599,0.608408,4.759814,-46.969223,58.048252,,,,,,,,,,,,,,,,,,,,,,,,,
1577742531.821055,13.000000,0.000000,4214.871582,4332.307617,4150.769043,4105.128418,4150.256348,450.000000,4.000000,,,,0.000000,4.000000,4.000000,4.000000,4.000000,4.000000,,,,,,,,,,,,,,,,,,,,,,,,,,,,,,,,,,,,,
1577742531.828751,14.000000,0.000000,4151.794922,4308.205078,4107.179688,4058.461426,4095.384521,450.000000,4.000000,,,,0.000000,4.000000,4.000000,4.000000,4.000000,4.000000,7.000000,0.000000,0.171978,-0.186035,0.874512,0.413574,0.533211,-0.585946,0.609873,5.181063,-46.937901,56.550133,,,,,,,,,,,,,,,,,,,,,,,,,
1577742531.836648,15.000000,0.000000,4169.743652,4316.410156,4130.256348,4085.128174,4110.256348,16203.000000,4.000000,,,,0.000000,4.000000,4.000000,4.000000,4.000000,4.000000,,,,,,,,,,,,,,,,,,,,,,,,,,,,,,,,,,,,,
1577742531.844444,16.000000,0.000000,4218.974121,4346.153809,4169.230957,4142.563965,4160.512695,0.000000,4.000000,,,,0.000000,4.000000,4.000000,4.000000,4.000000,4.000000,8.000000,0.000000,0.171390,-0.186035,0.874512,0.413818,0.542489,-0.565927,0.606455,5.620003,-47.089157,55.261639,,,,,,,,,,,,,,,,,,,,,,,,,
1577742531.852341,17.000000,0.000000,4200.000000,4343.589844,4149.743652,4133.846191,4146.666504,0.000000,4.000000,,,,0.000000,4.000000,4.000000,4.000000,4.000000,4.000000,,,,,,,,,,,,,,,,,,,,,,,,,,,,,,,,,,,,,
1577742531.860137,18.000000,0.000000,4177.948730,4333.333496,4133.333496,4113.846191,4128.205078,0.000000,4.000000,,,,0.000000,4.000000,4.000000,4.000000,4.000000,4.000000,9.000000,0.000000,0.171390,-0.186035,0.874512,0.413818,0.539071,-0.577157,0.618173,8.766555,-47.105656,55.836643,,,,,,,,,,,,,,,,,,,,,,,,,
1577742531.868033,19.000000,0.000000,4181.538574,4327.692383,4142.563965,4114.871582,4133.333496,0.000000,4.000000,,,,0.000000,4.000000,4.000000,4.000000,4.000000,4.000000,,,,,,,,,,,,,,,,,,,,,,,,,,,,,,,,,,,,,
1577742531.875830,20.000000,0.000000,4159.487305,4312.307617,4134.871582,4091.794922,4109.230957,0.000000,4.000000,,,,0.000000,4.000000,4.000000,4.000000,4.000000,4.000000,10.000000,0.000000,0.172045,-0.186035,0.874268,0.414063,0.534188,-0.572763,0.623545,4.958947,-47.000870,56.413963,,,,,,,,,,,,,,,,,,,,,,,,,
1577742531.883726,21.000000,0.000000,4147.692383,4333.333496,4123.589844,4073.846191,4089.230713,0.000000,4.000000,,,,0.000000,4.000000,4.000000,4.000000,4.000000,4.000000,,,,,,,,,,,,,,,,,,,,,,,,,,,,,,,,,,,,,
1577742531.891523,22.000000,0.000000,4155.897461,4357.436035,4120.512695,4083.076904,4095.897461,0.000000,4.000000,,,,0.000000,4.000000,4.000000,4.000000,4.000000,4.000000,11.000000,0.000000,0.170865,-0.186035,0.874268,0.414551,0.540536,-0.577157,0.620615,7.334190,-46.966385,56.993362,,,,,,,,,,,,,,,,,,,,,,,,,
1577742531.899419,23.000000,0.000000,4158.461426,4328.205078,4123.589844,4086.153809,4098.974121,0.000000,4.000000,,,,0.000000,4.000000,4.000000,4.000000,4.000000,4.000000,,,,,,,,,,,,,,,,,,,,,,,,,,,,,,,,,,,,,
1577742531.907216,24.000000,0.000000,4208.717773,4314.871582,4154.871582,4106.153809,4130.769043,0.000000,4.000000,,,,0.000000,4.000000,4.000000,4.000000,4.000000,4.000000,12.000000,0.000000,0.171390,-0.186035,0.874512,0.413818,0.539071,-0.577157,0.618173,7.438186,-46.935345,57.574642,,,,,,,,,,,,,,,,,,,,,,,,,
1577742531.915012,25.000000,0.000000,4275.897461,4342.563965,4161.025879,4121.025879,4166.153809,0.000000,4.000000,,,,0.000000,4.000000,4.000000,4.000000,4.000000,4.000000,,,,,,,,,,,,,,,,,,,,,,,,,,,,,,,,,,,,,
1577742531.922709,26.000000,0.000000,4308.717773,4349.743652,4117.948730,4091.281982,4155.384766,0.000000,4.000000,,,,0.000000,4.000000,4.000000,4.000000,4.000000,4.000000,13.000000,0.000000,0.170865,-0.186035,0.874268,0.414551,0.540536,-0.577157,0.620615,9.565505,-46.907406,58.037975,,,,,,,,,,,,,,,,,,,,,,,,,
1577742531.930506,27.000000,0.000000,4374.358887,4326.153809,4095.897461,4066.666748,4154.871582,0.000000,4.000000,,,,0.000000,4.000000,4.000000,4.000000,4.000000,4.000000,,,,,,,,,,,,,11.247298,5.857041,7.912236,6.323099,4.227195,1.386647,1.312637,0.978544,2.936446,2.574745,5.065502,2.927686,5.594533,5.297351,3.595491,8.394423,5.034500,7.114563,6.315992,4.840148,8.398889,6.040922,9.147535,6.793711,4.272495
1577742531.938202,28.000000,0.000000,4478.974121,4306.153809,4109.743652,4069.743652,4185.641113,0.000000,4.000000,,,,0.000000,4.000000,4.000000,4.000000,4.000000,4.000000,14.000000,0.000000,0.170662,-0.186279,0.874023,0.415039,0.522469,-0.584482,0.617685,12.317507,-46.942081,58.454975,,,,,,,,,,,,,,,,,,,,,,,,,
1577742531.946099,29.000000,0.000000,4547.179688,4310.256348,4107.692383,4058.974365,4193.333496,0.000000,4.000000,,,,0.000000,4.000000,4.000000,4.000000,4.000000,4.000000,,,,,,,,,,,,,,,,,,,,,,,,,,,,,,,,,,,,,
1577742531.953895,30.000000,0.000000,4594.871582,4326.666504,4097.948730,4045.128174,4188.717773,0.000000,4.000000,,,,0.000000,4.000000,4.000000,4.000000,4.000000,4.000000,15.000000,0.000000,0.171051,-0.186523,0.873779,0.415283,0.526864,-0.590829,0.631357,12.042802,-46.913471,58.710644,,,,,,,,,,,,,,,,,,,,,,,,,
1577742531.961592,31.000000,0.000000,4645.641113,4325.641113,4107.179688,4061.538574,4208.205078,0.000000,4.000000,,,,0.000000,4.000000,4.000000,4.000000,4.000000,4.000000,,,,,,,,,,,,,,,,,,,,,,,,,,,,,,,,,,,,,
1577742531.969388,32.000000,0.000000,4638.461426,4312.820313,4107.692383,4068.205078,4214.871582,0.000000,4.000000,,,,0.000000,4.000000,4.000000,4.000000,4.000000,4.000000,16.000000,0.000000,0.170190,-0.186768,0.873779,0.415527,0.518563,-0.605966,0.623545,7.847754,-46.768093,59.000565,,,,,,,,,,,,,,,,,,,,,,,,,
1577742531.977085,33.000000,0.000000,4606.153809,4329.743652,4119.487305,4083.076904,4223.589844,0.000000,4.000000,,,,0.000000,4.000000,4.000000,4.000000,4.000000,4.000000,,,,,,,,,,,,,,,,,,,,,,,,,,,,,,,,,,,,,
1577742531.984981,34.000000,0.000000,4576.410156,4342.051270,4140.000000,4111.282227,4238.461426,0.000000,4.000000,,,,0.000000,4.000000,4.000000,4.000000,4.000000,4.000000,17.000000,0.000000,0.170190,-0.186768,0.873779,0.415527,0.515633,-0.601083,0.617685,10.831347,-46.756882,59.321304,,,,,,,,,,,,,,,,,,,,,,,,,
1577742531.992778,35.000000,0.000000,4488.205078,4307.692383,4113.846191,4081.538574,4191.794922,0.000000,4.000000,,,,0.000000,4.000000,4.000000,4.000000,4.000000,4.000000,,,,,,,,,,,,,,,,,,,,,,,,,,,,,,,,,,,,,
1577742532.000574,36.000000,0.000000,4380.512695,4283.077148,4076.410156,4027.692383,4126.153809,0.000000,4.000000,,,,0.000000,4.000000,4.000000,4.000000,4.000000,4.000000,18.000000,0.000000,0.170785,-0.186768,0.873779,0.415283,0.528328,-0.594247,0.624521,13.396949,-46.806606,57.636066,,,,,,,,,,,,,,,,,,,,,,,,,
1577742532.008271,37.000000,0.000000,4338.461426,4311.282227,4087.692383,4042.564209,4126.153809,0.000000,4.000000,,,,0.000000,4.000000,4.000000,4.000000,4.000000,4.000000,,,,,,,,,,,,,,,,,,,,,,,,,,,,,,,,,,,,,
1577742532.016068,38.000000,0.000000,4320.000000,4342.563965,4108.717773,4075.897461,4146.153809,0.000000,4.000000,,,,0.000000,4.000000,4.000000,4.000000,4.000000,4.000000,19.000000,0.000000,0.170785,-0.186768,0.873779,0.415283,0.519051,-0.594736,0.611826,12.954485,-46.851360,58.153072,,,,,,,,,,,,,,,,,,,,,,,,,
1577742532.023764,39.000000,0.000000,4260.000000,4325.128418,4102.563965,4065.641113,4122.563965,0.000000,4.000000,,,,0.000000,4.000000,4.000000,4.000000,4.000000,4.000000,,,,,,,,,,,,,,,,,,,,,,,,,,,,,,,,,,,,,
1577742532.031561,40.000000,0.000000,4214.871582,4309.743652,4117.436035,4075.897461,4109.230957,0.000000,4.000000,,,,0.000000,4.000000,4.000000,4.000000,4.000000,4.000000,20.000000,0.000000,0.171643,-0.186523,0.873779,0.415039,0.532723,-0.579110,0.620127,12.556267,-46.891640,58.558563,,,,,,,,,,,,,,,,,,,,,,,,,
1577742532.039257,41.000000,0.000000,4209.230957,4337.436035,4147.179688,4110.769043,4128.717773,0.000000,4.000000,,,,0.000000,4.000000,4.000000,4.000000,4.000000,4.000000,,,,,,,,,,,,,,,,,,,,,,,,,,,,,,,,,,,,,
1577742532.047054,42.000000,0.000000,4171.794922,4349.230957,4135.384766,4096.922852,4109.230957,0.000000,4.000000,,,,0.000000,4.000000,4.000000,4.000000,4.000000,4.000000,21.000000,0.000000,0.170989,-0.186523,0.874023,0.414795,0.523445,-0.568368,0.624521,12.078239,-46.808258,58.983322,,,,,,,,,,,,,,,,,,,,,,,,,
1577742532.054750,43.000000,0.000000,4107.692383,4318.461426,4099.487305,4054.358887,4057.948730,0.000000,4.000000,,,,0.000000,4.000000,4.000000,4.000000,4.000000,4.000000,,,,,,,,,,,,,29.475359,10.623441,7.377831,6.744804,4.741966,1.442151,1.218250,0.704268,2.880068,3.007260,4.911323,3.273871,5.757211,5.625233,3.967327,6.973842,4.842574,6.444886,6.803170,5.395195,11.325027,8.008402,8.683165,7.115893,4.736128
1577742532.062547,44.000000,0.000000,4098.461426,4320.000000,4105.128418,4065.641113,4059.487061,0.000000,4.000000,,,,0.000000,4.000000,4.000000,4.000000,4.000000,4.000000,22.000000,0.000000,0.171255,-0.186279,0.874023,0.414795,0.523445,-0.587900,0.611826,7.819832,-46.852844,59.305786,,,,,,,,,,,,,,,,,,,,,,,,,
1577742532.070244,45.000000,0.000000,4105.641113,4345.641113,4122.051270,4097.436035,4083.589844,0.000000,4.000000,,,,0.000000,4.000000,4.000000,4.000000,4.000000,4.000000,,,,,,,,,,,,,,,,,,,,,,,,,,,,,,,,,,,,,
1577742532.078040,46.000000,0.000000,4046.666748,4310.769043,4087.692383,4056.923096,4045.641113,0.000000,4.000000,,,,0.000000,4.000000,4.000000,4.000000,4.000000,4.000000,23.000000,0.000000,0.170865,-0.186035,0.874268,0.414551,0.525887,-0.588876,0.621592,10.746402,-46.892975,57.622097,,,,,,,,,,,,,,,,,,,,,,,,,
1577742532.085737,47.000000,0.000000,4028.205078,4292.820313,4088.718018,4043.076904,4034.358887,0.000000,4.000000,,,,0.000000,4.000000,4.000000,4.000000,4.000000,4.000000,,,,,,,,,,,,,,,,,,,,,,,,,,,,,,,,,,,,,
1577742532.093533,48.000000,0.000000,4086.666748,4336.922852,4148.205078,4109.743652,4093.846191,0.000000,4.000000,,,,0.000000,4.000000,4.000000,4.000000,4.000000,4.000000,24.000000,0.000000,0.171130,-0.185791,0.874268,0.414551,0.531746,-0.580575,0.612802,9.552131,-46.929092,57.961056,,,,,,,,,,,,,,,,,,,,,,,,,
1577742532.101230,49.000000,0.000000,4077.435791,4343.077148,4145.128418,4111.282227,4097.948730,0.000000,4.000000,,,,0.000000,4.000000,4.000000,4.000000,4.000000,4.000000,,,,,,,,,,,,,,,,,,,,,,,,,,,,,,,,,,,,,
1577742532.109026,50.000000,0.000000,4035.384521,4332.820313,4115.897461,4071.794922,4064.615479,0.000000,4.000000,,,,0.000000,4.000000,4.000000,4.000000,4.000000,4.000000,25.000000,0.000000,0.171984,-0.185547,0.874268,0.414307,0.531258,-0.574228,0.613779,9.553964,-46.961597,58.086670,,,,,,,,,,,,,,,,,,,,,,,,,
1577742532.116723,51.000000,0.000000,4052.307617,4342.051270,4134.358887,4094.358887,4076.410156,0.000000,4.000000,,,,0.000000,4.000000,4.000000,4.000000,4.000000,4.000000,,,,,,,,,,,,,,,,,,,,,,,,,,,,,,,,,,,,,
1577742532.124620,52.000000,0.000000,4051.794922,4328.717773,4134.358887,4101.025879,4076.410156,0.000000,4.000000,,,,0.000000,4.000000,4.000000,4.000000,4.000000,4.000000,26.000000,0.000000,0.171984,-0.185547,0.874268,0.414307,0.518074,-0.569345,0.616709,12.247304,-46.871220,56.584709,,,,,,,,,,,,,,,,,,,,,,,,,
1577742532.132416,53.000000,0.000000,4026.153809,4329.230957,4115.384766,4074.871826,4055.897461,0.000000,4.000000,,,,0.000000,4.000000,4.000000,4.000000,4.000000,4.000000,,,,,,,,,,,,,,,,,,,,,,,,,,,,,,,,,,,,,
1577742532.140312,54.000000,0.000000,4045.641113,4350.769043,4133.333496,4093.333252,4078.974365,0.000000,4.000000,,,,0.000000,4.000000,4.000000,4.000000,4.000000,4.000000,27.000000,0.000000,0.171395,-0.185547,0.874268,0.414551,0.515633,-0.571786,0.616709,11.680543,-46.909512,57.147038,,,,,,,,,,,,,,,,,,,,,,,,,
1577742532.148109,55.000000,0.000000,4041.538574,4331.794922,4126.153809,4084.615479,4078.974365,0.000000,4.000000,,,,0.000000,4.000000,4.000000,4.000000,4.000000,4.000000,,,,,,,,,,,,,,,,,,,,,,,,,,,,,,,,,,,,,
1577742532.156005,56.000000,0.000000,3985.128174,4310.769043,4075.384521,4020.512939,4022.564209,0.000000,4.000000,,,,0.000000,4.000000,4.000000,4.000000,4.000000,4.000000,28.000000,0.000000,0.171395,-0.185547,0.874268,0.414551,0.513191,-0.590341,0.615732,11.469535,-46.943974,55.679226,,,,,,,,,,,,,,,,,,,,,,,,,
1577742532.163802,57.000000,0.000000,3997.948730,4341.538574,4093.333252,4034.871826,4038.461426,0.000000,4.000000,,,,0.000000,4.000000,4.000000,4.000000,4.000000,4.000000,,,,,,,,,,,,,,,,,,,,,,,,,,,,,,,,,,,,,
1577742532.171499,58.000000,0.000000,4059.487061,4354.358887,4154.358887,4103.589844,4107.692383,0.000000,4.000000,,,,0.000000,4.000000,4.000000,4.000000,4.000000,4.000000,29.000000,0.000000,0.170803,-0.185547,0.874268,0.414795,0.519539,-0.583017,0.606455,7.451444,-46.855362,56.332100,,,,,,,,,,,,,,,,,,,,,,,,,
1577742532.179295,59.000000,0.000000,4065.641113,4331.794922,4152.820313,4108.205078,4114.358887,0.000000,4.000000,,,,0.000000,4.000000,4.000000,4.000000,4.000000,4.000000,,,,,,,,,,,,,70.169678,20.272068,7.296573,6.926433,5.518071,1.498391,1.296632,0.629298,2.700921,3.622719,5.361030,4.682327,6.270947,5.693101,4.505674,6.224419,6.344564,6.181530,7.069743,6.126315,18.592216,13.181479,8.268544,7.236795,5.457620
1577742532.186992,60.000000,0.000000,4043.589844,4327.179688,4128.717773,4085.128174,4089.230713,0.000000,4.000000,,,,0.000000,4.000000,4.000000,4.000000,4.000000,4.000000,30.000000,0.000000,0.172373,-0.185791,0.874023,0.414551,0.537606,-0.579110,0.615732,3.775346,-46.955051,56.979504,,,,,,,,,,,,,,,,,,,,,,,,,
1577742532.194788,61.000000,0.000000,4056.410156,4349.743652,4149.230957,4100.000000,4104.615234,0.000000,4.000000,,,,0.000000,4.000000,4.000000,4.000000,4.000000,4.000000,,,,,,,,,,,,,,,,,,,,,,,,,,,,,,,,,,,,,
1577742532.202485,62.000000,0.000000,4093.846191,4365.641113,4189.230957,4136.922852,4151.794922,0.000000,4.000000,,,,0.000000,4.000000,4.000000,4.000000,4.000000,4.000000,31.000000,0.000000,0.172373,-0.185791,0.874023,0.414551,0.532723,-0.593759,0.614755,3.337996,-46.865330,57.502350,,,,,,,,,,,,,,,,,,,,,,,,,
1577742532.210281,63.000000,0.000000,4081.538574,4337.436035,4176.410156,4131.794922,4148.717773,0.000000,4.000000,,,,0.000000,4.000000,4.000000,4.000000,4.000000,4.000000,,,,,,,,,,,,,,,,,,,,,,,,,,,,,,,,,,,,,
1577742532.217978,64.000000,0.000000,4017.948730,4312.307617,4125.641113,4070.769287,4090.769287,450.000000,4.000000,,,,0.000000,4.000000,4.000000,4.000000,4.000000,4.000000,32.000000,0.000000,0.170865,-0.186035,0.874268,0.414551,0.532723,-0.583505,0.633799,4.021058,-46.964027,56.118637,,,,,,,,,,,,,,,,,,,,,,,,,
1577742532.225874,65.000000,0.000000,4011.281982,4338.974121,4124.102539,4056.410156,4082.564209,450.000000,4.000000,,,,0.000000,4.000000,4.000000,4.000000,4.000000,4.000000,,,,,,,,,,,,,,,,,,,,,,,,,,,,,,,,,,,,,
1577742532.233671,66.000000,0.000000,4035.384521,4349.230957,4150.769043,4091.794922,4110.256348,16209.000000,4.000000,,,,0.000000,4.000000,4.000000,4.000000,4.000000,4.000000,33.000000,0.000000,0.170865,-0.186035,0.874268,0.414551,0.527352,-0.589853,0.624521,0.687999,-47.052853,56.787388,,,,,,,,,,,,,,,,,,,,,,,,,
1577742532.241468,67.000000,0.000000,4032.820557,4328.717773,4149.230957,4101.538574,4117.948730,450.000000,4.000000,,,,0.000000,4.000000,4.000000,4.000000,4.000000,4.000000,,,,,,,,,,,,,,,,,,,,,,,,,,,,,,,,,,,,,
1577742532.249164,68.000000,0.000000,4011.281982,4311.282227,4133.333496,4078.974365,4101.025879,16229.000000,4.000000,,,,0.000000,4.000000,4.000000,4.000000,4.000000,4.000000,34.000000,0.000000,0.171456,-0.186035,0.874268,0.414307,0.526375,-0.584970,0.623545,1.396799,-46.953350,57.209816,,,,,,,,,,,,,,,,,,,,,,,,,
1577742532.257061,69.000000,0.000000,3976.410156,4309.743652,4126.666504,4058.974365,4069.743652,450.000000,4.000000,,,,0.000000,4.000000,4.000000,4.000000,4.000000,4.000000,,,,,,,,,,,,,,,,,,,,,,,,,,,,,,,,,,,,,
1577742532.264857,70.000000,0.000000,3988.718018,4337.436035,4140.000000,4081.025635,4082.564209,16149.000000,4.000000,,,,0.000000,4.000000,4.000000,4.000000,4.000000,4.000000,35.000000,0.000000,0.171456,-0.186035,0.874268,0.414307,0.501472,-0.584970,0.625986,-1.733649,-47.043247,57.829262,,,,,,,,,,,,,,,,,,,,,,,,,
1577742532.272754,71.000000,0.000000,4029.230713,4348.205078,4147.179688,4108.205078,4120.000000,450.000000,4.000000,,,,0.000000,4.000000,4.000000,4.000000,4.000000,4.000000,,,,,,,,,,,,,,,,,,,,,,,,,,,,,,,,,,,,,
1577742532.280550,72.000000,0.000000,4018.974365,4324.615234,4133.846191,4093.846191,4112.820313,450.000000,4.000000,,,,0.000000,4.000000,4.000000,4.000000,4.000000,4.000000,36.000000,0.000000,0.171065,-0.185791,0.874512,0.414063,0.513680,-0.582040,0.617685,2.208084,-47.004520,58.147503,,,,,,,,,,,,,,,,,,,,,,,,,
1577742532.288446,73.000000,0.000000,4008.205078,4328.205078,4136.922852,4089.743652,4105.641113,16198.000000,4.000000,,,,0.000000,4.000000,4.000000,4.000000,4.000000,4.000000,,,,,,,,,,,,,,,,,,,,,,,,,,,,,,,,,,,,,
1577742532.296243,74.000000,0.000000,4040.512939,4345.128418,4158.461426,4120.000000,4137.436035,450.000000,4.000000,,,,0.000000,4.000000,4.000000,4.000000,4.000000,4.000000,37.000000,0.000000,0.171655,-0.185791,0.874512,0.413818,0.523934,-0.569833,0.624521,4.858413,-46.969666,58.553551,,,,,,,,,,,,,,,,,,,,,,,,,
1577742532.304139,75.000000,0.000000,4035.897461,4334.871582,4152.307617,4115.384766,4131.794922,16209.000000,4.000000,,,,0.000000,4.000000,4.000000,4.000000,4.000000,4.000000,,,,,,,,,,,,,141.443558,34.135044,7.571557,6.819111,6.339679,1.555611,1.494977,0.718054,2.493816,4.278777,6.110922,6.946701,7.031341,5.482127,5.059953,6.021690,9.097657,6.561520,7.087181,6.833318,29.750217,20.402397,7.964992,7.149381,6.230615
1577742532.311936,76.000000,0.000000,3996.923096,4324.102539,4125.128418,4073.846191,4088.718018,450.000000,4.000000,,,,0.000000,4.000000,4.000000,4.000000,4.000000,4.000000,38.000000,0.000000,0.171655,-0.185791,0.874512,0.413818,0.526375,-0.591806,0.622080,5.269802,-46.878483,58.799366,,,,,,,,,,,,,,,,,,,,,,,,,
1577742532.319832,77.000000,0.000000,4012.307617,4336.922852,4131.794922,4088.205078,4104.615234,450.000000,4.000000,,,,0.000000,4.000000,4.000000,4.000000,4.000000,4.000000,,,,,,,,,,,,,,,,,,,,,,,,,,,,,,,,,,,,,
1577742532.327629,78.000000,0.000000,4051.794922,4348.205078,4160.000000,4135.384766,4150.769043,450.000000,4.000000,,,,0.000000,4.000000,4.000000,4.000000,4.000000,4.000000,39.000000,0.000000,0.172242,-0.185791,0.874512,0.413574,0.528328,-0.577646,0.620615,5.520422,-46.856232,59.080410,,,,,,,,,,,,,,,,,,,,,,,,,
1577742532.335525,79.000000,0.000000,4036.923096,4323.589844,4142.051270,4114.871582,4134.871582,16209.000000,4.000000,,,,0.000000,4.000000,4.000000,4.000000,4.000000,4.000000,,,,,,,,,,,,,,,,,,,,,,,,,,,,,,,,,,,,,
1577742532.343322,80.000000,0.000000,4007.179443,4304.102539,4108.205078,4072.820557,4101.025879,450.000000,4.000000,,,,0.000000,4.000000,4.000000,4.000000,4.000000,4.000000,40.000000,0.000000,0.172242,-0.185791,0.874512,0.413574,0.524910,-0.556649,0.629404,1.977611,-46.776394,59.452984,,,,,,,,,,,,,,,,,,,,,,,,,
1577742532.351118,81.000000,0.000000,4036.410156,4337.948730,4135.384766,4106.666504,4130.769043,450.000000,4.000000,,,,0.000000,4.000000,4.000000,4.000000,4.000000,4.000000,,,,,,,,,,,,,,,,,,,,,,,,,,,,,,,,,,,,,
1577742532.358815,82.000000,0.000000,4049.743652,4354.871582,4147.692383,4130.256348,4144.615234,450.000000,4.000000,,,,0.000000,4.000000,4.000000,4.000000,4.000000,4.000000,41.000000,0.000000,0.171655,-0.185791,0.874512,0.413818,0.526375,-0.591806,0.622080,4.710803,-46.824169,57.814392,,,,,,,,,,,,,,,,,,,,,,,,,
1577742532.366512,83.000000,0.000000,4017.435791,4320.512695,4120.000000,4098.974121,4111.282227,16209.000000,4.000000,,,,0.000000,4.000000,4.000000,4.000000,4.000000,4.000000,,,,,,,,,,,,,,,,,,,,,,,,,,,,,,,,,,,,,
1577742532.374308,84.000000,0.000000,4020.512939,4311.794922,4127.179688,4101.538574,4110.769043,450.000000,4.000000,,,,0.000000,4.000000,4.000000,4.000000,4.000000,4.000000,42.000000,0.000000,0.172242,-0.185791,0.874512,0.413574,0.524910,-0.556649,0.629404,1.248954,-46.747536,58.313564,,,,,,,,,,,,,,,,,,,,,,,,,
1577742532.382005,85.000000,0.000000,4034.358887,4332.820313,4137.436035,4114.358887,4118.461426,450.000000,4.000000,,,,0.000000,4.000000,4.000000,4.000000,4.000000,4.000000,,,,,,,,,,,,,,,,,,,,,,,,,,,,,,,,,,,,,
1577742532.389801,86.000000,0.000000,4009.743652,4330.769043,4111.282227,4086.153809,4093.333252,450.000000,4.000000,,,,0.000000,4.000000,4.000000,4.000000,4.000000,4.000000,43.000000,0.000000,0.172505,-0.185547,0.874512,0.413574,0.514168,-0.562509,0.626963,4.055012,-46.798195,56.788914,,,,,,,,,,,,,,,,,,,,,,,,,
1577742532.397498,87.000000,0.000000,4016.923096,4333.333496,4113.846191,4087.692383,4101.025879,16209.000000,4.000000,,,,0.000000,4.000000,4.000000,4.000000,4.000000,4.000000,,,,,,,,,,,,,,,,,,,,,,,,,,,,,,,,,,,,,
1577742532.405294,88.000000,0.000000,4062.051270,4347.179688,4153.846191,4132.820313,4151.282227,450.000000,4.000000,,,,0.000000,4.000000,4.000000,4.000000,4.000000,4.000000,44.000000,0.000000,0.171919,-0.185547,0.874512,0.413818,0.525399,-0.580575,0.614267,6.580464,-46.783974,55.297100,,,,,,,,,,,,,,,,,,,,,,,,,
1577742532.412991,89.000000,0.000000,4065.641113,4335.897461,4156.410156,4134.871582,4160.000000,450.000000,4.000000,,,,0.000000,4.000000,4.000000,4.000000,4.000000,4.000000,,,,,,,,,,,,,,,,,,,,,,,,,,,,,,,,,,,,,
1577742532.420888,90.000000,0.000000,4041.538574,4323.077148,4132.307617,4100.512695,4135.897461,450.000000,4.000000,,,,0.000000,4.000000,4.000000,4.000000,4.000000,4.000000,45.000000,0.000000,0.171655,-0.185791,0.874512,0.413818,0.517586,-0.572274,0.621103,5.802786,-47.010437,55.868557,,,,,,,,,,,,,,,,,,,,,,,,,
1577742532.428684,91.000000,0.000000,4043.589844,4327.179688,4131.282227,4097.948730,4135.384766,16209.000000,4.000000,,,,0.000000,4.000000,4.000000,4.000000,4.000000,4.000000,,,,,,,,,,,,,243.925613,50.156460,8.006471,6.419313,6.955091,1.612536,1.720292,0.898148,2.332178,4.786986,6.715295,9.459737,7.821684,5.045348,5.456196,6.301320,12.192677,7.569674,6.858461,7.298801,42.932091,27.635395,7.743925,6.864598,6.809559
1577742532.436481,92.000000,0.000000,4055.384521,4313.846191,4135.897461,4110.769043,4146.153809,450.000000,4.000000,,,,0.000000,4.000000,4.000000,4.000000,4.000000,4.000000,46.000000,0.000000,0.171390,-0.186035,0.874512,0.413818,0.529793,-0.579110,0.623545,6.000108,-47.094624,54.528591,,,,,,,,,,,,,,,,,,,,,,,,,
1577742532.444177,93.000000,0.000000,4042.564209,4304.615234,4121.538574,4090.256348,4132.307617,450.000000,4.000000,,,,0.000000,4.000000,4.000000,4.000000,4.000000,4.000000,,,,,,,,,,,,,,,,,,,,,,,,,,,,,,,,,,,,,
1577742532.451974,94.000000,0.000000,4037.435791,4340.000000,4114.358887,4077.435791,4121.538574,450.000000,4.000000,,,,0.000000,4.000000,4.000000,4.000000,4.000000,4.000000,47.000000,0.000000,0.172368,-0.186279,0.874268,0.413818,0.539559,-0.569833,0.626963,9.048834,-46.931126,53.322624,,,,,,,,,,,,,,,,,,,,,,,,,
1577742532.459670,95.000000,0.000000,4057.948730,4345.128418,4125.641113,4105.641113,4144.102539,16209.000000,4.000000,,,,0.000000,4.000000,4.000000,4.000000,4.000000,4.000000,,,,,,,,,,,,,,,,,,,,,,,,,,,,,,,,,,,,,
1577742532.467467,96.000000,0.000000,4086.666748,4324.615234,4141.025879,4136.922852,4176.922852,450.000000,4.000000,,,,0.000000,4.000000,4.000000,4.000000,4.000000,4.000000,48.000000,0.000000,0.171125,-0.186279,0.874512,0.413818,0.523934,-0.582040,0.620127,9.041182,-47.023243,54.091530,,,,,,,,,,,,,,,,,,,,,,,,,
1577742532.475164,97.000000,0.000000,4102.051270,4340.512695,4157.948730,4146.666504,4191.282227,450.000000,4.000000,,,,0.000000,4.000000,4.000000,4.000000,4.000000,4.000000,,,,,,,,,,,,,,,,,,,,,,,,,,,,,,,,,,,,,
1577742532.482960,98.000000,0.000000,4092.307617,4335.384766,4158.974121,4138.461426,4182.051270,450.000000,4.000000,,,,0.000000,4.000000,4.000000,4.000000,4.000000,4.000000,49.000000,0.000000,0.171125,-0.186279,0.874512,0.413818,0.523934,-0.564462,0.634287,9.034293,-46.986519,52.989082,,,,,,,,,,,,,,,,,,,,,,,,,
1577742532.490657,99.000000,0.000000,4077.948730,4303.077148,4144.102539,4124.102539,4167.179688,16209.000000,4.000000,,,,0.000000,4.000000,4.000000,4.000000,4.000000,4.000000,,,,,,,,,,,,,,,,,,,,,,,,,,,,,,,,,,,,,
1577742532.498453,100.000000,0.000000,4070.769287,4315.897461,4138.974121,4107.179688,4156.410156,450.000000,4.000000,,,,0.000000,4.000000,4.000000,4.000000,4.000000,4.000000,50.000000,0.000000,0.171125,-0.186279,0.874512,0.413818,0.520516,-0.568368,0.610849,8.968280,-47.013279,54.090420,,,,,,,,,,,,,,,,,,,,,,,,,
1577742532.506150,101.000000,0.000000,4067.179443,4344.615234,4140.000000,4095.384521,4149.743652,450.000000,4.000000,,,,0.000000,4.000000,4.000000,4.000000,4.000000,4.000000,,,,,,,,,,,,,,,,,,,,,,,,,,,,,,,,,,,,,
1577742532.514046,102.000000,0.000000,4046.666748,4323.077148,4122.563965,4077.948730,4130.769043,450.000000,4.000000,,,,0.000000,4.000000,4.000000,4.000000,4.000000,4.000000,51.000000,0.000000,0.171125,-0.186279,0.874512,0.413818,0.517586,-0.575692,0.628916,11.780005,-46.977551,54.603096,,,,,,,,,,,,,,,,,,,,,,,,,
1577742532.521843,103.000000,0.000000,4055.897461,4309.230957,4124.102539,4085.641113,4134.871582,16209.000000,4.000000,,,,0.000000,4.000000,4.000000,4.000000,4.000000,4.000000,,,,,,,,,,,,,,,,,,,,,,,,,,,,,,,,,,,,,
1577742532.529739,104.000000,0.000000,4075.384521,4317.948730,4128.717773,4096.410156,4147.179688,450.000000,4.000000,,,,0.000000,4.000000,4.000000,4.000000,4.000000,4.000000,52.000000,0.000000,0.171125,-0.186279,0.874512,0.413818,0.519539,-0.575204,0.621592,14.310556,-46.945393,55.303772,,,,,,,,,,,,,,,,,,,,,,,,,
1577742532.537636,105.000000,0.000000,4043.589844,4313.846191,4100.000000,4066.153809,4122.051270,450.000000,4.000000,,,,0.000000,4.000000,4.000000,4.000000,4.000000,4.000000,,,,,,,,,,,,,,,,,,,,,,,,,,,,,,,,,,,,,
1577742532.545432,106.000000,0.000000,4062.051270,4329.743652,4115.897461,4089.743652,4145.641113,450.000000,4.000000,,,,0.000000,4.000000,4.000000,4.000000,4.000000,4.000000,53.000000,0.000000,0.171125,-0.186279,0.874512,0.413818,0.529793,-0.567391,0.626474,13.956178,-46.976269,55.934376,,,,,,,,,,,,,,,,,,,,,,,,,
1577742532.553229,107.000000,0.000000,4141.538574,4349.743652,4169.230957,4167.179688,4214.358887,16209.000000,4.000000,,,,0.000000,4.000000,4.000000,4.000000,4.000000,4.000000,,,,,,,,,,,,,365.800659,65.024521,8.476593,5.765959,7.195336,1.653103,1.867343,1.098717,2.232026,4.995196,6.769895,11.425916,8.445780,4.458428,5.580400,6.338138,14.602129,8.972356,6.399584,7.400741,55.099949,32.621841,7.583495,6.390134,7.032789
1577742532.560925,108.000000,0.000000,4148.205078,4332.820313,4157.948730,4168.205078,4209.743652,450.000000,4.000000,,,,0.000000,4.000000,4.000000,4.000000,4.000000,4.000000,54.000000,0.000000,0.170859,-0.186523,0.874512,0.413818,0.521004,-0.565438,0.622568,13.517606,-46.824608,56.442104,,,,,,,,,,,,,,,,,,,,,,,,,
1577742532.568722,109.000000,0.000000,4095.384521,4312.820313,4116.410156,4119.487305,4165.641113,450.000000,4.000000,,,,0.000000,4.000000,4.000000,4.000000,4.000000,4.000000,,,,,,,,,,,,,,,,,,,,,,,,,,,,,,,,,,,,,
1577742532.576418,110.000000,0.000000,4091.794922,4317.436035,4122.563965,4119.487305,4169.743652,450.000000,4.000000,,,,0.000000,4.000000,4.000000,4.000000,4.000000,4.000000,55.000000,0.000000,0.171515,-0.186523,0.874268,0.414063,0.529305,-0.576669,0.611826,13.182706,-46.867561,54.984970,,,,,,,,,,,,,,,,,,,,,,,,,
1577742532.584215,111.000000,0.000000,4113.846191,4312.820313,4130.769043,4134.871582,4183.589844,16209.000000,4.000000,,,,0.000000,4.000000,4.000000,4.000000,4.000000,4.000000,,,,,,,,,,,,,,,,,,,,,,,,,,,,,,,,,,,,,
1577742532.591912,112.000000,0.000000,4103.589844,4298.461426,4105.641113,4116.922852,4170.769043,450.000000,4.000000,,,,0.000000,4.000000,4.000000,4.000000,4.000000,4.000000,56.000000,0.000000,0.171780,-0.186279,0.874268,0.414063,0.522957,-0.571786,0.631357,8.813852,-46.906219,55.647457,,,,,,,,,,,,,,,,,,,,,,,,,
1577742532.599708,113.000000,0.000000,4074.871826,4307.179688,4080.000000,4086.153809,4146.153809,450.000000,4.000000,,,,0.000000,4.000000,4.000000,4.000000,4.000000,4.000000,,,,,,,,,,,,,,,,,,,,,,,,,,,,,,,,,,,,,
1577742532.607405,114.000000,0.000000,4071.281982,4338.461426,4085.641113,4084.615479,4143.589844,450.000000,4.000000,,,,0.000000,4.000000,4.000000,4.000000,4.000000,4.000000,57.000000,0.000000,0.170533,-0.186279,0.874512,0.414063,0.518563,-0.574716,0.624521,11.581204,-46.881195,56.363323,,,,,,,,,,,,,,,,,,,,,,,,,
1577742532.615201,115.000000,0.000000,4123.077148,4349.743652,4124.615234,4135.897461,4197.436035,16209.000000,4.000000,,,,0.000000,4.000000,4.000000,4.000000,4.000000,4.000000,,,,,,,,,,,,,,,,,,,,,,,,,,,,,,,,,,,,,
1577742532.622898,116.000000,0.000000,4146.153809,4324.615234,4133.846191,4154.871582,4225.641113,450.000000,4.000000,,,,0.000000,4.000000,4.000000,4.000000,4.000000,4.000000,58.000000,0.000000,0.171191,-0.186279,0.874268,0.414307,0.525887,-0.576181,0.618173,13.354036,-46.978306,54.914066,,,,,,,,,,,,,,,,,,,,,,,,,
1577742532.630694,117.000000,0.000000,4117.948730,4322.051270,4117.948730,4132.307617,4201.025879,450.000000,4.000000,,,,0.000000,4.000000,4.000000,4.000000,4.000000,4.000000,,,,,,,,,,,,,,,,,,,,,,,,,,,,,,,,,,,,,
1577742532.638391,118.000000,0.000000,4112.820313,4344.102539,4122.563965,4137.436035,4196.410156,450.000000,4.000000,,,,0.000000,4.000000,4.000000,4.000000,4.000000,4.000000,59.000000,0.000000,0.171191,-0.186279,0.874268,0.414307,0.513191,-0.576181,0.620615,12.856048,-46.766628,55.703274,,,,,,,,,,,,,,,,,,,,,,,,,
1577742532.646188,119.000000,0.000000,4114.871582,4328.717773,4120.000000,4135.384766,4194.871582,16209.000000,4.000000,,,,0.000000,4.000000,4.000000,4.000000,4.000000,4.000000,,,,,,,,,,,,,,,,,,,,,,,,,,,,,,,,,,,,,
1577742532.653884,120.000000,0.000000,4116.410156,4317.436035,4117.948730,4126.666504,4195.384766,450.000000,4.000000,,,,0.000000,4.000000,4.000000,4.000000,4.000000,4.000000,60.000000,0.000000,0.171456,-0.186035,0.874268,0.414307,0.518074,-0.582528,0.626474,12.407858,-46.755566,56.234116,,,,,,,,,,,,,,,,,,,,,,,,,
1577742532.661681,121.000000,0.000000,4158.974121,4350.256348,4154.358887,4164.102539,4235.897461,450.000000,4.000000,,,,0.000000,4.000000,4.000000,4.000000,4.000000,4.000000,,,,,,,,,,,,,,,,,,,,,,,,,,,,,,,,,,,,,
1577742532.669377,122.000000,0.000000,4176.922852,4342.563965,4169.230957,4176.922852,4240.512695,450.000000,4.000000,,,,0.000000,4.000000,4.000000,4.000000,4.000000,4.000000,61.000000,0.000000,0.171456,-0.186035,0.874268,0.414307,0.504891,-0.582528,0.606943,12.004488,-46.865238,56.652054,,,,,,,,,,,,,,,,,,,,,,,,,
1577742532.677274,123.000000,0.000000,4149.230957,4322.563965,4151.794922,4147.692383,4206.153809,16209.000000,4.000000,,,,0.000000,4.000000,4.000000,4.000000,4.000000,4.000000,,,,,,,,,,,,,477.981750,75.240379,8.876242,4.929222,7.033779,1.642715,1.875590,1.265414,2.157079,4.854294,6.208979,12.214859,8.752490,3.794716,5.421013,5.949780,15.549045,10.352675,5.739277,7.159495,62.436142,33.746887,7.483879,5.740410,6.880027
1577742532.685070,124.000000,0.000000,4157.948730,4340.000000,4156.922852,4157.948730,4216.410156,450.000000,4.000000,,,,0.000000,4.000000,4.000000,4.000000,4.000000,4.000000,62.000000,0.000000,0.171456,-0.186035,0.874268,0.414307,0.531258,-0.583017,0.627939,11.521823,-46.844311,57.147831,,,,,,,,,,,,,,,,,,,,,,,,,
1577742532.692967,125.000000,0.000000,4168.205078,4333.333496,4151.794922,4156.922852,4220.512695,450.000000,4.000000,,,,0.000000,4.000000,4.000000,4.000000,4.000000,4.000000,,,,,,,,,,,,,,,,,,,,,,,,,,,,,,,,,,,,,
1577742532.700763,126.000000,0.000000,4163.077148,4335.384766,4147.692383,4139.487305,4208.717773,450.000000,4.000000,,,,0.000000,4.000000,4.000000,4.000000,4.000000,4.000000,63.000000,0.000000,0.171456,-0.186035,0.874268,0.414307,0.536629,-0.579599,0.609384,7.319057,-46.825478,55.679939,,,,,,,,,,,,,,,,,,,,,,,,,
1577742532.708660,127.000000,0.000000,4201.538574,4370.256348,4186.666504,4176.922852,4244.102539,236.000000,4.000000,,,,0.000000,4.000000,4.000000,4.000000,4.000000,4.000000,,,,,,,,,,,,,,,,,,,,,,,,,,,,,,,,,,,,,
1577742532.716456,0.000000,0.000000,4229.743652,4352.307617,4206.666504,4201.025879,4264.615234,450.000000,4.000000,,,,0.000000,4.000000,4.000000,4.000000,4.000000,4.000000,0.000000,0.000000,0.170799,-0.186035,0.874512,0.414063,0.516609,-0.577157,0.632822,7.484382,-46.808529,56.392559,,,,,,,,,,,,,,,,,,,,,,,,,
1577742532.724353,1.000000,0.000000,4198.461426,4314.358887,4180.512695,4165.128418,4230.256348,450.000000,4.000000,,,,0.000000,4.000000,4.000000,4.000000,4.000000,4.000000,,,,,,,,,,,,,,,,,,,,,,,,,,,,,,,,,,,,,
1577742532.732149,2.000000,0.000000,4189.230957,4342.563965,4177.436035,4161.025879,4224.102539,16218.000000,4.000000,,,,0.000000,4.000000,4.000000,4.000000,4.000000,4.000000,1.000000,0.000000,0.171065,-0.185791,0.874512,0.414063,0.522957,-0.583993,0.626474,9.607081,-46.733459,57.093731,,,,,,,,,,,,,,,,,,,,,,,,,
1577742532.740046,3.000000,0.000000,4224.615234,4366.666504,4207.692383,4199.487305,4261.538574,450.000000,4.000000,,,,0.000000,4.000000,4.000000,4.000000,4.000000,4.000000,,,,,,,,,,,,,,,,,,,,,,,,,,,,,,,,,,,,,
1577742532.747842,4.000000,0.000000,4218.461426,4336.922852,4206.153809,4191.282227,4260.512695,16241.000000,4.000000,,,,0.000000,4.000000,4.000000,4.000000,4.000000,4.000000,2.000000,0.000000,0.171065,-0.185791,0.874512,0.414063,0.517098,-0.573739,0.631357,9.603419,-46.725712,57.485527,,,,,,,,,,,,,,,,,,,,,,,,,
1577742532.755739,5.000000,0.000000,4169.743652,4306.153809,4166.666504,4146.153809,4218.974121,450.000000,4.000000,,,,0.000000,4.000000,4.000000,4.000000,4.000000,4.000000,,,,,,,,,,,,,,,,,,,,,,,,,,,,,,,,,,,,,
1577742532.763535,6.000000,0.000000,4140.512695,4307.179688,4131.794922,4120.512695,4189.230957,16151.000000,4.000000,,,,0.000000,4.000000,4.000000,4.000000,4.000000,4.000000,3.000000,0.000000,0.171330,-0.185547,0.874512,0.414063,0.521492,-0.577157,0.617197,5.652309,-46.718739,58.017586,,,,,,,,,,,,,,,,,,,,,,,,,
1577742532.771232,7.000000,0.000000,4154.871582,4342.051270,4135.897461,4130.769043,4198.974121,450.000000,4.000000,,,,0.000000,4.000000,4.000000,4.000000,4.000000,4.000000,,,,,,,,,,,,,,,,,,,,,,,,,,,,,,,,,,,,,
1577742532.779028,8.000000,0.000000,4195.384766,4360.000000,4165.641113,4171.794922,4235.897461,450.000000,4.000000,,,,0.000000,4.000000,4.000000,4.000000,4.000000,4.000000,4.000000,0.000000,0.170672,-0.185547,0.874756,0.413818,0.520027,-0.576181,0.620127,5.804862,-46.832096,58.436626,,,,,,,,,,,,,,,,,,,,,,,,,
1577742532.786725,9.000000,0.000000,4216.410156,4333.846191,4174.871582,4200.512695,4255.384766,16202.000000,4.000000,,,,0.000000,4.000000,4.000000,4.000000,4.000000,4.000000,,,,,,,,,,,,,,,,,,,,,,,,,,,,,,,,,,,,,
1577742532.794521,10.000000,0.000000,4214.871582,4327.692383,4162.563965,4195.384766,4246.153809,450.000000,4.000000,,,,0.000000,4.000000,4.000000,4.000000,4.000000,4.000000,5.000000,0.000000,0.171065,-0.185791,0.874512,0.414063,0.517098,-0.573739,0.631357,6.181422,-46.814484,58.694130,,,,,,,,,,,,,,,,,,,,,,,,,
1577742532.802218,11.000000,0.000000,4206.666504,4353.846191,4159.487305,4178.461426,4233.333496,16212.000000,4.000000,,,,0.000000,4.000000,4.000000,4.000000,4.000000,4.000000,,,,,,,,,,,,,552.375916,78.568558,9.115654,4.005057,6.578141,1.562286,1.766541,1.378541,2.054539,4.434386,5.209093,11.672929,8.655729,3.109468,5.053191,5.053708,14.946191,11.272091,4.921469,6.704330,63.776199,30.972523,7.442878,4.944743,6.456771
1577742532.810015,12.000000,0.000000,4193.846191,4345.641113,4166.153809,4166.153809,4229.743652,450.000000,4.000000,,,,0.000000,4.000000,4.000000,4.000000,4.000000,4.000000,6.000000,0.000000,0.170672,-0.185547,0.874756,0.413818,0.520027,-0.576181,0.620127,6.281064,-46.918266,59.045517,,,,,,,,,,,,,,,,,,,,,,,,,
1577742532.817711,13.000000,0.000000,4186.153809,4322.051270,4164.615234,4158.461426,4232.820313,450.000000,4.000000,,,,0.000000,4.000000,4.000000,4.000000,4.000000,4.000000,,,,,,,,,,,,,,,,,,,,,,,,,,,,,,,,,,,,,
1577742532.825608,14.000000,0.000000,4214.358887,4340.512695,4180.000000,4180.512695,4256.410156,450.000000,4.000000,,,,0.000000,4.000000,4.000000,4.000000,4.000000,4.000000,7.000000,0.000000,0.170672,-0.185547,0.874756,0.413818,0.527352,-0.577157,0.621103,9.301695,-47.011669,59.182316,,,,,,,,,,,,,,,,,,,,,,,,,
1577742532.833404,15.000000,0.000000,4239.487305,4359.487305,4189.230957,4205.128418,4271.794922,16212.000000,4.000000,,,,0.000000,4.000000,4.000000,4.000000,4.000000,4.000000,,,,,,,,,,,,,,,,,,,,,,,,,,,,,,,,,,,,,
1577742532.841301,16.000000,0.000000,4209.230957,4337.436035,4146.153809,4175.384766,4235.897461,0.000000,4.000000,,,,0.000000,4.000000,4.000000,4.000000,4.000000,4.000000,8.000000,0.000000,0.170672,-0.185547,0.874756,0.413818,0.522957,-0.575204,0.615732,12.080078,-47.035915,59.484882,,,,,,,,,,,,,,,,,,,,,,,,,
1577742532.849097,17.000000,0.000000,4193.846191,4329.230957,4122.563965,4157.436035,4214.358887,0.000000,4.000000,,,,0.000000,4.000000,4.000000,4.000000,4.000000,4.000000,,,,,,,,,,,,,,,,,,,,,,,,,,,,,,,,,,,,,
1577742532.856993,18.000000,0.000000,4224.615234,4342.563965,4140.512695,4184.102539,4237.948730,0.000000,4.000000,,,,0.000000,4.000000,4.000000,4.000000,4.000000,4.000000,9.000000,0.000000,0.170672,-0.185547,0.874756,0.413818,0.528328,-0.566415,0.619638,7.821487,-46.938107,59.757191,,,,,,,,,,,,,,,,,,,,,,,,,
1577742532.864790,19.000000,0.000000,4233.846191,4338.974121,4132.307617,4181.025879,4242.563965,0.000000,4.000000,,,,0.000000,4.000000,4.000000,4.000000,4.000000,4.000000,,,,,,,,,,,,,,,,,,,,,,,,,,,,,,,,,,,,,
1577742532.872686,20.000000,0.000000,4222.051270,4330.769043,4117.948730,4153.333496,4228.717773,0.000000,4.000000,,,,0.000000,4.000000,4.000000,4.000000,4.000000,4.000000,10.000000,0.000000,0.170672,-0.185547,0.874756,0.413818,0.524910,-0.579599,0.624033,7.876753,-46.969711,59.942455,,,,,,,,,,,,,,,,,,,,,,,,,
1577742532.880583,21.000000,0.000000,4247.179688,4350.256348,4143.077148,4173.333496,4254.358887,0.000000,4.000000,,,,0.000000,4.000000,4.000000,4.000000,4.000000,4.000000,,,,,,,,,,,,,,,,,,,,,,,,,,,,,,,,,,,,,
1577742532.888379,22.000000,0.000000,4282.563965,4375.897461,4162.563965,4215.384766,4288.717773,0.000000,4.000000,,,,0.000000,4.000000,4.000000,4.000000,4.000000,4.000000,11.000000,0.000000,0.170672,-0.185547,0.874756,0.413818,0.518563,-0.582528,0.620127,7.971259,-46.904121,60.319073,,,,,,,,,,,,,,,,,,,,,,,,,
1577742532.896176,23.000000,0.000000,4273.846191,4355.384766,4144.615234,4210.256348,4275.897461,0.000000,4.000000,,,,0.000000,4.000000,4.000000,4.000000,4.000000,4.000000,,,,,,,,,,,,,,,,,,,,,,,,,,,,,,,,,,,,,
1577742532.904072,24.000000,0.000000,4265.641113,4322.563965,4139.487305,4193.846191,4258.461426,0.000000,4.000000,,,,0.000000,4.000000,4.000000,4.000000,4.000000,4.000000,12.000000,0.000000,0.170672,-0.185547,0.874756,0.413818,0.528817,-0.580087,0.618662,4.123549,-46.939121,58.474239,,,,,,,,,,,,,,,,,,,,,,,,,
1577742532.911969,25.000000,0.000000,4281.025879,4334.871582,4155.384766,4202.051270,4266.666504,0.000000,4.000000,,,,0.000000,4.000000,4.000000,4.000000,4.000000,4.000000,,,,,,,,,,,,,,,,,,,,,,,,,,,,,,,,,,,,,
1577742532.919765,26.000000,0.000000,4272.307617,4347.692383,4155.897461,4200.000000,4263.589844,0.000000,4.000000,,,,0.000000,4.000000,4.000000,4.000000,4.000000,4.000000,13.000000,0.000000,0.170406,-0.185791,0.874756,0.413818,0.514168,-0.574716,0.623545,4.608425,-46.970623,56.873707,,,,,,,,,,,,,,,,,,,,,,,,,
1577742532.927662,27.000000,0.000000,4241.025879,4321.025879,4137.436035,4172.820313,4237.948730,0.000000,4.000000,,,,0.000000,4.000000,4.000000,4.000000,4.000000,4.000000,,,,,,,,,,,,,563.909729,74.513474,9.165504,3.121859,6.018260,1.391054,1.594016,1.448013,1.895673,3.887077,4.116303,10.028794,8.178029,2.455354,4.599212,3.906199,13.243496,11.515883,4.041049,6.211604,58.842503,25.471079,7.500194,4.084470,5.937406
1577742532.935458,28.000000,0.000000,4233.846191,4314.871582,4127.179688,4156.922852,4224.102539,0.000000,4.000000,,,,0.000000,4.000000,4.000000,4.000000,4.000000,4.000000,14.000000,0.000000,0.170406,-0.185791,0.874756,0.413818,0.520516,-0.577157,0.621592,7.856135,-46.998974,57.407135,,,,,,,,,,,,,,,,,,,,,,,,,
1577742532.943355,29.000000,0.000000,4253.333496,4350.256348,4145.641113,4176.922852,4237.948730,0.000000,4.000000,,,,0.000000,4.000000,4.000000,4.000000,4.000000,4.000000,,,,,,,,,,,,,,,,,,,,,,,,,,,,,,,,,,,,,
1577742532.951151,30.000000,0.000000,4250.769043,4351.282227,4148.717773,4180.512695,4237.948730,0.000000,4.000000,,,,0.000000,4.000000,4.000000,4.000000,4.000000,4.000000,15.000000,0.000000,0.171655,-0.185791,0.874512,0.413818,0.519539,-0.563485,0.620615,4.019938,-47.024490,55.853497,,,,,,,,,,,,,,,,,,,,,,,,,
1577742532.959048,31.000000,0.000000,4215.897461,4325.128418,4113.846191,4139.487305,4205.128418,0.000000,4.000000,,,,0.000000,4.000000,4.000000,4.000000,4.000000,4.000000,,,,,,,,,,,,,,,,,,,,,,,,,,,,,,,,,,,,,
1577742532.966844,32.000000,0.000000,4219.487305,4339.487305,4108.205078,4132.820313,4203.589844,0.000000,4.000000,,,,0.000000,4.000000,4.000000,4.000000,4.000000,4.000000,16.000000,0.000000,0.171655,-0.185791,0.874512,0.413818,0.523934,-0.567880,0.628428,7.326497,-47.047455,56.548759,,,,,,,,,,,,,,,,,,,,,,,,,
1577742532.974741,33.000000,0.000000,4273.846191,4357.436035,4155.897461,4183.077148,4254.871582,0.000000,4.000000,,,,0.000000,4.000000,4.000000,4.000000,4.000000,4.000000,,,,,,,,,,,,,,,,,,,,,,,,,,,,,,,,,,,,,
1577742532.982537,34.000000,0.000000,4284.615234,4341.025879,4170.769043,4201.538574,4274.358887,0.000000,4.000000,,,,0.000000,4.000000,4.000000,4.000000,4.000000,4.000000,17.000000,0.000000,0.171655,-0.185791,0.874512,0.413818,0.517098,-0.573739,0.633310,10.242584,-47.008308,55.260406,,,,,,,,,,,,,,,,,,,,,,,,,
1577742532.990434,35.000000,0.000000,4259.487305,4341.538574,4148.717773,4185.641113,4255.897461,0.000000,4.000000,,,,0.000000,4.000000,4.000000,4.000000,4.000000,4.000000,,,,,,,,,,,,,,,,,,,,,,,,,,,,,,,,,,,,,
1577742532.998230,36.000000,0.000000,4277.436035,4360.512695,4162.563965,4202.051270,4270.256348,0.000000,4.000000,,,,0.000000,4.000000,4.000000,4.000000,4.000000,4.000000,18.000000,0.000000,0.171655,-0.185791,0.874512,0.413818,0.519539,-0.578622,0.628916,12.986694,-46.973076,56.014980,,,,,,,,,,,,,,,,,,,,,,,,,
1577742533.006126,37.000000,0.000000,4280.000000,4342.563965,4165.641113,4203.589844,4273.846191,0.000000,4.000000,,,,0.000000,4.000000,4.000000,4.000000,4.000000,4.000000,,,,,,,,,,,,,,,,,,,,,,,,,,,,,,,,,,,,,
1577742533.013923,38.000000,0.000000,4231.282227,4327.692383,4122.563965,4152.307617,4231.794922,0.000000,4.000000,,,,0.000000,4.000000,4.000000,4.000000,4.000000,4.000000,19.000000,0.000000,0.171330,-0.185547,0.874512,0.414063,0.521981,-0.578134,0.634775,15.336761,-47.001183,56.395016,,,,,,,,,,,,,,,,,,,,,,,,,
1577742533.021819,39.000000,0.000000,4218.461426,4348.717773,4112.820313,4129.743652,4217.948730,0.000000,4.000000,,,,0.000000,4.000000,4.000000,4.000000,4.000000,4.000000,,,,,,,,,,,,,,,,,,,,,,,,,,,,,,,,,,,,,
1577742533.029616,40.000000,0.000000,4241.025879,4348.205078,4134.358887,4153.333496,4237.948730,0.000000,4.000000,,,,0.000000,4.000000,4.000000,4.000000,4.000000,4.000000,20.000000,0.000000,0.171919,-0.185547,0.874512,0.413818,0.533700,-0.581552,0.621103,17.451822,-46.906849,55.002407,,,,,,,,,,,,,,,,,,,,,,,,,
1577742533.037512,41.000000,0.000000,4223.077148,4321.025879,4111.794922,4147.179688,4223.077148,0.000000,4.000000,,,,0.000000,4.000000,4.000000,4.000000,4.000000,4.000000,,,,,,,,,,,,,,,,,,,,,,,,,,,,,,,,,,,,,
1577742533.045309,42.000000,0.000000,4209.230957,4332.307617,4092.307617,4131.794922,4205.128418,0.000000,4.000000,,,,0.000000,4.000000,4.000000,4.000000,4.000000,4.000000,21.000000,0.000000,0.171330,-0.185547,0.874512,0.414063,0.521492,-0.577646,0.619150,16.544056,-46.881763,55.603333,,,,,,,,,,,,,,,,,,,,,,,,,
1577742533.053205,43.000000,0.000000,4251.794922,4374.358887,4130.256348,4164.615234,4240.512695,0.000000,4.000000,,,,0.000000,4.000000,4.000000,4.000000,4.000000,4.000000,,,,,,,,,,,,,509.309082,64.378044,9.052440,2.474067,5.526055,1.163416,1.436660,1.496561,1.713007,3.377955,3.413646,7.948672,7.452300,1.936165,4.171539,2.851541,11.225872,11.168039,3.290099,5.816078,49.242939,19.151684,7.692533,3.336827,5.474314
1577742533.061002,44.000000,0.000000,4283.589844,4369.743652,4153.333496,4192.307617,4267.692383,0.000000,4.000000,,,,0.000000,4.000000,4.000000,4.000000,4.000000,4.000000,22.000000,0.000000,0.171919,-0.185547,0.874512,0.413818,0.523934,-0.580087,0.619150,17.760788,-46.859184,56.383430,,,,,,,,,,,,,,,,,,,,,,,,,
1577742533.068898,45.000000,0.000000,4272.307617,4340.512695,4140.512695,4176.410156,4252.307617,0.000000,4.000000,,,,0.000000,4.000000,4.000000,4.000000,4.000000,4.000000,,,,,,,,,,,,,,,,,,,,,,,,,,,,,,,,,,,,,
1577742533.076695,46.000000,0.000000,4252.307617,4344.102539,4128.717773,4147.692383,4227.179688,0.000000,4.000000,,,,0.000000,4.000000,4.000000,4.000000,4.000000,4.000000,23.000000,0.000000,0.170937,-0.185303,0.874756,0.413818,0.521981,-0.570809,0.613779,16.762308,-46.898678,56.906067,,,,,,,,,,,,,,,,,,,,,,,,,
1577742533.084591,47.000000,0.000000,4237.436035,4342.051270,4116.922852,4129.743652,4208.717773,0.000000,4.000000,,,,0.000000,4.000000,4.000000,4.000000,4.000000,4.000000,,,,,,,,,,,,,,,,,,,,,,,,,,,,,,,,,,,,,
1577742533.092488,48.000000,0.000000,4229.230957,4316.922852,4106.666504,4125.641113,4199.487305,0.000000,4.000000,,,,0.000000,4.000000,4.000000,4.000000,4.000000,4.000000,24.000000,0.000000,0.170937,-0.185303,0.874756,0.413818,0.536141,-0.580575,0.640146,18.794630,-46.934227,57.436260,,,,,,,,,,,,,,,,,,,,,,,,,
1577742533.100284,49.000000,0.000000,4227.179688,4323.077148,4111.794922,4128.205078,4196.922852,0.000000,4.000000,,,,0.000000,4.000000,4.000000,4.000000,4.000000,4.000000,,,,,,,,,,,,,,,,,,,,,,,,,,,,,,,,,,,,,
1577742533.108181,50.000000,0.000000,4218.974121,4352.307617,4121.025879,4126.153809,4193.333496,0.000000,4.000000,,,,0.000000,4.000000,4.000000,4.000000,4.000000,4.000000,25.000000,0.000000,0.170937,-0.185303,0.874756,0.413818,0.521981,-0.574716,0.616220,17.752583,-47.026031,57.973248,,,,,,,,,,,,,,,,,,,,,,,,,
1577742533.115977,51.000000,0.000000,4200.512695,4341.025879,4108.205078,4112.307617,4178.461426,0.000000,4.000000,,,,0.000000,4.000000,4.000000,4.000000,4.000000,4.000000,,,,,,,,,,,,,,,,,,,,,,,,,,,,,,,,,,,,,
1577742533.123874,52.000000,0.000000,4194.358887,4316.922852,4091.281982,4102.563965,4167.692383,0.000000,4.000000,,,,0.000000,4.000000,4.000000,4.000000,4.000000,4.000000,26.000000,0.000000,0.171527,-0.185303,0.874756,0.413574,0.527352,-0.587900,0.619638,16.874556,-46.929211,58.396721,,,,,,,,,,,,,,,,,,,,,,,,,
1577742533.131670,53.000000,0.000000,4211.794922,4334.871582,4103.077148,4114.871582,4177.948730,0.000000,4.000000,,,,0.000000,4.000000,4.000000,4.000000,4.000000,4.000000,,,,,,,,,,,,,,,,,,,,,,,,,,,,,,,,,,,,,
1577742533.139566,54.000000,0.000000,4231.794922,4352.820313,4115.897461,4132.820313,4202.563965,0.000000,4.000000,,,,0.000000,4.000000,4.000000,4.000000,4.000000,4.000000,27.000000,0.000000,0.171201,-0.185059,0.874756,0.413818,0.523445,-0.589853,0.622080,15.964699,-46.901890,58.658215,,,,,,,,,,,,,,,,,,,,,,,,,
1577742533.147363,55.000000,0.000000,4220.512695,4330.769043,4095.897461,4126.153809,4202.563965,0.000000,4.000000,,,,0.000000,4.000000,4.000000,4.000000,4.000000,4.000000,,,,,,,,,,,,,,,,,,,,,,,,,,,,,,,,,,,,,
1577742533.155259,56.000000,0.000000,4194.871582,4320.512695,4073.846191,4110.256348,4181.025879,0.000000,4.000000,,,,0.000000,4.000000,4.000000,4.000000,4.000000,4.000000,28.000000,0.000000,0.171201,-0.185059,0.874756,0.413818,0.527352,-0.570809,0.612314,18.136597,-46.996929,59.073009,,,,,,,,,,,,,,,,,,,,,,,,,
1577742533.163056,57.000000,0.000000,4192.307617,4344.102539,4081.025635,4113.333496,4180.512695,0.000000,4.000000,,,,0.000000,4.000000,4.000000,4.000000,4.000000,4.000000,,,,,,,,,,,,,,,,,,,,,,,,,,,,,,,,,,,,,
1577742533.170952,58.000000,0.000000,4195.897461,4351.794922,4097.948730,4127.692383,4186.153809,0.000000,4.000000,,,,0.000000,4.000000,4.000000,4.000000,4.000000,4.000000,29.000000,0.000000,0.171201,-0.185059,0.874756,0.413818,0.540536,-0.579110,0.615732,17.160353,-46.843204,59.446320,,,,,,,,,,,,,,,,,,,,,,,,,
1577742533.178749,59.000000,0.000000,4198.461426,4343.589844,4112.307617,4136.922852,4186.153809,0.000000,4.000000,,,,0.000000,4.000000,4.000000,4.000000,4.000000,4.000000,,,,,,,,,,,,,404.332550,50.850716,8.806407,2.206042,5.173007,0.930149,1.357440,1.541404,1.557941,3.014513,3.403371,6.172048,6.660264,1.637696,3.823351,2.100482,9.657821,10.483248,2.841176,5.541296,37.644142,13.783690,7.974833,2.857965,5.122225
1577742533.186645,60.000000,0.000000,4218.461426,4346.666504,4129.230957,4144.102539,4203.589844,0.000000,4.000000,,,,0.000000,4.000000,4.000000,4.000000,4.000000,4.000000,30.000000,0.000000,0.171201,-0.185059,0.874756,0.413818,0.533211,-0.580087,0.618662,16.221918,-46.824482,59.602856,,,,,,,,,,,,,,,,,,,,,,,,,
1577742533.194442,61.000000,0.000000,4237.436035,4345.128418,4134.871582,4149.230957,4223.077148,0.000000,4.000000,,,,0.000000,4.000000,4.000000,4.000000,4.000000,4.000000,,,,,,,,,,,,,,,,,,,,,,,,,,,,,,,,,,,,,
1577742533.202338,62.000000,0.000000,4231.282227,4344.102539,4118.461426,4140.000000,4218.461426,0.000000,4.000000,,,,0.000000,4.000000,4.000000,4.000000,4.000000,4.000000,31.000000,0.000000,0.170874,-0.184814,0.874756,0.414063,0.522957,-0.581552,0.627939,15.496956,-46.867447,58.128723,,,,,,,,,,,,,,,,,,,,,,,,,
1577742533.210235,63.000000,0.000000,4209.230957,4350.769043,4097.948730,4115.384766,4195.384766,0.000000,4.000000,,,,0.000000,4.000000,4.000000,4.000000,4.000000,4.000000,,,,,,,,,,,,,,,,,,,,,,,,,,,,,,,,,,,,,
1577742533.218032,64.000000,0.000000,4198.974121,4345.641113,4097.948730,4102.563965,4181.538574,450.000000,4.000000,,,,0.000000,4.000000,4.000000,4.000000,4.000000,4.000000,32.000000,0.000000,0.170874,-0.184814,0.874756,0.414063,0.526375,-0.580575,0.615244,14.784676,-46.965931,56.502926,,,,,,,,,,,,,,,,,,,,,,,,,
1577742533.225928,65.000000,0.000000,4204.102539,4330.256348,4102.563965,4104.615234,4181.025879,450.000000,4.000000,,,,0.000000,4.000000,4.000000,4.000000,4.000000,4.000000,,,,,,,,,,,,,,,,,,,,,,,,,,,,,,,,,,,,,
1577742533.233825,66.000000,0.000000,4197.948730,4324.102539,4087.692383,4094.871826,4168.205078,16214.000000,4.000000,,,,0.000000,4.000000,4.000000,4.000000,4.000000,4.000000,33.000000,0.000000,0.171201,-0.185059,0.874756,0.413818,0.533211,-0.580087,0.618662,13.186577,-46.934937,56.953800,,,,,,,,,,,,,,,,,,,,,,,,,
1577742533.241622,67.000000,0.000000,4217.436035,4335.897461,4091.281982,4101.538574,4174.358887,450.000000,4.000000,,,,0.000000,4.000000,4.000000,4.000000,4.000000,4.000000,,,,,,,,,,,,,,,,,,,,,,,,,,,,,,,,,,,,,
1577742533.249518,68.000000,0.000000,4269.743652,4346.666504,4106.666504,4127.692383,4214.871582,16242.000000,4.000000,,,,0.000000,4.000000,4.000000,4.000000,4.000000,4.000000,34.000000,0.000000,0.170874,-0.184814,0.874756,0.414063,0.526375,-0.580575,0.615244,12.705335,-47.026672,55.445496,,,,,,,,,,,,,,,,,,,,,,,,,
1577742533.257315,69.000000,0.000000,4307.692383,4341.538574,4098.974121,4140.000000,4249.743652,450.000000,4.000000,,,,0.000000,4.000000,4.000000,4.000000,4.000000,4.000000,,,,,,,,,,,,,,,,,,,,,,,,,,,,,,,,,,,,,
1577742533.265212,70.000000,0.000000,4335.384766,4338.974121,4090.256348,4140.512695,4269.230957,16151.000000,4.000000,,,,0.000000,4.000000,4.000000,4.000000,4.000000,4.000000,35.000000,0.000000,0.171465,-0.184814,0.874756,0.413818,0.538582,-0.586923,0.618662,15.143353,-46.989605,56.002113,,,,,,,,,,,,,,,,,,,,,,,,,
1577742533.273008,71.000000,0.000000,4375.384766,4338.461426,4091.794922,4131.282227,4293.846191,450.000000,4.000000,,,,0.000000,4.000000,4.000000,4.000000,4.000000,4.000000,,,,,,,,,,,,,,,,,,,,,,,,,,,,,,,,,,,,,
1577742533.280905,72.000000,0.000000,4405.641113,4325.128418,4088.205078,4120.512695,4313.846191,450.000000,4.000000,,,,0.000000,4.000000,4.000000,4.000000,4.000000,4.000000,36.000000,0.000000,0.171465,-0.184814,0.874756,0.413818,0.527840,-0.583993,0.619638,17.277756,-46.956242,56.503071,,,,,,,,,,,,,,,,,,,,,,,,,
1577742533.288702,73.000000,0.000000,4420.512695,4322.051270,4090.256348,4120.512695,4323.589844,16205.000000,4.000000,,,,0.000000,4.000000,4.000000,4.000000,4.000000,4.000000,,,,,,,,,,,,,,,,,,,,,,,,,,,,,,,,,,,,,
1577742533.296598,74.000000,0.000000,4448.717773,4337.948730,4109.230957,4130.769043,4341.025879,450.000000,4.000000,,,,0.000000,4.000000,4.000000,4.000000,4.000000,4.000000,37.000000,0.000000,0.171465,-0.184814,0.874756,0.413818,0.532723,-0.593759,0.617197,16.507027,-47.045849,57.193192,,,,,,,,,,,,,,,,,,,,,,,,,
1577742533.304395,75.000000,0.000000,4441.538574,4318.461426,4098.974121,4104.102539,4320.000000,16216.000000,4.000000,,,,0.000000,4.000000,4.000000,4.000000,4.000000,4.000000,,,,,,,,,,,,,278.244141,37.089455,8.531047,2.314093,4.932539,0.758333,1.392027,1.584685,1.464566,2.822550,4.146306,5.229096,5.999871,1.576265,3.554038,1.726438,8.990840,9.798863,2.757027,5.320171,26.508110,10.420452,8.281216,2.692712,4.843757
1577742533.312292,76.000000,0.000000,4412.820313,4307.692383,4082.051270,4073.333252,4290.256348,450.000000,4.000000,,,,0.000000,4.000000,4.000000,4.000000,4.000000,4.000000,38.000000,0.000000,0.171201,-0.185059,0.874756,0.413818,0.513680,-0.577646,0.618173,15.693739,-47.066677,57.814301,,,,,,,,,,,,,,,,,,,,,,,,,
1577742533.320089,77.000000,0.000000,4434.871582,4349.743652,4111.794922,4101.538574,4316.410156,450.000000,4.000000,,,,0.000000,4.000000,4.000000,4.000000,4.000000,4.000000,,,,,,,,,,,,,,,,,,,,,,,,,,,,,,,,,,,,,
1577742533.327985,78.000000,0.000000,4462.563965,4359.487305,4143.077148,4148.205078,4347.692383,450.000000,4.000000,,,,0.000000,4.000000,4.000000,4.000000,4.000000,4.000000,39.000000,0.000000,0.170610,-0.185059,0.874756,0.414063,0.521004,-0.572274,0.613779,15.021595,-47.085423,58.134037,,,,,,,,,,,,,,,,,,,,,,,,,
1577742533.335782,79.000000,0.000000,4438.974121,4326.666504,4135.897461,4153.846191,4335.384766,16216.000000,4.000000,,,,0.000000,4.000000,4.000000,4.000000,4.000000,4.000000,,,,,,,,,,,,,,,,,,,,,,,,,,,,,,,,,,,,,
1577742533.343679,80.000000,0.000000,4388.205078,4322.563965,4117.948730,4127.179688,4298.461426,450.000000,4.000000,,,,0.000000,4.000000,4.000000,4.000000,4.000000,4.000000,40.000000,0.000000,0.171268,-0.185059,0.874512,0.414307,0.523445,-0.592294,0.612802,17.287804,-47.102295,58.661064,,,,,,,,,,,,,,,,,,,,,,,,,
1577742533.351476,81.000000,0.000000,4357.436035,4325.641113,4108.717773,4123.077148,4274.871582,450.000000,4.000000,,,,0.000000,4.000000,4.000000,4.000000,4.000000,4.000000,,,,,,,,,,,,,,,,,,,,,,,,,,,,,,,,,,,,,
1577742533.359372,82.000000,0.000000,4342.563965,4307.692383,4096.922852,4137.436035,4263.077148,450.000000,4.000000,,,,0.000000,4.000000,4.000000,4.000000,4.000000,4.000000,41.000000,0.000000,0.171003,-0.185303,0.874512,0.414307,0.527840,-0.587411,0.611826,16.516069,-47.057663,59.015755,,,,,,,,,,,,,,,,,,,,,,,,,
1577742533.367169,83.000000,0.000000,4323.589844,4312.820313,4088.205078,4133.333496,4248.205078,16216.000000,4.000000,,,,0.000000,4.000000,4.000000,4.000000,4.000000,4.000000,,,,,,,,,,,,,,,,,,,,,,,,,,,,,,,,,,,,,
1577742533.375066,84.000000,0.000000,4295.897461,4319.487305,4082.564209,4112.820313,4226.153809,450.000000,4.000000,,,,0.000000,4.000000,4.000000,4.000000,4.000000,4.000000,42.000000,0.000000,0.171984,-0.185547,0.874268,0.414307,0.523445,-0.581064,0.616709,14.625201,-47.077312,59.275162,,,,,,,,,,,,,,,,,,,,,,,,,
1577742533.382862,85.000000,0.000000,4283.077148,4306.666504,4083.076904,4108.205078,4216.922852,450.000000,4.000000,,,,0.000000,4.000000,4.000000,4.000000,4.000000,4.000000,,,,,,,,,,,,,,,,,,,,,,,,,,,,,,,,,,,,,
1577742533.390759,86.000000,0.000000,4308.205078,4331.794922,4112.307617,4138.461426,4241.538574,450.000000,4.000000,,,,0.000000,4.000000,4.000000,4.000000,4.000000,4.000000,43.000000,0.000000,0.171130,-0.185791,0.874268,0.414551,0.525887,-0.588876,0.618662,10.171912,-47.094994,59.568443,,,,,,,,,,,,,,,,,,,,,,,,,
1577742533.398656,87.000000,0.000000,4312.820313,4352.820313,4131.282227,4151.282227,4256.410156,16216.000000,4.000000,,,,0.000000,4.000000,4.000000,4.000000,4.000000,4.000000,,,,,,,,,,,,,,,,,,,,,,,,,,,,,,,,,,,,,
1577742533.406452,88.000000,0.000000,4269.743652,4317.436035,4107.179688,4120.512695,4232.820313,450.000000,4.000000,,,,0.000000,4.000000,4.000000,4.000000,4.000000,4.000000,44.000000,0.000000,0.172109,-0.186035,0.874023,0.414551,0.518074,-0.590829,0.613291,9.932321,-46.991280,59.712769,,,,,,,,,,,,,,,,,,,,,,,,,
1577742533.414349,89.000000,0.000000,4262.563965,4303.589844,4110.769043,4118.974121,4223.077148,450.000000,4.000000,,,,0.000000,4.000000,4.000000,4.000000,4.000000,4.000000,,,,,,,,,,,,,,,,,,,,,,,,,,,,,,,,,,,,,
1577742533.422146,90.000000,0.000000,4295.384766,4333.846191,4143.077148,4155.384766,4245.641113,450.000000,4.000000,,,,0.000000,4.000000,4.000000,4.000000,4.000000,4.000000,45.000000,0.000000,0.171520,-0.186035,0.874023,0.414795,0.509773,-0.568856,0.622568,11.870042,-47.017563,59.962288,,,,,,,,,,,,,,,,,,,,,,,,,
1577742533.429943,91.000000,0.000000,4254.871582,4310.769043,4106.153809,4121.538574,4209.743652,16216.000000,4.000000,,,,0.000000,4.000000,4.000000,4.000000,4.000000,4.000000,,,,,,,,,,,,,162.531189,25.386227,8.324031,2.652905,4.721256,0.692633,1.506242,1.599926,1.430174,2.760139,5.226433,5.220174,5.570485,1.700636,3.334185,1.655937,9.155350,9.301768,2.954565,5.058246,17.245596,9.008264,8.508697,2.765366,4.558086
1577742533.437839,92.000000,0.000000,4201.538574,4285.128418,4062.051270,4075.384521,4156.410156,450.000000,4.000000,,,,0.000000,4.000000,4.000000,4.000000,4.000000,4.000000,46.000000,0.000000,0.170662,-0.186279,0.874023,0.415039,0.519539,-0.592782,0.611826,11.460637,-46.981407,60.067226,,,,,,,,,,,,,,,,,,,,,,,,,
1577742533.445636,93.000000,0.000000,4252.820313,4325.128418,4109.230957,4138.974121,4203.589844,450.000000,4.000000,,,,0.000000,4.000000,4.000000,4.000000,4.000000,4.000000,,,,,,,,,,,,,,,,,,,,,,,,,,,,,,,,,,,,,
1577742533.453532,94.000000,0.000000,4307.179688,4340.000000,4153.333496,4203.589844,4263.589844,450.000000,4.000000,,,,0.000000,4.000000,4.000000,4.000000,4.000000,4.000000,47.000000,0.000000,0.171908,-0.186279,0.873779,0.415039,0.522469,-0.587900,0.617685,7.323805,-47.008678,58.367210,,,,,,,,,,,,,,,,,,,,,,,,,
1577742533.461329,95.000000,0.000000,4274.358887,4312.307617,4119.487305,4165.128418,4235.384766,16216.000000,4.000000,,,,0.000000,4.000000,4.000000,4.000000,4.000000,4.000000,,,,,,,,,,,,,,,,,,,,,,,,,,,,,,,,,,,,,
1577742533.469225,96.000000,0.000000,4227.692383,4298.461426,4089.230713,4113.333496,4185.128418,450.000000,4.000000,,,,0.000000,4.000000,4.000000,4.000000,4.000000,4.000000,48.000000,0.000000,0.171643,-0.186523,0.873779,0.415039,0.529793,-0.575204,0.623545,10.240162,-46.973412,58.691471,,,,,,,,,,,,,,,,,,,,,,,,,
1577742533.477122,97.000000,0.000000,4196.410156,4294.358887,4085.128174,4092.820557,4150.769043,450.000000,4.000000,,,,0.000000,4.000000,4.000000,4.000000,4.000000,4.000000,,,,,,,,,,,,,,,,,,,,,,,,,,,,,,,,,,,,,
1577742533.484918,98.000000,0.000000,4174.871582,4301.025879,4083.589844,4081.025635,4129.230957,450.000000,4.000000,,,,0.000000,4.000000,4.000000,4.000000,4.000000,4.000000,49.000000,0.000000,0.171051,-0.186523,0.873779,0.415283,0.517098,-0.582040,0.620615,10.173192,-47.001484,57.188847,,,,,,,,,,,,,,,,,,,,,,,,,
1577742533.492815,99.000000,0.000000,4198.974121,4327.179688,4113.333496,4106.666504,4150.256348,16216.000000,4.000000,,,,0.000000,4.000000,4.000000,4.000000,4.000000,4.000000,,,,,,,,,,,,,,,,,,,,,,,,,,,,,,,,,,,,,
1577742533.500612,100.000000,0.000000,4220.512695,4320.000000,4137.948730,4129.743652,4168.205078,450.000000,4.000000,,,,0.000000,4.000000,4.000000,4.000000,4.000000,4.000000,50.000000,0.000000,0.171051,-0.186523,0.873779,0.415283,0.515145,-0.581552,0.615244,9.993288,-47.026749,57.690762,,,,,,,,,,,,,,,,,,,,,,,,,
1577742533.508508,101.000000,0.000000,4201.538574,4300.512695,4123.077148,4107.692383,4148.205078,450.000000,4.000000,,,,0.000000,4.000000,4.000000,4.000000,4.000000,4.000000,,,,,,,,,,,,,,,,,,,,,,,,,,,,,,,,,,,,,
1577742533.516405,102.000000,0.000000,4211.282227,4321.538574,4127.692383,4113.846191,4156.410156,450.000000,4.000000,,,,0.000000,4.000000,4.000000,4.000000,4.000000,4.000000,51.000000,0.000000,0.171704,-0.186523,0.873535,0.415527,0.522469,-0.583993,0.629404,9.831374,-46.929855,56.288204,,,,,,,,,,,,,,,,,,,,,,,,,
1577742533.524202,103.000000,0.000000,4250.769043,4327.692383,4161.025879,4160.000000,4195.384766,16216.000000,4.000000,,,,0.000000,4.000000,4.000000,4.000000,4.000000,4.000000,,,,,,,,,,,,,,,,,,,,,,,,,,,,,,,,,,,,,
1577742533.531999,104.000000,0.000000,4247.179688,4301.025879,4156.410156,4165.128418,4194.871582,450.000000,4.000000,,,,0.000000,4.000000,4.000000,4.000000,4.000000,4.000000,52.000000,0.000000,0.171704,-0.186523,0.873535,0.415527,0.523445,-0.585946,0.623056,5.737838,-46.842655,56.820366,,,,,,,,,,,,,,,,,,,,,,,,,
1577742533.539895,105.000000,0.000000,4223.077148,4296.410156,4135.897461,4144.102539,4173.846191,450.000000,4.000000,,,,0.000000,4.000000,4.000000,4.000000,4.000000,4.000000,,,,,,,,,,,,,,,,,,,,,,,,,,,,,,,,,,,,,
1577742533.547692,106.000000,0.000000,4238.461426,4317.436035,4155.897461,4164.615234,4187.692383,450.000000,4.000000,,,,0.000000,4.000000,4.000000,4.000000,4.000000,4.000000,53.000000,0.000000,0.171704,-0.186523,0.873535,0.415527,0.526375,-0.594736,0.615732,2.113470,-47.003433,57.359131,,,,,,,,,,,,,,,,,,,,,,,,,
1577742533.555589,107.000000,0.000000,4236.922852,4307.179688,4160.000000,4170.769043,4188.717773,16216.000000,4.000000,,,,0.000000,4.000000,4.000000,4.000000,4.000000,4.000000,,,,,,,,,,,,,78.657898,17.306662,8.251074,3.008614,4.457875,0.718283,1.640101,1.573154,1.417884,2.757028,6.256842,5.868429,5.372470,1.901228,3.129821,1.761790,9.715456,8.982276,3.241107,4.695066,10.889449,8.915716,8.592911,2.917139,4.201700
1577742533.563386,108.000000,0.000000,4205.641113,4276.922852,4126.666504,4133.846191,4158.461426,450.000000,4.000000,,,,0.000000,4.000000,4.000000,4.000000,4.000000,4.000000,54.000000,0.000000,0.171704,-0.186523,0.873535,0.415527,0.530282,-0.584970,0.618173,2.799354,-46.908875,57.724384,,,,,,,,,,,,,,,,,,,,,,,,,
1577742533.571282,109.000000,0.000000,4205.128418,4278.974121,4115.384766,4117.436035,4149.743652,450.000000,4.000000,,,,0.000000,4.000000,4.000000,4.000000,4.000000,4.000000,,,,,,,,,,,,,,,,,,,,,,,,,,,,,,,,,,,,,
1577742533.579079,110.000000,0.000000,4209.743652,4298.461426,4116.922852,4115.897461,4144.102539,450.000000,4.000000,,,,0.000000,4.000000,4.000000,4.000000,4.000000,4.000000,55.000000,0.000000,0.171317,-0.186279,0.873779,0.415283,0.520516,-0.589364,0.622568,6.287786,-46.823769,56.258652,,,,,,,,,,,,,,,,,,,,,,,,,
1577742533.586976,111.000000,0.000000,4198.974121,4290.769043,4112.307617,4108.205078,4127.692383,16216.000000,4.000000,,,,0.000000,4.000000,4.000000,4.000000,4.000000,4.000000,,,,,,,,,,,,,,,,,,,,,,,,,,,,,,,,,,,,,
1577742533.594772,112.000000,0.000000,4229.743652,4284.615234,4138.974121,4133.846191,4157.948730,450.000000,4.000000,,,,0.000000,4.000000,4.000000,4.000000,4.000000,4.000000,56.000000,0.000000,0.171317,-0.186279,0.873779,0.415283,0.529793,-0.579110,0.621592,6.556238,-46.986439,56.733955,,,,,,,,,,,,,,,,,,,,,,,,,
1577742533.602669,113.000000,0.000000,4267.692383,4306.666504,4165.128418,4167.692383,4200.512695,450.000000,4.000000,,,,0.000000,4.000000,4.000000,4.000000,4.000000,4.000000,,,,,,,,,,,,,,,,,,,,,,,,,,,,,,,,,,,,,
1577742533.610466,114.000000,0.000000,4241.538574,4307.179688,4146.666504,4144.615234,4175.897461,450.000000,4.000000,,,,0.000000,4.000000,4.000000,4.000000,4.000000,4.000000,57.000000,0.000000,0.171908,-0.186279,0.873779,0.415039,0.535653,-0.576181,0.629892,2.730400,-47.013206,57.281357,,,,,,,,,,,,,,,,,,,,,,,,,
1577742533.618362,115.000000,0.000000,4219.487305,4289.230957,4142.051270,4124.102539,4151.794922,16216.000000,4.000000,,,,0.000000,4.000000,4.000000,4.000000,4.000000,4.000000,,,,,,,,,,,,,,,,,,,,,,,,,,,,,,,,,,,,,
1577742533.626159,116.000000,0.000000,4263.077148,4300.000000,4183.077148,4171.282227,4195.897461,450.000000,4.000000,,,,0.000000,4.000000,4.000000,4.000000,4.000000,4.000000,58.000000,0.000000,0.170662,-0.186279,0.874023,0.415039,0.540536,-0.584482,0.621103,-0.533408,-47.037300,57.654388,,,,,,,,,,,,,,,,,,,,,,,,,
1577742533.634056,117.000000,0.000000,4289.743652,4318.974121,4193.846191,4201.538574,4221.025879,450.000000,4.000000,,,,0.000000,4.000000,4.000000,4.000000,4.000000,4.000000,,,,,,,,,,,,,,,,,,,,,,,,,,,,,,,,,,,,,
1577742533.641852,118.000000,0.000000,4232.307617,4296.922852,4138.974121,4142.051270,4159.487305,450.000000,4.000000,,,,0.000000,4.000000,4.000000,4.000000,4.000000,4.000000,59.000000,0.000000,0.171255,-0.186279,0.874023,0.414795,0.536141,-0.581552,0.620127,3.168670,-47.118801,58.049931,,,,,,,,,,,,,,,,,,,,,,,,,
1577742533.649749,119.000000,0.000000,4178.461426,4271.282227,4094.871826,4088.205078,4107.179688,16216.000000,4.000000,,,,0.000000,4.000000,4.000000,4.000000,4.000000,4.000000,,,,,,,,,,,,,,,,,,,,,,,,,,,,,,,,,,,,,
1577742533.657645,120.000000,0.000000,4211.794922,4293.846191,4108.717773,4121.025879,4146.153809,450.000000,4.000000,,,,0.000000,4.000000,4.000000,4.000000,4.000000,4.000000,60.000000,0.000000,0.172496,-0.186279,0.873779,0.414795,0.540536,-0.586923,0.626963,3.749033,-47.072517,58.585369,,,,,,,,,,,,,,,,,,,,,,,,,
1577742533.665442,121.000000,0.000000,4260.000000,4331.282227,4140.000000,4167.692383,4205.128418,450.000000,4.000000,,,,0.000000,4.000000,4.000000,4.000000,4.000000,4.000000,,,,,,,,,,,,,,,,,,,,,,,,,,,,,,,,,,,,,
1577742533.673339,122.000000,0.000000,4263.589844,4327.692383,4145.641113,4170.256348,4217.436035,450.000000,4.000000,,,,0.000000,4.000000,4.000000,4.000000,4.000000,4.000000,61.000000,0.000000,0.172232,-0.186523,0.873779,0.414795,0.525399,-0.574716,0.618662,4.211545,-46.971050,57.093353,,,,,,,,,,,,,,,,,,,,,,,,,
1577742533.681135,123.000000,0.000000,4230.256348,4294.871582,4111.282227,4136.410156,4180.000000,16216.000000,4.000000,,,,0.000000,4.000000,4.000000,4.000000,4.000000,4.000000,,,,,,,,,,,,,34.860378,13.212464,8.419259,3.195246,4.133443,0.800582,1.727829,1.543881,1.383491,2.760681,6.640480,6.690473,5.377218,2.055727,2.938115,1.932267,10.156211,8.719701,3.411794,4.264120,8.232109,9.468352,8.635366,3.009998,3.792383
1577742533.689032,124.000000,0.000000,4203.077148,4284.615234,4090.769287,4111.794922,4146.666504,450.000000,4.000000,,,,0.000000,4.000000,4.000000,4.000000,4.000000,4.000000,62.000000,0.000000,0.171255,-0.186279,0.874023,0.414795,0.536141,-0.581552,0.620127,6.661528,-46.879726,57.604816,,,,,,,,,,,,,,,,,,,,,,,,,
1577742533.696829,125.000000,0.000000,4225.128418,4290.256348,4123.589844,4148.205078,4176.410156,450.000000,4.000000,,,,0.000000,4.000000,4.000000,4.000000,4.000000,4.000000,,,,,,,,,,,,,,,,,,,,,,,,,,,,,,,,,,,,,
1577742533.704726,126.000000,0.000000,4249.230957,4298.461426,4145.128418,4186.153809,4210.256348,450.000000,4.000000,,,,0.000000,4.000000,4.000000,4.000000,4.000000,4.000000,63.000000,0.000000,0.172232,-0.186523,0.873779,0.414795,0.525399,-0.574716,0.618662,6.832790,-46.797539,56.210854,,,,,,,,,,,,,,,,,,,,,,,,,
1577742533.712522,127.000000,0.000000,4215.897461,4298.974121,4110.769043,4147.692383,4173.846191,236.000000,4.000000,,,,0.000000,4.000000,4.000000,4.000000,4.000000,4.000000,,,,,,,,,,,,,,,,,,,,,,,,,,,,,,,,,,,,,
1577742533.720419,0.000000,0.000000,4191.282227,4294.871582,4090.256348,4112.820313,4141.538574,450.000000,4.000000,,,,0.000000,4.000000,4.000000,4.000000,4.000000,4.000000,0.000000,0.000000,0.172232,-0.186523,0.873779,0.414795,0.534188,-0.573251,0.606943,9.798248,-46.783382,56.750751,,,,,,,,,,,,,,,,,,,,,,,,,
1577742533.728216,1.000000,0.000000,4233.333496,4314.871582,4127.179688,4160.512695,4185.641113,450.000000,4.000000,,,,0.000000,4.000000,4.000000,4.000000,4.000000,4.000000,,,,,,,,,,,,,,,,,,,,,,,,,,,,,,,,,,,,,
1577742533.736112,2.000000,0.000000,4262.563965,4325.641113,4153.333496,4198.461426,4223.589844,16212.000000,4.000000,,,,0.000000,4.000000,4.000000,4.000000,4.000000,4.000000,1.000000,0.000000,0.171967,-0.186768,0.873779,0.414795,0.526375,-0.575692,0.616220,9.596024,-46.710827,57.176846,,,,,,,,,,,,,,,,,,,,,,,,,
1577742533.743909,3.000000,0.000000,4244.102539,4306.666504,4137.948730,4173.333496,4206.666504,450.000000,4.000000,,,,0.000000,4.000000,4.000000,4.000000,4.000000,4.000000,,,,,,,,,,,,,,,,,,,,,,,,,,,,,,,,,,,,,
1577742533.751806,4.000000,0.000000,4228.205078,4289.743652,4119.487305,4150.769043,4186.666504,16245.000000,4.000000,,,,0.000000,4.000000,4.000000,4.000000,4.000000,4.000000,2.000000,0.000000,0.171436,-0.187256,0.873779,0.414795,0.525887,-0.573251,0.612314,5.765284,-46.765160,57.739773,,,,,,,,,,,,,,,,,,,,,,,,,
1577742533.759603,5.000000,0.000000,4230.769043,4283.077148,4112.820313,4150.769043,4185.641113,450.000000,4.000000,,,,0.000000,4.000000,4.000000,4.000000,4.000000,4.000000,,,,,,,,,,,,,,,,,,,,,,,,,,,,,,,,,,,,,
1577742533.767499,6.000000,0.000000,4233.333496,4290.769043,4109.230957,4145.128418,4183.077148,16150.000000,4.000000,,,,0.000000,4.000000,4.000000,4.000000,4.000000,4.000000,3.000000,0.000000,0.172144,-0.187744,0.873535,0.414795,0.532723,-0.583993,0.610849,2.257802,-46.694427,58.186596,,,,,,,,,,,,,,,,,,,,,,,,,
1577742533.775296,7.000000,0.000000,4227.692383,4320.000000,4110.769043,4140.512695,4173.846191,450.000000,4.000000,,,,0.000000,4.000000,4.000000,4.000000,4.000000,4.000000,,,,,,,,,,,,,,,,,,,,,,,,,,,,,,,,,,,,,
1577742533.783193,8.000000,0.000000,4230.256348,4319.487305,4116.410156,4143.589844,4169.743652,450.000000,4.000000,,,,0.000000,4.000000,4.000000,4.000000,4.000000,4.000000,4.000000,0.000000,0.171878,-0.187988,0.873535,0.414795,0.515633,-0.581064,0.621103,1.912391,-46.750397,58.588734,,,,,,,,,,,,,,,,,,,,,,,,,
1577742533.790989,9.000000,0.000000,4234.871582,4290.769043,4115.384766,4145.128418,4175.897461,16197.000000,4.000000,,,,0.000000,4.000000,4.000000,4.000000,4.000000,4.000000,,,,,,,,,,,,,,,,,,,,,,,,,,,,,,,,,,,,,
1577742533.798886,10.000000,0.000000,4232.820313,4299.487305,4117.948730,4144.102539,4178.974121,450.000000,4.000000,,,,0.000000,4.000000,4.000000,4.000000,4.000000,4.000000,5.000000,0.000000,0.172582,-0.188477,0.873291,0.414795,0.525399,-0.586923,0.631357,5.310074,-46.800770,58.771210,,,,,,,,,,,,,,,,,,,,,,,,,
1577742533.806683,11.000000,0.000000,4228.717773,4317.948730,4128.205078,4142.563965,4167.692383,16214.000000,4.000000,,,,0.000000,4.000000,4.000000,4.000000,4.000000,4.000000,,,,,,,,,,,,,26.012354,12.697513,8.766416,3.212146,3.814932,0.889540,1.731067,1.549363,1.311414,2.744871,6.200652,7.319650,5.431348,2.139422,2.788538,2.070436,10.254748,8.374386,3.429619,3.877355,9.623573,10.379475,8.710288,3.060751,3.418132
1577742533.814580,12.000000,0.000000,4229.743652,4311.794922,4140.512695,4147.179688,4154.871582,450.000000,4.000000,,,,0.000000,4.000000,4.000000,4.000000,4.000000,4.000000,6.000000,0.000000,0.172315,-0.188721,0.873291,0.414795,0.518074,-0.574228,0.622080,5.496851,-46.846107,58.995258,,,,,,,,,,,,,,,,,,,,,,,,,
1577742533.822476,13.000000,0.000000,4223.589844,4294.871582,4136.922852,4146.666504,4149.230957,450.000000,4.000000,,,,0.000000,4.000000,4.000000,4.000000,4.000000,4.000000,,,,,,,,,,,,,,,,,,,,,,,,,,,,,,,,,,,,,
1577742533.830273,14.000000,0.000000,4197.948730,4280.512695,4115.384766,4121.025879,4132.307617,450.000000,4.000000,,,,0.000000,4.000000,4.000000,4.000000,4.000000,4.000000,7.000000,0.000000,0.171457,-0.188965,0.873291,0.415039,0.524422,-0.580575,0.633310,5.724766,-46.827095,59.495975,,,,,,,,,,,,,,,,,,,,,,,,,
1577742533.838170,15.000000,0.000000,4202.563965,4302.563965,4126.153809,4118.974121,4138.974121,16214.000000,4.000000,,,,0.000000,4.000000,4.000000,4.000000,4.000000,4.000000,,,,,,,,,,,,,,,,,,,,,,,,,,,,,,,,,,,,,
1577742533.845966,16.000000,0.000000,4249.743652,4339.487305,4165.641113,4161.538574,4190.256348,0.000000,4.000000,,,,0.000000,4.000000,4.000000,4.000000,4.000000,4.000000,8.000000,0.000000,0.172696,-0.188965,0.873047,0.415039,0.535164,-0.561044,0.626963,8.860842,-46.869801,57.793270,,,,,,,,,,,,,,,,,,,,,,,,,
1577742533.853863,17.000000,0.000000,4260.000000,4317.436035,4156.922852,4168.205078,4208.205078,0.000000,4.000000,,,,0.000000,4.000000,4.000000,4.000000,4.000000,4.000000,,,,,,,,,,,,,,,,,,,,,,,,,,,,,,,,,,,,,
1577742533.861660,18.000000,0.000000,4217.436035,4278.461426,4114.871582,4120.000000,4165.128418,0.000000,4.000000,,,,0.000000,4.000000,4.000000,4.000000,4.000000,4.000000,9.000000,0.000000,0.172108,-0.188965,0.873047,0.415283,0.514168,-0.566415,0.623545,10.845896,-46.728786,58.294556,,,,,,,,,,,,,,,,,,,,,,,,,
1577742533.869457,19.000000,0.000000,4200.512695,4301.538574,4113.333496,4095.897461,4140.000000,0.000000,4.000000,,,,0.000000,4.000000,4.000000,4.000000,4.000000,4.000000,,,,,,,,,,,,,,,,,,,,,,,,,,,,,,,,,,,,,
1577742533.877353,20.000000,0.000000,4241.025879,4337.948730,4160.512695,4145.128418,4185.641113,0.000000,4.000000,,,,0.000000,4.000000,4.000000,4.000000,4.000000,4.000000,10.000000,0.000000,0.172376,-0.188721,0.873047,0.415283,0.517586,-0.573251,0.609384,13.469858,-46.841137,58.925159,,,,,,,,,,,,,,,,,,,,,,,,,
1577742533.885250,21.000000,0.000000,4289.230957,4323.589844,4198.974121,4208.205078,4244.615234,0.000000,4.000000,,,,0.000000,4.000000,4.000000,4.000000,4.000000,4.000000,,,,,,,,,,,,,,,,,,,,,,,,,,,,,,,,,,,,,
1577742533.893046,22.000000,0.000000,4295.897461,4301.025879,4190.256348,4207.179688,4248.205078,0.000000,4.000000,,,,0.000000,4.000000,4.000000,4.000000,4.000000,4.000000,11.000000,0.000000,0.171404,-0.188477,0.873291,0.415283,0.512215,-0.585946,0.623056,15.771610,-46.882439,59.133812,,,,,,,,,,,,,,,,,,,,,,,,,
1577742533.900943,23.000000,0.000000,4288.717773,4317.436035,4169.743652,4183.589844,4236.922852,0.000000,4.000000,,,,0.000000,4.000000,4.000000,4.000000,4.000000,4.000000,,,,,,,,,,,,,,,,,,,,,,,,,,,,,,,,,,,,,
1577742533.908740,24.000000,0.000000,4305.128418,4333.333496,4173.333496,4192.820313,4255.897461,0.000000,4.000000,,,,0.000000,4.000000,4.000000,4.000000,4.000000,4.000000,12.000000,0.000000,0.171672,-0.188232,0.873291,0.415283,0.522469,-0.593759,0.611826,14.912233,-46.919609,59.441227,,,,,,,,,,,,,,,,,,,,,,,,,
1577742533.916637,25.000000,0.000000,4310.256348,4303.589844,4169.743652,4190.256348,4260.000000,0.000000,4.000000,,,,0.000000,4.000000,4.000000,4.000000,4.000000,4.000000,,,,,,,,,,,,,,,,,,,,,,,,,,,,,,,,,,,,,
1577742533.924533,26.000000,0.000000,4272.820313,4271.282227,4138.974121,4151.794922,4224.102539,0.000000,4.000000,,,,0.000000,4.000000,4.000000,4.000000,4.000000,4.000000,13.000000,0.000000,0.171348,-0.187988,0.873291,0.415527,0.525399,-0.579599,0.609873,14.198609,-47.012878,59.777718,,,,,,,,,,,,,,,,,,,,,,,,,
1577742533.932330,27.000000,0.000000,4242.051270,4275.384766,4122.051270,4123.589844,4196.922852,0.000000,4.000000,,,,0.000000,4.000000,4.000000,4.000000,4.000000,4.000000,,,,,,,,,,,,,36.270332,13.843436,9.301290,3.148899,3.597967,0.939704,1.667056,1.623114,1.217806,2.696338,5.075547,7.736286,5.457633,2.182055,2.715074,2.148882,10.164963,8.053411,3.360396,3.659488,13.941633,11.408505,9.024519,3.129450,3.186111
1577742533.940127,28.000000,0.000000,4242.051270,4292.820313,4126.666504,4114.358887,4191.794922,0.000000,4.000000,,,,0.000000,4.000000,4.000000,4.000000,4.000000,4.000000,14.000000,0.000000,0.171939,-0.187988,0.873291,0.415283,0.524422,-0.576669,0.618662,16.427486,-46.917374,59.841297,,,,,,,,,,,,,,,,,,,,,,,,,
1577742533.948023,29.000000,0.000000,4238.461426,4308.205078,4129.230957,4110.769043,4184.102539,0.000000,4.000000,,,,0.000000,4.000000,4.000000,4.000000,4.000000,4.000000,,,,,,,,,,,,,,,,,,,,,,,,,,,,,,,,,,,,,
1577742533.955820,30.000000,0.000000,4215.897461,4306.153809,4127.692383,4100.000000,4166.153809,0.000000,4.000000,,,,0.000000,4.000000,4.000000,4.000000,4.000000,4.000000,15.000000,0.000000,0.171939,-0.187988,0.873291,0.415283,0.517098,-0.606943,0.628428,11.734154,-46.891235,60.077969,,,,,,,,,,,,,,,,,,,,,,,,,
1577742533.963717,31.000000,0.000000,4218.461426,4300.000000,4141.538574,4108.205078,4168.717773,0.000000,4.000000,,,,0.000000,4.000000,4.000000,4.000000,4.000000,4.000000,,,,,,,,,,,,,,,,,,,,,,,,,,,,,,,,,,,,,
1577742533.971613,32.000000,0.000000,4298.461426,4332.820313,4203.077148,4192.820313,4241.538574,0.000000,4.000000,,,,0.000000,4.000000,4.000000,4.000000,4.000000,4.000000,16.000000,0.000000,0.171939,-0.187988,0.873291,0.415283,0.518563,-0.586435,0.618173,11.338338,-47.106972,60.350784,,,,,,,,,,,,,,,,,,,,,,,,,
1577742533.979410,33.000000,0.000000,4370.769043,4354.871582,4251.794922,4266.666504,4309.743652,0.000000,4.000000,,,,0.000000,4.000000,4.000000,4.000000,4.000000,4.000000,,,,,,,,,,,,,,,,,,,,,,,,,,,,,,,,,,,,,
1577742533.987207,34.000000,0.000000,4329.230957,4313.846191,4211.282227,4217.948730,4267.179688,0.000000,4.000000,,,,0.000000,4.000000,4.000000,4.000000,4.000000,4.000000,17.000000,0.000000,0.171287,-0.187988,0.873535,0.415039,0.530770,-0.591806,0.613291,11.041920,-47.121689,60.476688,,,,,,,,,,,,,,,,,,,,,,,,,
1577742533.995104,35.000000,0.000000,4264.615234,4284.102539,4158.461426,4147.692383,4195.384766,0.000000,4.000000,,,,0.000000,4.000000,4.000000,4.000000,4.000000,4.000000,,,,,,,,,,,,,,,,,,,,,,,,,,,,,,,,,,,,,
1577742534.002900,36.000000,0.000000,4267.692383,4297.948730,4171.794922,4153.846191,4194.871582,0.000000,4.000000,,,,0.000000,4.000000,4.000000,4.000000,4.000000,4.000000,18.000000,0.000000,0.171878,-0.187988,0.873535,0.414795,0.537606,-0.579110,0.622080,6.887144,-47.015301,58.616096,,,,,,,,,,,,,,,,,,,,,,,,,
1577742534.010797,37.000000,0.000000,4270.769043,4294.358887,4182.563965,4160.000000,4199.487305,0.000000,4.000000,,,,0.000000,4.000000,4.000000,4.000000,4.000000,4.000000,,,,,,,,,,,,,,,,,,,,,,,,,,,,,,,,,,,,,
1577742534.018594,38.000000,0.000000,4238.974121,4292.307617,4150.769043,4123.589844,4166.153809,0.000000,4.000000,,,,0.000000,4.000000,4.000000,4.000000,4.000000,4.000000,19.000000,0.000000,0.172466,-0.187988,0.873535,0.414551,0.534676,-0.570809,0.604990,9.847167,-47.158817,58.915466,,,,,,,,,,,,,,,,,,,,,,,,,
1577742534.026490,39.000000,0.000000,4234.358887,4312.307617,4144.615234,4115.384766,4160.512695,0.000000,4.000000,,,,0.000000,4.000000,4.000000,4.000000,4.000000,4.000000,,,,,,,,,,,,,,,,,,,,,,,,,,,,,,,,,,,,,
1577742534.034287,40.000000,0.000000,4248.717773,4304.102539,4160.512695,4139.487305,4173.333496,0.000000,4.000000,,,,0.000000,4.000000,4.000000,4.000000,4.000000,4.000000,20.000000,0.000000,0.172199,-0.188232,0.873535,0.414551,0.513680,-0.576669,0.622080,5.991313,-47.048717,59.184902,,,,,,,,,,,,,,,,,,,,,,,,,
1577742534.042184,41.000000,0.000000,4244.102539,4279.487305,4155.897461,4144.615234,4167.692383,0.000000,4.000000,,,,0.000000,4.000000,4.000000,4.000000,4.000000,4.000000,,,,,,,,,,,,,,,,,,,,,,,,,,,,,,,,,,,,,
1577742534.049980,42.000000,0.000000,4239.487305,4290.256348,4148.205078,4139.487305,4169.230957,0.000000,4.000000,,,,0.000000,4.000000,4.000000,4.000000,4.000000,4.000000,21.000000,0.000000,0.172466,-0.187988,0.873535,0.414551,0.521492,-0.558114,0.617685,8.263319,-47.009445,57.453487,,,,,,,,,,,,,,,,,,,,,,,,,
1577742534.057877,43.000000,0.000000,4254.358887,4321.025879,4153.846191,4152.307617,4186.666504,0.000000,4.000000,,,,0.000000,4.000000,4.000000,4.000000,4.000000,4.000000,,,,,,,,,,,,,50.227707,14.977470,9.918159,3.105945,3.565545,0.951236,1.565059,1.753829,1.147985,2.623402,3.647694,8.033877,5.364030,2.221666,2.745493,2.136692,10.119108,7.819423,3.295947,3.704269,18.804855,12.292371,9.639546,3.279602,3.187155
1577742534.065673,44.000000,0.000000,4263.077148,4314.358887,4143.077148,4156.922852,4187.692383,0.000000,4.000000,,,,0.000000,4.000000,4.000000,4.000000,4.000000,4.000000,22.000000,0.000000,0.172199,-0.188232,0.873535,0.414551,0.521492,-0.558114,0.630869,11.205355,-46.914284,57.809307,,,,,,,,,,,,,,,,,,,,,,,,,
1577742534.073570,45.000000,0.000000,4241.025879,4287.179688,4118.461426,4126.666504,4162.563965,0.000000,4.000000,,,,0.000000,4.000000,4.000000,4.000000,4.000000,4.000000,,,,,,,,,,,,,,,,,,,,,,,,,,,,,,,,,,,,,
1577742534.081466,46.000000,0.000000,4242.051270,4297.948730,4132.820313,4130.769043,4167.179688,0.000000,4.000000,,,,0.000000,4.000000,4.000000,4.000000,4.000000,4.000000,23.000000,0.000000,0.171610,-0.188232,0.873535,0.414795,0.523445,-0.566903,0.619638,13.673741,-46.948269,58.249176,,,,,,,,,,,,,,,,,,,,,,,,,
1577742534.089263,47.000000,0.000000,4282.051270,4323.589844,4165.128418,4173.846191,4204.102539,0.000000,4.000000,,,,0.000000,4.000000,4.000000,4.000000,4.000000,4.000000,,,,,,,,,,,,,,,,,,,,,,,,,,,,,,,,,,,,,
1577742534.097160,48.000000,0.000000,4282.563965,4314.871582,4151.794922,4169.743652,4205.128418,0.000000,4.000000,,,,0.000000,4.000000,4.000000,4.000000,4.000000,4.000000,24.000000,0.000000,0.171610,-0.188232,0.873535,0.414795,0.539071,-0.569345,0.629404,13.083967,-47.038670,58.645054,,,,,,,,,,,,,,,,,,,,,,,,,
1577742534.104956,49.000000,0.000000,4242.563965,4282.563965,4118.461426,4130.769043,4175.897461,0.000000,4.000000,,,,0.000000,4.000000,4.000000,4.000000,4.000000,4.000000,,,,,,,,,,,,,,,,,,,,,,,,,,,,,,,,,,,,,
1577742534.112853,50.000000,0.000000,4245.128418,4287.692383,4127.692383,4133.846191,4182.051270,0.000000,4.000000,,,,0.000000,4.000000,4.000000,4.000000,4.000000,4.000000,25.000000,0.000000,0.171019,-0.188232,0.873535,0.415039,0.529793,-0.570321,0.618173,15.484123,-47.060219,59.120979,,,,,,,,,,,,,,,,,,,,,,,,,
1577742534.120650,51.000000,0.000000,4276.410156,4318.461426,4149.230957,4161.025879,4208.717773,0.000000,4.000000,,,,0.000000,4.000000,4.000000,4.000000,4.000000,4.000000,,,,,,,,,,,,,,,,,,,,,,,,,,,,,,,,,,,,,
1577742534.128547,52.000000,0.000000,4254.871582,4303.077148,4122.051270,4140.000000,4189.743652,0.000000,4.000000,,,,0.000000,4.000000,4.000000,4.000000,4.000000,4.000000,26.000000,0.000000,0.171610,-0.188232,0.873535,0.414795,0.523445,-0.566903,0.619638,16.866663,-47.019794,57.515587,,,,,,,,,,,,,,,,,,,,,,,,,
1577742534.136343,53.000000,0.000000,4227.692383,4275.897461,4094.871826,4111.794922,4159.487305,0.000000,4.000000,,,,0.000000,4.000000,4.000000,4.000000,4.000000,4.000000,,,,,,,,,,,,,,,,,,,,,,,,,,,,,,,,,,,,,
1577742534.144240,54.000000,0.000000,4262.051270,4302.563965,4120.512695,4133.846191,4181.025879,0.000000,4.000000,,,,0.000000,4.000000,4.000000,4.000000,4.000000,4.000000,27.000000,0.000000,0.171019,-0.188232,0.873535,0.415039,0.529793,-0.570321,0.618173,18.888550,-47.043228,58.104458,,,,,,,,,,,,,,,,,,,,,,,,,
1577742534.152037,55.000000,0.000000,4294.871582,4321.025879,4145.641113,4165.128418,4210.769043,0.000000,4.000000,,,,0.000000,4.000000,4.000000,4.000000,4.000000,4.000000,,,,,,,,,,,,,,,,,,,,,,,,,,,,,,,,,,,,,
1577742534.159933,56.000000,0.000000,4270.769043,4289.743652,4133.846191,4152.307617,4190.256348,0.000000,4.000000,,,,0.000000,4.000000,4.000000,4.000000,4.000000,4.000000,28.000000,0.000000,0.171019,-0.188232,0.873535,0.415039,0.531746,-0.574716,0.630381,20.708248,-47.183952,58.454994,,,,,,,,,,,,,,,,,,,,,,,,,
1577742534.167730,57.000000,0.000000,4249.230957,4295.384766,4130.256348,4134.358887,4173.333496,0.000000,4.000000,,,,0.000000,4.000000,4.000000,4.000000,4.000000,4.000000,,,,,,,,,,,,,,,,,,,,,,,,,,,,,,,,,,,,,
1577742534.175627,58.000000,0.000000,4275.384766,4335.384766,4152.820313,4158.974121,4200.512695,0.000000,4.000000,,,,0.000000,4.000000,4.000000,4.000000,4.000000,4.000000,29.000000,0.000000,0.171019,-0.188232,0.873535,0.415039,0.518074,-0.570809,0.637217,19.594469,-47.071339,58.770477,,,,,,,,,,,,,,,,,,,,,,,,,
1577742534.183424,59.000000,0.000000,4291.282227,4325.641113,4155.384766,4169.743652,4208.205078,0.000000,4.000000,,,,0.000000,4.000000,4.000000,4.000000,4.000000,4.000000,,,,,,,,,,,,,60.679256,15.601027,10.455505,3.175806,3.757920,0.915460,1.470195,1.910158,1.147785,2.564530,2.463257,8.389787,5.169595,2.295131,2.897428,2.124663,10.341782,7.713974,3.341741,4.046255,22.261951,12.873545,10.413007,3.586776,3.467018
1577742534.191320,60.000000,0.000000,4283.589844,4309.230957,4155.384766,4162.051270,4200.000000,0.000000,4.000000,,,,0.000000,4.000000,4.000000,4.000000,4.000000,4.000000,30.000000,0.000000,0.171287,-0.187988,0.873535,0.415039,0.531746,-0.578134,0.628916,18.352806,-46.969990,58.994598,,,,,,,,,,,,,,,,,,,,,,,,,
1577742534.199117,61.000000,0.000000,4288.205078,4318.974121,4177.948730,4178.461426,4216.410156,0.000000,4.000000,,,,0.000000,4.000000,4.000000,4.000000,4.000000,4.000000,,,,,,,,,,,,,,,,,,,,,,,,,,,,,,,,,,,,,
1577742534.207014,62.000000,0.000000,4289.230957,4314.871582,4176.410156,4184.102539,4217.948730,0.000000,4.000000,,,,0.000000,4.000000,4.000000,4.000000,4.000000,4.000000,31.000000,0.000000,0.171287,-0.187988,0.873535,0.415039,0.517098,-0.591318,0.623545,20.106447,-46.998402,59.196304,,,,,,,,,,,,,,,,,,,,,,,,,
1577742534.214810,63.000000,0.000000,4275.384766,4304.102539,4155.384766,4161.025879,4193.333496,0.000000,4.000000,,,,0.000000,4.000000,4.000000,4.000000,4.000000,4.000000,,,,,,,,,,,,,,,,,,,,,,,,,,,,,,,,,,,,,
1577742534.222707,64.000000,0.000000,4250.256348,4297.436035,4137.948730,4131.794922,4170.769043,450.000000,4.000000,,,,0.000000,4.000000,4.000000,4.000000,4.000000,4.000000,32.000000,0.000000,0.172528,-0.187988,0.873291,0.415039,0.536141,-0.594247,0.605966,18.873404,-47.083794,59.437656,,,,,,,,,,,,,,,,,,,,,,,,,
1577742534.230604,65.000000,0.000000,4233.333496,4289.230957,4127.692383,4114.358887,4157.948730,450.000000,4.000000,,,,0.000000,4.000000,4.000000,4.000000,4.000000,4.000000,,,,,,,,,,,,,,,,,,,,,,,,,,,,,,,,,,,,,
1577742534.238400,66.000000,0.000000,4256.410156,4300.000000,4142.563965,4132.307617,4180.000000,16218.000000,4.000000,,,,0.000000,4.000000,4.000000,4.000000,4.000000,4.000000,33.000000,0.000000,0.171939,-0.187988,0.873291,0.415283,0.528817,-0.577646,0.630381,17.883293,-47.160641,59.654873,,,,,,,,,,,,,,,,,,,,,,,,,
1577742534.246297,67.000000,0.000000,4289.743652,4317.948730,4164.615234,4166.153809,4216.410156,450.000000,4.000000,,,,0.000000,4.000000,4.000000,4.000000,4.000000,4.000000,,,,,,,,,,,,,,,,,,,,,,,,,,,,,,,,,,,,,
1577742534.254094,68.000000,0.000000,4278.974121,4310.256348,4155.384766,4158.974121,4210.769043,16239.000000,4.000000,,,,0.000000,4.000000,4.000000,4.000000,4.000000,4.000000,34.000000,0.000000,0.172206,-0.187744,0.873291,0.415283,0.524422,-0.572274,0.633310,13.104196,-47.169991,59.790554,,,,,,,,,,,,,,,,,,,,,,,,,
1577742534.261990,69.000000,0.000000,4251.794922,4277.948730,4135.897461,4134.871582,4188.205078,450.000000,4.000000,,,,0.000000,4.000000,4.000000,4.000000,4.000000,4.000000,,,,,,,,,,,,,,,,,,,,,,,,,,,,,,,,,,,,,
1577742534.269787,70.000000,0.000000,4257.436035,4269.743652,4142.051270,4146.153809,4200.512695,16156.000000,4.000000,,,,0.000000,4.000000,4.000000,4.000000,4.000000,4.000000,35.000000,0.000000,0.171882,-0.187500,0.873291,0.415527,0.520027,-0.568368,0.625986,11.614329,-47.238220,59.852852,,,,,,,,,,,,,,,,,,,,,,,,,
1577742534.277684,71.000000,0.000000,4256.410156,4292.307617,4130.256348,4145.128418,4201.025879,450.000000,4.000000,,,,0.000000,4.000000,4.000000,4.000000,4.000000,4.000000,,,,,,,,,,,,,,,,,,,,,,,,,,,,,,,,,,,,,
1577742534.285481,72.000000,0.000000,4234.871582,4295.897461,4099.487305,4115.384766,4166.666504,450.000000,4.000000,,,,0.000000,4.000000,4.000000,4.000000,4.000000,4.000000,36.000000,0.000000,0.172148,-0.187256,0.873291,0.415527,0.526375,-0.600595,0.626963,7.402313,-47.299629,60.028549,,,,,,,,,,,,,,,,,,,,,,,,,
1577742534.293377,73.000000,0.000000,4259.487305,4292.820313,4127.692383,4137.948730,4177.948730,16198.000000,4.000000,,,,0.000000,4.000000,4.000000,4.000000,4.000000,4.000000,,,,,,,,,,,,,,,,,,,,,,,,,,,,,,,,,,,,,
1577742534.301174,74.000000,0.000000,4305.128418,4322.051270,4174.358887,4190.769043,4224.615234,450.000000,4.000000,,,,0.000000,4.000000,4.000000,4.000000,4.000000,4.000000,37.000000,0.000000,0.171558,-0.187256,0.873291,0.415771,0.529305,-0.597665,0.613291,10.430449,-47.175449,60.306305,,,,,,,,,,,,,,,,,,,,,,,,,
1577742534.308971,75.000000,0.000000,4301.025879,4337.948730,4158.461426,4185.641113,4227.179688,16214.000000,4.000000,,,,0.000000,4.000000,4.000000,4.000000,4.000000,4.000000,,,,,,,,,,,,,63.612633,15.730654,10.829063,3.412117,4.153586,0.858756,1.455646,2.050306,1.232548,2.567787,1.838769,9.023323,5.022398,2.423916,3.168939,2.155330,11.102408,7.889665,3.562930,4.642243,23.282063,13.184630,11.170616,4.086198,3.999216
1577742534.316667,76.000000,0.000000,4279.487305,4303.589844,4128.205078,4156.922852,4201.538574,450.000000,4.000000,,,,0.000000,4.000000,4.000000,4.000000,4.000000,4.000000,38.000000,0.000000,0.171558,-0.187256,0.873291,0.415771,0.511238,-0.584482,0.627939,10.344451,-47.183319,58.522568,,,,,,,,,,,,,,,,,,,,,,,,,
1577742534.324564,77.000000,0.000000,4264.615234,4286.153809,4129.230957,4148.205078,4184.102539,450.000000,4.000000,,,,0.000000,4.000000,4.000000,4.000000,4.000000,4.000000,,,,,,,,,,,,,,,,,,,,,,,,,,,,,,,,,,,,,
1577742534.332361,78.000000,0.000000,4252.307617,4322.051270,4135.384766,4142.563965,4180.000000,450.000000,4.000000,,,,0.000000,4.000000,4.000000,4.000000,4.000000,4.000000,39.000000,0.000000,0.171824,-0.187012,0.873291,0.415771,0.530770,-0.598154,0.622080,10.087605,-47.190399,56.977016,,,,,,,,,,,,,,,,,,,,,,,,,
1577742534.340257,79.000000,0.000000,4271.282227,4330.769043,4147.692383,4157.436035,4207.692383,16214.000000,4.000000,,,,0.000000,4.000000,4.000000,4.000000,4.000000,4.000000,,,,,,,,,,,,,,,,,,,,,,,,,,,,,,,,,,,,,
1577742534.348054,80.000000,0.000000,4282.563965,4283.589844,4143.077148,4156.922852,4212.307617,450.000000,4.000000,,,,0.000000,4.000000,4.000000,4.000000,4.000000,4.000000,40.000000,0.000000,0.171824,-0.187012,0.873291,0.415771,0.526864,-0.572763,0.610849,9.856444,-47.196774,55.645836,,,,,,,,,,,,,,,,,,,,,,,,,
1577742534.355951,81.000000,0.000000,4262.563965,4273.333496,4120.000000,4125.641113,4180.512695,450.000000,4.000000,,,,0.000000,4.000000,4.000000,4.000000,4.000000,4.000000,,,,,,,,,,,,,,,,,,,,,,,,,,,,,,,,,,,,,
1577742534.363748,82.000000,0.000000,4285.641113,4328.717773,4136.922852,4141.538574,4206.666504,450.000000,4.000000,,,,0.000000,4.000000,4.000000,4.000000,4.000000,4.000000,41.000000,0.000000,0.172089,-0.186768,0.873291,0.415771,0.537118,-0.604501,0.618173,5.999662,-47.202511,54.447773,,,,,,,,,,,,,,,,,,,,,,,,,
1577742534.371644,83.000000,0.000000,4329.743652,4348.205078,4168.205078,4184.102539,4258.461426,16214.000000,4.000000,,,,0.000000,4.000000,4.000000,4.000000,4.000000,4.000000,,,,,,,,,,,,,,,,,,,,,,,,,,,,,,,,,,,,,
1577742534.379441,84.000000,0.000000,4332.307617,4316.922852,4163.589844,4186.666504,4258.461426,450.000000,4.000000,,,,0.000000,4.000000,4.000000,4.000000,4.000000,4.000000,42.000000,0.000000,0.172089,-0.186768,0.873291,0.415771,0.524422,-0.584482,0.610361,6.177296,-47.207672,53.309704,,,,,,,,,,,,,,,,,,,,,,,,,
1577742534.387338,85.000000,0.000000,4307.692383,4294.358887,4147.179688,4165.641113,4231.794922,450.000000,4.000000,,,,0.000000,4.000000,4.000000,4.000000,4.000000,4.000000,,,,,,,,,,,,,,,,,,,,,,,,,,,,,,,,,,,,,
1577742534.395234,86.000000,0.000000,4280.512695,4288.205078,4132.307617,4143.077148,4204.615234,450.000000,4.000000,,,,0.000000,4.000000,4.000000,4.000000,4.000000,4.000000,43.000000,0.000000,0.170846,-0.186768,0.873535,0.415771,0.524910,-0.593759,0.621592,9.268119,-47.212318,54.139717,,,,,,,,,,,,,,,,,,,,,,,,,
1577742534.403031,87.000000,0.000000,4254.871582,4294.871582,4106.666504,4112.820313,4173.846191,16214.000000,4.000000,,,,0.000000,4.000000,4.000000,4.000000,4.000000,4.000000,,,,,,,,,,,,,,,,,,,,,,,,,,,,,,,,,,,,,
1577742534.410928,88.000000,0.000000,4248.205078,4302.563965,4097.436035,4095.897461,4162.051270,450.000000,4.000000,,,,0.000000,4.000000,4.000000,4.000000,4.000000,4.000000,44.000000,0.000000,0.171824,-0.187012,0.873291,0.415771,0.532723,-0.578134,0.612314,9.238538,-47.156685,54.826912,,,,,,,,,,,,,,,,,,,,,,,,,
1577742534.418725,89.000000,0.000000,4265.641113,4301.025879,4124.615234,4111.794922,4183.077148,450.000000,4.000000,,,,0.000000,4.000000,4.000000,4.000000,4.000000,4.000000,,,,,,,,,,,,,,,,,,,,,,,,,,,,,,,,,,,,,
1577742534.426521,90.000000,0.000000,4303.077148,4316.410156,4163.077148,4152.307617,4228.205078,450.000000,4.000000,,,,0.000000,4.000000,4.000000,4.000000,4.000000,4.000000,45.000000,0.000000,0.171824,-0.187012,0.873291,0.415771,0.517098,-0.579110,0.616220,8.135238,-47.046803,55.445389,,,,,,,,,,,,,,,,,,,,,,,,,
1577742534.434418,91.000000,0.000000,4316.410156,4318.974121,4155.384766,4157.436035,4244.102539,16214.000000,4.000000,,,,0.000000,4.000000,4.000000,4.000000,4.000000,4.000000,,,,,,,,,,,,,56.962627,15.626728,11.012141,3.791040,4.651376,0.780735,1.606684,2.143673,1.374493,2.662240,1.780308,10.046877,5.051639,2.597763,3.512054,2.311480,12.589868,8.476686,3.946565,5.352669,21.627377,13.417799,11.766293,4.717209,4.658900
1577742534.442214,92.000000,0.000000,4273.333496,4288.717773,4101.538574,4103.589844,4197.948730,450.000000,4.000000,,,,0.000000,4.000000,4.000000,4.000000,4.000000,4.000000,46.000000,0.000000,0.171824,-0.187012,0.873291,0.415771,0.523934,-0.578622,0.619150,10.970451,-47.007721,56.121647,,,,,,,,,,,,,,,,,,,,,,,,,
1577742534.450111,93.000000,0.000000,4248.717773,4287.179688,4091.794922,4086.153809,4176.922852,450.000000,4.000000,,,,0.000000,4.000000,4.000000,4.000000,4.000000,4.000000,,,,,,,,,,,,,,,,,,,,,,,,,,,,,,,,,,,,,
1577742534.457907,94.000000,0.000000,4278.974121,4308.205078,4126.666504,4118.974121,4210.256348,450.000000,4.000000,,,,0.000000,4.000000,4.000000,4.000000,4.000000,4.000000,47.000000,0.000000,0.171558,-0.187256,0.873291,0.415771,0.524422,-0.594247,0.609384,10.651006,-47.032360,56.790096,,,,,,,,,,,,,,,,,,,,,,,,,
1577742534.465804,95.000000,0.000000,4297.948730,4305.641113,4132.820313,4128.717773,4223.589844,16214.000000,4.000000,,,,0.000000,4.000000,4.000000,4.000000,4.000000,4.000000,,,,,,,,,,,,,,,,,,,,,,,,,,,,,,,,,,,,,
1577742534.473600,96.000000,0.000000,4291.794922,4290.256348,4121.025879,4125.128418,4213.333496,450.000000,4.000000,,,,0.000000,4.000000,4.000000,4.000000,4.000000,4.000000,48.000000,0.000000,0.171558,-0.187256,0.873291,0.415771,0.522469,-0.581552,0.610849,6.595137,-47.114353,57.212254,,,,,,,,,,,,,,,,,,,,,,,,,
1577742534.481397,97.000000,0.000000,4279.487305,4284.102539,4116.410156,4122.051270,4205.128418,450.000000,4.000000,,,,0.000000,4.000000,4.000000,4.000000,4.000000,4.000000,,,,,,,,,,,,,,,,,,,,,,,,,,,,,,,,,,,,,
1577742534.489293,98.000000,0.000000,4261.025879,4292.820313,4109.230957,4099.487305,4188.717773,450.000000,4.000000,,,,0.000000,4.000000,4.000000,4.000000,4.000000,4.000000,49.000000,0.000000,0.170905,-0.187256,0.873535,0.415527,0.509285,-0.574228,0.604013,8.806761,-47.128334,57.771641,,,,,,,,,,,,,,,,,,,,,,,,,
1577742534.497090,99.000000,0.000000,4258.974121,4306.666504,4115.897461,4095.897461,4186.153809,16214.000000,4.000000,,,,0.000000,4.000000,4.000000,4.000000,4.000000,4.000000,,,,,,,,,,,,,,,,,,,,,,,,,,,,,,,,,,,,,
1577742534.504987,100.000000,0.000000,4260.000000,4285.641113,4120.000000,4105.128418,4191.282227,450.000000,4.000000,,,,0.000000,4.000000,4.000000,4.000000,4.000000,4.000000,50.000000,0.000000,0.170905,-0.187256,0.873535,0.415527,0.524910,-0.588388,0.622080,8.883131,-47.140915,58.155460,,,,,,,,,,,,,,,,,,,,,,,,,
1577742534.512784,101.000000,0.000000,4223.077148,4249.230957,4092.307617,4073.333252,4164.615234,450.000000,4.000000,,,,0.000000,4.000000,4.000000,4.000000,4.000000,4.000000,,,,,,,,,,,,,,,,,,,,,,,,,,,,,,,,,,,,,
1577742534.520680,102.000000,0.000000,4215.897461,4280.512695,4095.384521,4073.333252,4164.102539,450.000000,4.000000,,,,0.000000,4.000000,4.000000,4.000000,4.000000,4.000000,51.000000,0.000000,0.170310,-0.187256,0.873535,0.415771,0.517586,-0.571298,0.629404,5.004049,-47.032604,58.560711,,,,,,,,,,,,,,,,,,,,,,,,,
1577742534.528477,103.000000,0.000000,4255.897461,4318.974121,4132.307617,4127.179688,4207.179688,16214.000000,4.000000,,,,0.000000,4.000000,4.000000,4.000000,4.000000,4.000000,,,,,,,,,,,,,,,,,,,,,,,,,,,,,,,,,,,,,
1577742534.536374,104.000000,0.000000,4257.948730,4291.282227,4136.410156,4138.974121,4211.794922,450.000000,4.000000,,,,0.000000,4.000000,4.000000,4.000000,4.000000,4.000000,52.000000,0.000000,0.171558,-0.187256,0.873291,0.415771,0.525399,-0.583017,0.607919,5.400875,-47.114574,58.745995,,,,,,,,,,,,,,,,,,,,,,,,,
1577742534.544170,105.000000,0.000000,4233.333496,4258.461426,4126.666504,4118.974121,4192.820313,450.000000,4.000000,,,,0.000000,4.000000,4.000000,4.000000,4.000000,4.000000,,,,,,,,,,,,,,,,,,,,,,,,,,,,,,,,,,,,,
1577742534.552067,106.000000,0.000000,4245.641113,4287.179688,4138.461426,4128.717773,4208.717773,450.000000,4.000000,,,,0.000000,4.000000,4.000000,4.000000,4.000000,4.000000,53.000000,0.000000,0.170905,-0.187256,0.873535,0.415527,0.528328,-0.571786,0.610849,5.638387,-47.068714,59.152008,,,,,,,,,,,,,,,,,,,,,,,,,
1577742534.559864,107.000000,0.000000,4240.000000,4300.000000,4124.102539,4115.897461,4198.461426,16214.000000,4.000000,,,,0.000000,4.000000,4.000000,4.000000,4.000000,4.000000,,,,,,,,,,,,,44.164932,15.517488,11.114898,4.218179,5.092095,0.721902,1.944765,2.191059,1.521592,2.839741,2.171475,11.293064,5.319948,2.787107,3.832083,2.557223,14.651579,9.551749,4.401723,5.968426,18.438906,13.696815,12.185469,5.327196,5.248408
1577742534.567761,108.000000,0.000000,4196.922852,4258.974121,4083.589844,4070.256348,4146.153809,450.000000,4.000000,,,,0.000000,4.000000,4.000000,4.000000,4.000000,4.000000,54.000000,0.000000,0.170310,-0.187256,0.873535,0.415771,0.515633,-0.575692,0.631357,2.023965,-47.087257,57.483696,,,,,,,,,,,,,,,,,,,,,,,,,
1577742534.575557,109.000000,0.000000,4210.256348,4280.000000,4097.948730,4087.179443,4163.077148,450.000000,4.000000,,,,0.000000,4.000000,4.000000,4.000000,4.000000,4.000000,,,,,,,,,,,,,,,,,,,,,,,,,,,,,,,,,,,,,
1577742534.583454,110.000000,0.000000,4235.897461,4332.307617,4122.051270,4119.487305,4198.461426,450.000000,4.000000,,,,0.000000,4.000000,4.000000,4.000000,4.000000,4.000000,55.000000,0.000000,0.171558,-0.187256,0.873291,0.415771,0.525399,-0.583017,0.607919,5.530121,-47.044132,57.836494,,,,,,,,,,,,,,,,,,,,,,,,,
1577742534.591251,111.000000,0.000000,4192.820313,4292.820313,4083.076904,4078.974365,4153.333496,16214.000000,4.000000,,,,0.000000,4.000000,4.000000,4.000000,4.000000,4.000000,,,,,,,,,,,,,,,,,,,,,,,,,,,,,,,,,,,,,
1577742534.599147,112.000000,0.000000,4177.948730,4243.077148,4071.281982,4057.948730,4131.794922,450.000000,4.000000,,,,0.000000,4.000000,4.000000,4.000000,4.000000,4.000000,56.000000,0.000000,0.170310,-0.187256,0.873535,0.415771,0.515633,-0.575692,0.631357,1.926525,-47.065132,56.299736,,,,,,,,,,,,,,,,,,,,,,,,,
1577742534.606944,113.000000,0.000000,4226.666504,4277.436035,4120.512695,4105.641113,4185.641113,450.000000,4.000000,,,,0.000000,4.000000,4.000000,4.000000,4.000000,4.000000,,,,,,,,,,,,,,,,,,,,,,,,,,,,,,,,,,,,,
