title:010, start timestamp:2019-12-31T00:49:33.820790+03:00, stop timestamp:2019-12-31T00:50:07.689594+03:00, headset type:INSIGHT, headset serial:A2D200FB, headset firmware:930, subject name:Qasim, channels:56, sampling rate:eeg_128;mot_64;pow_8, samples:4344      , version:2.0
Timestamp,EEG.Counter,EEG.Interpolated,EEG.AF3,EEG.T7,EEG.Pz,EEG.T8,EEG.AF4,EEG.RawCq,EEG.Battery,MarkerIndex,MarkerType,MarkerValueInt,EEG.MarkerHardware,CQ.AF3,CQ.T7,CQ.Pz,CQ.T8,CQ.AF4,MOT.CounterMems,MOT.InterpolatedMems,MOT.Q0,MOT.Q1,MOT.Q2,MOT.Q3,MOT.AccX,MOT.AccY,MOT.AccZ,MOT.MagX,MOT.MagY,MOT.MagZ,POW.AF3.Theta,POW.AF3.Alpha,POW.AF3.BetaL,POW.AF3.BetaH,POW.AF3.Gamma,POW.T7.Theta,POW.T7.Alpha,POW.T7.BetaL,POW.T7.BetaH,POW.T7.Gamma,POW.Pz.Theta,POW.Pz.Alpha,POW.Pz.BetaL,POW.Pz.BetaH,POW.Pz.Gamma,POW.T8.Theta,POW.T8.Alpha,POW.T8.BetaL,POW.T8.BetaH,POW.T8.Gamma,POW.AF4.Theta,POW.AF4.Alpha,POW.AF4.BetaL,POW.AF4.BetaH,POW.AF4.Gamma
1577742573.820790,23.000000,0.000000,4251.282227,4327.692383,4205.641113,4129.743652,4250.256348,0.000000,4.000000,,,,0.000000,4.000000,4.000000,4.000000,4.000000,4.000000,,,,,,,,,,,,,,,,,,,,,,,,,,,,,,,,,,,,,
1577742573.828487,24.000000,0.000000,4208.205078,4314.358887,4167.692383,4078.974365,4212.820313,0.000000,4.000000,,,,0.000000,4.000000,4.000000,4.000000,4.000000,4.000000,12.000000,0.000000,0.153069,-0.235596,0.859375,0.427246,0.528328,-0.584970,0.618662,5.853465,-47.601337,59.744892,,,,,,,,,,,,,,,,,,,,,,,,,
1577742573.836183,25.000000,0.000000,4184.615234,4315.384766,4162.051270,4057.435791,4193.846191,0.000000,4.000000,,,,0.000000,4.000000,4.000000,4.000000,4.000000,4.000000,,,,,,,,,,,,,,,,,,,,,,,,,,,,,,,,,,,,,
1577742573.843880,26.000000,0.000000,4222.051270,4327.692383,4198.461426,4091.281982,4224.615234,0.000000,4.000000,,,,0.000000,4.000000,4.000000,4.000000,4.000000,4.000000,13.000000,0.000000,0.153069,-0.235596,0.859375,0.427246,0.529305,-0.569833,0.629404,6.165349,-47.566616,57.957478,,,,,,,,,,,,,,,,,,,,,,,,,
1577742573.851676,27.000000,0.000000,4221.025879,4312.820313,4188.717773,4080.512939,4216.922852,0.000000,4.000000,,,,0.000000,4.000000,4.000000,4.000000,4.000000,4.000000,,,,,,,,,,,,,113.278625,17.660627,10.140587,2.302478,3.338326,1.615478,0.796672,2.949531,1.930195,2.099450,3.970076,4.617442,6.475245,1.412899,2.983891,59.022015,15.830098,11.678096,2.286971,3.986451,25.060955,12.722102,10.614500,1.913798,4.028917
1577742573.859373,28.000000,0.000000,4200.512695,4294.871582,4166.153809,4051.794922,4190.769043,0.000000,4.000000,,,,0.000000,4.000000,4.000000,4.000000,4.000000,4.000000,14.000000,0.000000,0.152378,-0.235596,0.859619,0.427002,0.532723,-0.584970,0.622568,2.558046,-47.654999,58.203083,,,,,,,,,,,,,,,,,,,,,,,,,
1577742573.867169,29.000000,0.000000,4229.743652,4315.384766,4192.820313,4076.410156,4212.307617,0.000000,4.000000,,,,0.000000,4.000000,4.000000,4.000000,4.000000,4.000000,,,,,,,,,,,,,,,,,,,,,,,,,,,,,,,,,,,,,
1577742573.874966,30.000000,0.000000,4238.461426,4343.589844,4200.512695,4085.641113,4214.871582,0.000000,4.000000,,,,0.000000,4.000000,4.000000,4.000000,4.000000,4.000000,15.000000,0.000000,0.153435,-0.235352,0.859619,0.426758,0.532235,-0.574228,0.612802,-0.688527,-47.794357,58.424126,,,,,,,,,,,,,,,,,,,,,,,,,
1577742573.882662,31.000000,0.000000,4203.589844,4338.974121,4173.846191,4051.281982,4180.000000,0.000000,4.000000,,,,0.000000,4.000000,4.000000,4.000000,4.000000,4.000000,,,,,,,,,,,,,,,,,,,,,,,,,,,,,,,,,,,,,
1577742573.890459,32.000000,0.000000,4205.641113,4316.922852,4173.846191,4045.128174,4180.512695,0.000000,4.000000,,,,0.000000,4.000000,4.000000,4.000000,4.000000,4.000000,16.000000,0.000000,0.153435,-0.235352,0.859619,0.426758,0.528817,-0.588388,0.615732,-0.799120,-47.859966,58.503433,,,,,,,,,,,,,,,,,,,,,,,,,
1577742573.898155,33.000000,0.000000,4241.025879,4316.922852,4193.846191,4066.666748,4211.282227,0.000000,4.000000,,,,0.000000,4.000000,4.000000,4.000000,4.000000,4.000000,,,,,,,,,,,,,,,,,,,,,,,,,,,,,,,,,,,,,
1577742573.905951,34.000000,0.000000,4232.820313,4327.179688,4180.000000,4048.718018,4198.974121,0.000000,4.000000,,,,0.000000,4.000000,4.000000,4.000000,4.000000,4.000000,17.000000,0.000000,0.152744,-0.235352,0.859863,0.426514,0.531258,-0.581064,0.606943,-3.829607,-47.799385,58.694443,,,,,,,,,,,,,,,,,,,,,,,,,
1577742573.913648,35.000000,0.000000,4200.000000,4320.000000,4149.230957,4010.769287,4163.077148,0.000000,4.000000,,,,0.000000,4.000000,4.000000,4.000000,4.000000,4.000000,,,,,,,,,,,,,,,,,,,,,,,,,,,,,,,,,,,,,
1577742573.921444,36.000000,0.000000,4205.641113,4306.666504,4157.436035,4017.435791,4175.384766,0.000000,4.000000,,,,0.000000,4.000000,4.000000,4.000000,4.000000,4.000000,18.000000,0.000000,0.153120,-0.235107,0.859863,0.426514,0.539559,-0.567880,0.623056,-2.669047,-47.984123,57.131706,,,,,,,,,,,,,,,,,,,,,,,,,
1577742573.929140,37.000000,0.000000,4216.922852,4308.205078,4180.512695,4032.820557,4195.384766,0.000000,4.000000,,,,0.000000,4.000000,4.000000,4.000000,4.000000,4.000000,,,,,,,,,,,,,,,,,,,,,,,,,,,,,,,,,,,,,
1577742573.936837,38.000000,0.000000,4202.563965,4323.589844,4174.358887,4014.871826,4178.974121,0.000000,4.000000,,,,0.000000,4.000000,4.000000,4.000000,4.000000,4.000000,19.000000,0.000000,0.152744,-0.235352,0.859863,0.426514,0.551278,-0.566415,0.605966,-5.452726,-47.851307,57.579517,,,,,,,,,,,,,,,,,,,,,,,,,
1577742573.944634,39.000000,0.000000,4209.230957,4328.717773,4171.794922,4018.461426,4176.922852,0.000000,4.000000,,,,0.000000,4.000000,4.000000,4.000000,4.000000,4.000000,,,,,,,,,,,,,,,,,,,,,,,,,,,,,,,,,,,,,
1577742573.952430,40.000000,0.000000,4227.179688,4318.461426,4180.000000,4036.923096,4200.000000,0.000000,4.000000,,,,0.000000,4.000000,4.000000,4.000000,4.000000,4.000000,20.000000,0.000000,0.153739,-0.235596,0.859619,0.426514,0.530770,-0.566903,0.609384,-4.189669,-47.851406,55.889011,,,,,,,,,,,,,,,,,,,,,,,,,
1577742573.960126,41.000000,0.000000,4223.589844,4323.589844,4170.769043,4023.589844,4213.333496,0.000000,4.000000,,,,0.000000,4.000000,4.000000,4.000000,4.000000,4.000000,,,,,,,,,,,,,,,,,,,,,,,,,,,,,,,,,,,,,
1577742573.967823,42.000000,0.000000,4227.179688,4329.230957,4161.538574,4013.333252,4215.384766,0.000000,4.000000,,,,0.000000,4.000000,4.000000,4.000000,4.000000,4.000000,21.000000,0.000000,0.152684,-0.235840,0.859619,0.426758,0.544442,-0.573739,0.604013,-2.993102,-47.851494,56.461090,,,,,,,,,,,,,,,,,,,,,,,,,
1577742573.975619,43.000000,0.000000,4230.769043,4309.230957,4160.512695,4001.538574,4210.769043,0.000000,4.000000,,,,0.000000,4.000000,4.000000,4.000000,4.000000,4.000000,,,,,,,,,,,,,55.016663,12.141504,9.033288,2.475236,3.399698,1.433382,0.836674,2.558704,1.633314,2.074846,3.672025,4.993317,6.604074,1.467038,3.017074,12.209324,7.468578,7.970973,2.007280,4.092933,13.768475,11.020986,9.263622,1.832466,4.013877
1577742573.983316,44.000000,0.000000,4235.897461,4305.128418,4159.487305,3978.974365,4212.307617,0.000000,4.000000,,,,0.000000,4.000000,4.000000,4.000000,4.000000,4.000000,22.000000,0.000000,0.152744,-0.235352,0.859863,0.426514,0.551278,-0.566415,0.605966,0.895130,-48.031021,54.822613,,,,,,,,,,,,,,,,,,,,,,,,,
1577742573.991112,45.000000,0.000000,4273.333496,4331.794922,4167.179688,3987.692383,4244.615234,0.000000,4.000000,,,,0.000000,4.000000,4.000000,4.000000,4.000000,4.000000,,,,,,,,,,,,,,,,,,,,,,,,,,,,,,,,,,,,,
1577742573.998808,46.000000,0.000000,4309.230957,4324.615234,4163.077148,3995.384521,4271.282227,0.000000,4.000000,,,,0.000000,4.000000,4.000000,4.000000,4.000000,4.000000,23.000000,0.000000,0.152684,-0.235840,0.859619,0.426758,0.544442,-0.573739,0.604013,1.583217,-48.013149,55.501335,,,,,,,,,,,,,,,,,,,,,,,,,
1577742574.006604,47.000000,0.000000,4296.410156,4293.333496,4128.717773,3950.256348,4247.692383,0.000000,4.000000,,,,0.000000,4.000000,4.000000,4.000000,4.000000,4.000000,,,,,,,,,,,,,,,,,,,,,,,,,,,,,,,,,,,,,
1577742574.014301,48.000000,0.000000,4308.717773,4307.692383,4123.589844,3932.307617,4249.230957,0.000000,4.000000,,,,0.000000,4.000000,4.000000,4.000000,4.000000,4.000000,24.000000,0.000000,0.152306,-0.236084,0.859619,0.426758,0.546883,-0.584482,0.606943,5.133448,-47.997063,55.992554,,,,,,,,,,,,,,,,,,,,,,,,,
1577742574.022097,49.000000,0.000000,4374.358887,4341.025879,4160.512695,3973.333252,4302.563965,0.000000,4.000000,,,,0.000000,4.000000,4.000000,4.000000,4.000000,4.000000,,,,,,,,,,,,,,,,,,,,,,,,,,,,,,,,,,,,,
1577742574.029794,50.000000,0.000000,4402.051270,4331.794922,4173.333496,3986.666748,4320.512695,0.000000,4.000000,,,,0.000000,4.000000,4.000000,4.000000,4.000000,4.000000,25.000000,0.000000,0.152925,-0.236572,0.859375,0.426758,0.531258,-0.588388,0.616220,1.569519,-47.982586,56.554279,,,,,,,,,,,,,,,,,,,,,,,,,
1577742574.037590,51.000000,0.000000,4387.179688,4296.410156,4167.179688,3974.358887,4303.077148,0.000000,4.000000,,,,0.000000,4.000000,4.000000,4.000000,4.000000,4.000000,,,,,,,,,,,,,,,,,,,,,,,,,,,,,,,,,,,,,
1577742574.045286,52.000000,0.000000,4393.846191,4296.922852,4176.922852,3984.615479,4310.769043,0.000000,4.000000,,,,0.000000,4.000000,4.000000,4.000000,4.000000,4.000000,26.000000,0.000000,0.152546,-0.236816,0.859375,0.426758,0.528328,-0.568856,0.615732,2.010721,-47.969555,57.059834,,,,,,,,,,,,,,,,,,,,,,,,,
1577742574.053083,53.000000,0.000000,4399.487305,4320.512695,4180.000000,3986.666748,4323.589844,0.000000,4.000000,,,,0.000000,4.000000,4.000000,4.000000,4.000000,4.000000,,,,,,,,,,,,,,,,,,,,,,,,,,,,,,,,,,,,,
1577742574.060779,54.000000,0.000000,4367.692383,4317.436035,4169.743652,3962.051270,4305.641113,0.000000,4.000000,,,,0.000000,4.000000,4.000000,4.000000,4.000000,4.000000,27.000000,0.000000,0.152167,-0.237061,0.859375,0.426758,0.525887,-0.586435,0.617685,-1.360565,-47.898014,55.600742,,,,,,,,,,,,,,,,,,,,,,,,,
1577742574.068476,55.000000,0.000000,4328.205078,4307.692383,4162.051270,3944.615479,4275.897461,0.000000,4.000000,,,,0.000000,4.000000,4.000000,4.000000,4.000000,4.000000,,,,,,,,,,,,,,,,,,,,,,,,,,,,,,,,,,,,,
1577742574.076272,56.000000,0.000000,4305.641113,4322.051270,4155.897461,3932.307617,4263.077148,0.000000,4.000000,,,,0.000000,4.000000,4.000000,4.000000,4.000000,4.000000,28.000000,0.000000,0.153161,-0.237305,0.859131,0.426758,0.527840,-0.570321,0.614755,-0.506725,-48.072887,56.082020,,,,,,,,,,,,,,,,,,,,,,,,,
1577742574.084069,57.000000,0.000000,4302.051270,4330.769043,4158.461426,3929.743652,4262.051270,0.000000,4.000000,,,,0.000000,4.000000,4.000000,4.000000,4.000000,4.000000,,,,,,,,,,,,,,,,,,,,,,,,,,,,,,,,,,,,,
1577742574.091765,58.000000,0.000000,4307.692383,4317.436035,4170.769043,3946.666748,4263.589844,0.000000,4.000000,,,,0.000000,4.000000,4.000000,4.000000,4.000000,4.000000,29.000000,0.000000,0.152479,-0.237305,0.859131,0.427002,0.545419,-0.571298,0.625986,2.415086,-48.110645,56.634800,,,,,,,,,,,,,,,,,,,,,,,,,
1577742574.099462,59.000000,0.000000,4315.897461,4319.487305,4178.974121,3962.051270,4271.794922,0.000000,4.000000,,,,0.000000,4.000000,4.000000,4.000000,4.000000,4.000000,,,,,,,,,,,,,21.471779,10.493757,9.008088,2.761965,3.390386,1.300401,1.005890,2.215300,1.377974,2.057495,3.400823,5.934437,7.292152,1.669522,2.981952,3.875353,7.190157,7.226366,2.123337,4.096967,7.540780,11.583862,9.008673,1.995023,3.871436
1577742574.107258,60.000000,0.000000,4309.743652,4312.820313,4169.230957,3948.718018,4264.102539,0.000000,4.000000,,,,0.000000,4.000000,4.000000,4.000000,4.000000,4.000000,30.000000,0.000000,0.152099,-0.237549,0.859131,0.427002,0.534676,-0.568856,0.621592,-0.877007,-48.084808,55.218212,,,,,,,,,,,,,,,,,,,,,,,,,
1577742574.114955,61.000000,0.000000,4286.153809,4292.820313,4156.922852,3922.564209,4236.922852,0.000000,4.000000,,,,0.000000,4.000000,4.000000,4.000000,4.000000,4.000000,,,,,,,,,,,,,,,,,,,,,,,,,,,,,,,,,,,,,
1577742574.122751,62.000000,0.000000,4286.153809,4320.512695,4163.077148,3932.307617,4234.871582,0.000000,4.000000,,,,0.000000,4.000000,4.000000,4.000000,4.000000,4.000000,31.000000,0.000000,0.152790,-0.237549,0.858887,0.427246,0.536629,-0.561532,0.618662,2.979062,-48.121372,55.797558,,,,,,,,,,,,,,,,,,,,,,,,,
1577742574.130548,63.000000,0.000000,4292.307617,4347.692383,4163.077148,3947.692383,4241.538574,0.000000,4.000000,,,,0.000000,4.000000,4.000000,4.000000,4.000000,4.000000,,,,,,,,,,,,,,,,,,,,,,,,,,,,,,,,,,,,,
1577742574.138244,64.000000,0.000000,4292.307617,4326.666504,4169.743652,3952.820557,4247.179688,450.000000,4.000000,,,,0.000000,4.000000,4.000000,4.000000,4.000000,4.000000,32.000000,0.000000,0.152790,-0.237549,0.858887,0.427246,0.544442,-0.568856,0.602060,3.578386,-48.094463,56.318970,,,,,,,,,,,,,,,,,,,,,,,,,
1577742574.145941,65.000000,0.000000,4305.641113,4320.000000,4200.512695,3976.923096,4268.717773,450.000000,4.000000,,,,0.000000,4.000000,4.000000,4.000000,4.000000,4.000000,,,,,,,,,,,,,,,,,,,,,,,,,,,,,,,,,,,,,
1577742574.153737,66.000000,0.000000,4294.871582,4331.282227,4189.230957,3974.358887,4262.051270,16204.000000,4.000000,,,,0.000000,4.000000,4.000000,4.000000,4.000000,4.000000,33.000000,0.000000,0.152487,-0.237305,0.858887,0.427490,0.516121,-0.570321,0.612802,0.169964,-48.070248,54.933964,,,,,,,,,,,,,,,,,,,,,,,,,
1577742574.161433,67.000000,0.000000,4253.846191,4323.589844,4143.077148,3933.846191,4223.589844,450.000000,4.000000,,,,0.000000,4.000000,4.000000,4.000000,4.000000,4.000000,,,,,,,,,,,,,,,,,,,,,,,,,,,,,,,,,,,,,
1577742574.169230,68.000000,0.000000,4244.102539,4313.333496,4140.512695,3925.128174,4220.512695,16233.000000,4.000000,,,,0.000000,4.000000,4.000000,4.000000,4.000000,4.000000,34.000000,0.000000,0.152487,-0.237305,0.858887,0.427490,0.530770,-0.567880,0.614755,0.990383,-48.168083,55.601551,,,,,,,,,,,,,,,,,,,,,,,,,
1577742574.176926,69.000000,0.000000,4275.384766,4323.589844,4166.153809,3953.846191,4254.871582,450.000000,4.000000,,,,0.000000,4.000000,4.000000,4.000000,4.000000,4.000000,,,,,,,,,,,,,,,,,,,,,,,,,,,,,,,,,,,,,
1577742574.184722,70.000000,0.000000,4287.179688,4330.769043,4167.692383,3958.974365,4260.512695,16144.000000,4.000000,,,,0.000000,4.000000,4.000000,4.000000,4.000000,4.000000,35.000000,0.000000,0.152181,-0.237061,0.858887,0.427734,0.545419,-0.572763,0.604990,1.728760,-48.076687,54.168655,,,,,,,,,,,,,,,,,,,,,,,,,
1577742574.192519,71.000000,0.000000,4268.205078,4322.563965,4158.974121,3937.435791,4233.333496,450.000000,4.000000,,,,0.000000,4.000000,4.000000,4.000000,4.000000,4.000000,,,,,,,,,,,,,,,,,,,,,,,,,,,,,,,,,,,,,
1577742574.200215,72.000000,0.000000,4254.871582,4324.102539,4160.000000,3926.666748,4226.153809,450.000000,4.000000,,,,0.000000,4.000000,4.000000,4.000000,4.000000,4.000000,36.000000,0.000000,0.151494,-0.237061,0.858887,0.427979,0.542489,-0.584482,0.617685,-1.434885,-47.994434,54.972588,,,,,,,,,,,,,,,,,,,,,,,,,
1577742574.208011,73.000000,0.000000,4253.846191,4330.256348,4157.436035,3925.128174,4237.436035,16194.000000,4.000000,,,,0.000000,4.000000,4.000000,4.000000,4.000000,4.000000,,,,,,,,,,,,,,,,,,,,,,,,,,,,,,,,,,,,,
1577742574.215708,74.000000,0.000000,4248.717773,4321.538574,4143.589844,3913.333252,4231.282227,450.000000,4.000000,,,,0.000000,4.000000,4.000000,4.000000,4.000000,4.000000,37.000000,0.000000,0.151875,-0.236816,0.858887,0.427979,0.540536,-0.585946,0.607919,-0.453981,-48.040035,53.482960,,,,,,,,,,,,,,,,,,,,,,,,,
1577742574.223404,75.000000,0.000000,4254.871582,4323.077148,4151.282227,3916.410156,4233.846191,16208.000000,4.000000,,,,0.000000,4.000000,4.000000,4.000000,4.000000,4.000000,,,,,,,,,,,,,9.155962,11.660499,9.698170,3.099193,3.308367,1.221503,1.287770,2.114575,1.207865,2.039195,3.245409,7.045800,8.133957,1.973274,2.850212,3.968021,9.159585,7.278805,2.440034,3.958164,5.929981,13.524726,9.643953,2.303883,3.602076
1577742574.231200,76.000000,0.000000,4262.563965,4331.282227,4166.666504,3923.076904,4243.589844,450.000000,4.000000,,,,0.000000,4.000000,4.000000,4.000000,4.000000,4.000000,38.000000,0.000000,0.151875,-0.236816,0.858887,0.427979,0.533211,-0.575204,0.611826,0.488648,-48.021259,54.176014,,,,,,,,,,,,,,,,,,,,,,,,,
1577742574.238897,77.000000,0.000000,4242.563965,4317.436035,4146.666504,3897.435791,4218.461426,450.000000,4.000000,,,,0.000000,4.000000,4.000000,4.000000,4.000000,4.000000,,,,,,,,,,,,,,,,,,,,,,,,,,,,,,,,,,,,,
1577742574.246693,78.000000,0.000000,4235.897461,4312.820313,4135.384766,3894.871826,4204.102539,450.000000,4.000000,,,,0.000000,4.000000,4.000000,4.000000,4.000000,4.000000,39.000000,0.000000,0.151567,-0.236572,0.858887,0.428223,0.554696,-0.598154,0.618662,3.968889,-48.064178,54.919395,,,,,,,,,,,,,,,,,,,,,,,,,
1577742574.254489,79.000000,0.000000,4270.256348,4331.282227,4162.563965,3937.435791,4241.538574,16208.000000,4.000000,,,,0.000000,4.000000,4.000000,4.000000,4.000000,4.000000,,,,,,,,,,,,,,,,,,,,,,,,,,,,,,,,,,,,,
1577742574.262186,80.000000,0.000000,4295.897461,4344.615234,4180.000000,3961.025635,4273.333496,450.000000,4.000000,,,,0.000000,4.000000,4.000000,4.000000,4.000000,4.000000,40.000000,0.000000,0.152255,-0.236572,0.858887,0.427979,0.537118,-0.580087,0.619150,7.160923,-48.222435,55.588440,,,,,,,,,,,,,,,,,,,,,,,,,
1577742574.269882,81.000000,0.000000,4300.000000,4343.589844,4181.538574,3965.641113,4278.974121,450.000000,4.000000,,,,0.000000,4.000000,4.000000,4.000000,4.000000,4.000000,,,,,,,,,,,,,,,,,,,,,,,,,,,,,,,,,,,,,
1577742574.277579,82.000000,0.000000,4297.948730,4318.974121,4178.461426,3966.153809,4272.307617,450.000000,4.000000,,,,0.000000,4.000000,4.000000,4.000000,4.000000,4.000000,41.000000,0.000000,0.152634,-0.236328,0.858887,0.427979,0.530770,-0.580087,0.616709,7.162614,-48.185421,56.250393,,,,,,,,,,,,,,,,,,,,,,,,,
1577742574.285375,83.000000,0.000000,4288.717773,4310.769043,4166.666504,3948.205078,4255.897461,16208.000000,4.000000,,,,0.000000,4.000000,4.000000,4.000000,4.000000,4.000000,,,,,,,,,,,,,,,,,,,,,,,,,,,,,,,,,,,,,
1577742574.293072,84.000000,0.000000,4267.179688,4326.666504,4151.794922,3933.333252,4236.410156,450.000000,4.000000,,,,0.000000,4.000000,4.000000,4.000000,4.000000,4.000000,42.000000,0.000000,0.152634,-0.236328,0.858887,0.427979,0.544442,-0.576669,0.605478,10.095090,-48.211926,56.786335,,,,,,,,,,,,,,,,,,,,,,,,,
1577742574.300868,85.000000,0.000000,4256.410156,4331.282227,4147.179688,3942.564209,4231.794922,450.000000,4.000000,,,,0.000000,4.000000,4.000000,4.000000,4.000000,4.000000,,,,,,,,,,,,,,,,,,,,,,,,,,,,,,,,,,,,,
1577742574.308665,86.000000,0.000000,4260.512695,4330.256348,4149.743652,3949.743652,4229.230957,450.000000,4.000000,,,,0.000000,4.000000,4.000000,4.000000,4.000000,4.000000,43.000000,0.000000,0.153011,-0.236084,0.858887,0.427979,0.518563,-0.586435,0.610849,9.803366,-48.056332,57.208870,,,,,,,,,,,,,,,,,,,,,,,,,
1577742574.316361,87.000000,0.000000,4233.333496,4322.051270,4133.333496,3919.487061,4195.384766,16208.000000,4.000000,,,,0.000000,4.000000,4.000000,4.000000,4.000000,4.000000,,,,,,,,,,,,,,,,,,,,,,,,,,,,,,,,,,,,,
1577742574.324158,88.000000,0.000000,4186.153809,4301.025879,4107.179688,3880.512939,4157.948730,450.000000,4.000000,,,,0.000000,4.000000,4.000000,4.000000,4.000000,4.000000,44.000000,0.000000,0.152326,-0.236084,0.858887,0.428223,0.521492,-0.588876,0.600107,9.660444,-47.976112,57.529335,,,,,,,,,,,,,,,,,,,,,,,,,
1577742574.331854,89.000000,0.000000,4199.487305,4320.512695,4119.487305,3903.589844,4180.512695,450.000000,4.000000,,,,0.000000,4.000000,4.000000,4.000000,4.000000,4.000000,,,,,,,,,,,,,,,,,,,,,,,,,,,,,,,,,,,,,
1577742574.339650,90.000000,0.000000,4249.230957,4353.846191,4152.820313,3955.384521,4231.282227,450.000000,4.000000,,,,0.000000,4.000000,4.000000,4.000000,4.000000,4.000000,45.000000,0.000000,0.152326,-0.236084,0.858887,0.428223,0.543465,-0.581064,0.619150,9.352369,-48.023544,57.817753,,,,,,,,,,,,,,,,,,,,,,,,,
1577742574.347347,91.000000,0.000000,4250.256348,4328.205078,4146.153809,3951.794922,4229.230957,16208.000000,4.000000,,,,0.000000,4.000000,4.000000,4.000000,4.000000,4.000000,,,,,,,,,,,,,8.259352,13.713752,10.566465,3.452458,3.165510,1.160718,1.605398,2.316255,1.129345,2.021513,3.236771,7.802054,8.679048,2.338882,2.625501,4.335783,11.151258,7.487923,2.825841,3.695342,6.954905,15.367266,10.622351,2.655588,3.248807
1577742574.355143,92.000000,0.000000,4249.230957,4308.205078,4138.974121,3946.153809,4221.538574,450.000000,4.000000,,,,0.000000,4.000000,4.000000,4.000000,4.000000,4.000000,46.000000,0.000000,0.151324,-0.235840,0.859131,0.428223,0.540536,-0.579599,0.612802,12.006054,-48.066235,58.256775,,,,,,,,,,,,,,,,,,,,,,,,,
1577742574.362839,93.000000,0.000000,4285.641113,4338.974121,4163.077148,3983.589844,4255.384766,450.000000,4.000000,,,,0.000000,4.000000,4.000000,4.000000,4.000000,4.000000,,,,,,,,,,,,,,,,,,,,,,,,,,,,,,,,,,,,,
1577742574.370636,94.000000,0.000000,4272.820313,4343.077148,4144.615234,3972.820557,4240.512695,450.000000,4.000000,,,,0.000000,4.000000,4.000000,4.000000,4.000000,4.000000,47.000000,0.000000,0.151324,-0.235840,0.859131,0.428223,0.527352,-0.571298,0.604990,14.514001,-47.865395,58.472450,,,,,,,,,,,,,,,,,,,,,,,,,
1577742574.378332,95.000000,0.000000,4224.615234,4314.871582,4107.179688,3923.076904,4187.692383,16208.000000,4.000000,,,,0.000000,4.000000,4.000000,4.000000,4.000000,4.000000,,,,,,,,,,,,,,,,,,,,,,,,,,,,,,,,,,,,,
1577742574.386028,96.000000,0.000000,4236.410156,4329.743652,4134.358887,3941.025635,4203.589844,450.000000,4.000000,,,,0.000000,4.000000,4.000000,4.000000,4.000000,4.000000,48.000000,0.000000,0.151704,-0.235596,0.859131,0.428223,0.539559,-0.592294,0.608408,13.720571,-47.923901,58.666557,,,,,,,,,,,,,,,,,,,,,,,,,
1577742574.393825,97.000000,0.000000,4265.128418,4360.512695,4160.000000,3969.743652,4233.846191,450.000000,4.000000,,,,0.000000,4.000000,4.000000,4.000000,4.000000,4.000000,,,,,,,,,,,,,,,,,,,,,,,,,,,,,,,,,,,,,
1577742574.401521,98.000000,0.000000,4242.563965,4336.410156,4122.051270,3936.410156,4205.128418,450.000000,4.000000,,,,0.000000,4.000000,4.000000,4.000000,4.000000,4.000000,49.000000,0.000000,0.152083,-0.235352,0.859131,0.428223,0.540047,-0.580087,0.612314,9.297930,-48.036369,56.927162,,,,,,,,,,,,,,,,,,,,,,,,,
1577742574.409317,99.000000,0.000000,4230.256348,4305.128418,4106.153809,3923.589844,4192.307617,16208.000000,4.000000,,,,0.000000,4.000000,4.000000,4.000000,4.000000,4.000000,,,,,,,,,,,,,,,,,,,,,,,,,,,,,,,,,,,,,
1577742574.417014,100.000000,0.000000,4258.974121,4327.692383,4139.487305,3955.897461,4225.641113,450.000000,4.000000,,,,0.000000,4.000000,4.000000,4.000000,4.000000,4.000000,50.000000,0.000000,0.151768,-0.235107,0.859375,0.427979,0.533211,-0.582040,0.608408,12.016873,-48.077778,57.275799,,,,,,,,,,,,,,,,,,,,,,,,,
1577742574.424710,101.000000,0.000000,4283.589844,4361.025879,4155.384766,3970.769287,4243.589844,450.000000,4.000000,,,,0.000000,4.000000,4.000000,4.000000,4.000000,4.000000,,,,,,,,,,,,,,,,,,,,,,,,,,,,,,,,,,,,,
1577742574.432507,102.000000,0.000000,4276.410156,4352.307617,4148.717773,3954.871826,4224.615234,450.000000,4.000000,,,,0.000000,4.000000,4.000000,4.000000,4.000000,4.000000,51.000000,0.000000,0.151704,-0.235596,0.859131,0.428223,0.539559,-0.592294,0.608408,14.404108,-47.995415,55.735294,,,,,,,,,,,,,,,,,,,,,,,,,
1577742574.440203,103.000000,0.000000,4252.820313,4326.666504,4147.179688,3936.410156,4204.615234,16208.000000,4.000000,,,,0.000000,4.000000,4.000000,4.000000,4.000000,4.000000,,,,,,,,,,,,,,,,,,,,,,,,,,,,,,,,,,,,,
1577742574.448000,104.000000,0.000000,4240.512695,4312.820313,4141.538574,3932.307617,4197.436035,450.000000,4.000000,,,,0.000000,4.000000,4.000000,4.000000,4.000000,4.000000,52.000000,0.000000,0.151768,-0.235107,0.859375,0.427979,0.533211,-0.582040,0.608408,16.612434,-48.040916,56.203117,,,,,,,,,,,,,,,,,,,,,,,,,
1577742574.455697,105.000000,0.000000,4236.922852,4323.077148,4128.205078,3931.794922,4189.230957,450.000000,4.000000,,,,0.000000,4.000000,4.000000,4.000000,4.000000,4.000000,,,,,,,,,,,,,,,,,,,,,,,,,,,,,,,,,,,,,
1577742574.463493,106.000000,0.000000,4204.615234,4334.871582,4112.820313,3901.025635,4159.487305,450.000000,4.000000,,,,0.000000,4.000000,4.000000,4.000000,4.000000,4.000000,53.000000,0.000000,0.151768,-0.235107,0.859375,0.427979,0.535653,-0.580575,0.618173,12.020239,-48.081871,56.624157,,,,,,,,,,,,,,,,,,,,,,,,,
1577742574.471190,107.000000,0.000000,4161.538574,4313.333496,4095.897461,3865.128174,4123.077148,16208.000000,4.000000,,,,0.000000,4.000000,4.000000,4.000000,4.000000,4.000000,,,,,,,,,,,,,11.096727,15.394050,11.018680,3.761196,2.983782,1.073556,1.841046,2.704415,1.117214,2.010176,3.314273,7.806359,8.566438,2.702526,2.346059,4.388527,12.482526,7.494932,3.197746,3.360984,8.967472,15.960533,11.217516,2.947377,2.881804
1577742574.478986,108.000000,0.000000,4188.205078,4314.871582,4111.282227,3902.051270,4151.282227,450.000000,4.000000,,,,0.000000,4.000000,4.000000,4.000000,4.000000,4.000000,54.000000,0.000000,0.150760,-0.234863,0.859619,0.427979,0.531258,-0.593271,0.615244,11.595815,-48.178543,57.182537,,,,,,,,,,,,,,,,,,,,,,,,,
1577742574.486683,109.000000,0.000000,4234.358887,4350.769043,4142.563965,3954.871826,4196.410156,450.000000,4.000000,,,,0.000000,4.000000,4.000000,4.000000,4.000000,4.000000,,,,,,,,,,,,,,,,,,,,,,,,,,,,,,,,,,,,,
1577742574.494479,110.000000,0.000000,4215.897461,4342.563965,4140.000000,3937.435791,4183.589844,450.000000,4.000000,,,,0.000000,4.000000,4.000000,4.000000,4.000000,4.000000,55.000000,0.000000,0.151451,-0.234863,0.859619,0.427734,0.532723,-0.597665,0.602060,10.316602,-48.265549,57.505638,,,,,,,,,,,,,,,,,,,,,,,,,
1577742574.502176,111.000000,0.000000,4198.974121,4314.871582,4130.256348,3917.948730,4171.794922,16208.000000,4.000000,,,,0.000000,4.000000,4.000000,4.000000,4.000000,4.000000,,,,,,,,,,,,,,,,,,,,,,,,,,,,,,,,,,,,,
1577742574.509973,112.000000,0.000000,4212.820313,4317.436035,4137.948730,3928.718018,4182.051270,450.000000,4.000000,,,,0.000000,4.000000,4.000000,4.000000,4.000000,4.000000,56.000000,0.000000,0.151829,-0.234619,0.859619,0.427734,0.537606,-0.605966,0.613779,12.993495,-48.284039,57.916058,,,,,,,,,,,,,,,,,,,,,,,,,
1577742574.517669,113.000000,0.000000,4208.205078,4334.871582,4142.051270,3923.076904,4184.102539,450.000000,4.000000,,,,0.000000,4.000000,4.000000,4.000000,4.000000,4.000000,,,,,,,,,,,,,,,,,,,,,,,,,,,,,,,,,,,,,
1577742574.525366,114.000000,0.000000,4204.615234,4355.384766,4151.282227,3920.000000,4194.871582,450.000000,4.000000,,,,0.000000,4.000000,4.000000,4.000000,4.000000,4.000000,57.000000,0.000000,0.151133,-0.234619,0.859863,0.427490,0.534188,-0.594736,0.608896,15.402698,-48.240864,58.225616,,,,,,,,,,,,,,,,,,,,,,,,,
1577742574.533162,115.000000,0.000000,4192.307617,4337.948730,4134.871582,3903.589844,4181.538574,16208.000000,4.000000,,,,0.000000,4.000000,4.000000,4.000000,4.000000,4.000000,,,,,,,,,,,,,,,,,,,,,,,,,,,,,,,,,,,,,
1577742574.540859,116.000000,0.000000,4157.948730,4307.179688,4098.461426,3859.487061,4137.948730,450.000000,4.000000,,,,0.000000,4.000000,4.000000,4.000000,4.000000,4.000000,58.000000,0.000000,0.152507,-0.234619,0.859863,0.427002,0.538094,-0.587900,0.603037,14.640028,-48.321636,58.504223,,,,,,,,,,,,,,,,,,,,,,,,,
1577742574.548655,117.000000,0.000000,4154.871582,4329.230957,4108.717773,3860.512939,4136.922852,450.000000,4.000000,,,,0.000000,4.000000,4.000000,4.000000,4.000000,4.000000,,,,,,,,,,,,,,,,,,,,,,,,,,,,,,,,,,,,,
1577742574.556352,118.000000,0.000000,4168.205078,4338.974121,4132.307617,3886.153809,4156.410156,450.000000,4.000000,,,,0.000000,4.000000,4.000000,4.000000,4.000000,4.000000,59.000000,0.000000,0.151434,-0.234863,0.860107,0.426758,0.536141,-0.584970,0.617197,14.133071,-48.394333,58.635338,,,,,,,,,,,,,,,,,,,,,,,,,
1577742574.564148,119.000000,0.000000,4164.615234,4313.846191,4127.179688,3880.000000,4147.692383,16208.000000,4.000000,,,,0.000000,4.000000,4.000000,4.000000,4.000000,4.000000,,,,,,,,,,,,,,,,,,,,,,,,,,,,,,,,,,,,,
1577742574.571845,120.000000,0.000000,4165.128418,4313.333496,4123.589844,3867.692383,4135.384766,450.000000,4.000000,,,,0.000000,4.000000,4.000000,4.000000,4.000000,4.000000,60.000000,0.000000,0.152120,-0.234863,0.860107,0.426514,0.529793,-0.578622,0.614755,9.669180,-48.160683,58.992603,,,,,,,,,,,,,,,,,,,,,,,,,
1577742574.579642,121.000000,0.000000,4176.922852,4326.666504,4128.717773,3866.153809,4140.000000,450.000000,4.000000,,,,0.000000,4.000000,4.000000,4.000000,4.000000,4.000000,,,,,,,,,,,,,,,,,,,,,,,,,,,,,,,,,,,,,
1577742574.587338,122.000000,0.000000,4185.128418,4330.256348,4128.717773,3863.589844,4147.179688,450.000000,4.000000,,,,0.000000,4.000000,4.000000,4.000000,4.000000,4.000000,61.000000,0.000000,0.151422,-0.234863,0.860352,0.426270,0.523934,-0.574716,0.602060,5.651679,-48.189659,59.314140,,,,,,,,,,,,,,,,,,,,,,,,,
1577742574.595135,123.000000,0.000000,4184.615234,4324.615234,4125.128418,3863.589844,4147.692383,16208.000000,4.000000,,,,0.000000,4.000000,4.000000,4.000000,4.000000,4.000000,,,,,,,,,,,,,16.211170,16.315371,10.796888,3.997017,2.791053,0.930439,1.898696,3.048633,1.142515,2.012895,3.375443,7.025432,7.746524,3.027381,2.070665,4.045630,12.816198,7.224142,3.531763,3.026188,11.727784,15.101616,11.000278,3.149310,2.576570
1577742574.602831,124.000000,0.000000,4189.743652,4307.692383,4124.102539,3871.794922,4152.820313,450.000000,4.000000,,,,0.000000,4.000000,4.000000,4.000000,4.000000,4.000000,62.000000,0.000000,0.151422,-0.234863,0.860352,0.426270,0.530282,-0.574228,0.614755,8.854878,-48.096107,59.364262,,,,,,,,,,,,,,,,,,,,,,,,,
1577742574.610628,125.000000,0.000000,4197.436035,4323.589844,4124.615234,3876.410156,4157.436035,450.000000,4.000000,,,,0.000000,4.000000,4.000000,4.000000,4.000000,4.000000,,,,,,,,,,,,,,,,,,,,,,,,,,,,,,,,,,,,,
1577742574.618325,126.000000,0.000000,4187.692383,4360.000000,4121.025879,3866.666748,4149.743652,450.000000,4.000000,,,,0.000000,4.000000,4.000000,4.000000,4.000000,4.000000,63.000000,0.000000,0.152484,-0.234619,0.860352,0.426025,0.521492,-0.580087,0.619638,8.806806,-48.071728,59.648636,,,,,,,,,,,,,,,,,,,,,,,,,
1577742574.626121,127.000000,0.000000,4169.743652,4341.025879,4122.051270,3855.897461,4137.948730,236.000000,4.000000,,,,0.000000,4.000000,4.000000,4.000000,4.000000,4.000000,,,,,,,,,,,,,,,,,,,,,,,,,,,,,,,,,,,,,
1577742574.633818,0.000000,0.000000,4166.153809,4319.487305,4130.769043,3854.871826,4135.897461,450.000000,4.000000,,,,0.000000,4.000000,4.000000,4.000000,4.000000,4.000000,0.000000,0.000000,0.152484,-0.234619,0.860352,0.426025,0.535164,-0.579110,0.617197,8.763540,-48.049782,57.751217,,,,,,,,,,,,,,,,,,,,,,,,,
1577742574.641514,1.000000,0.000000,4164.615234,4344.102539,4127.692383,3847.179443,4135.384766,450.000000,4.000000,,,,0.000000,4.000000,4.000000,4.000000,4.000000,4.000000,,,,,,,,,,,,,,,,,,,,,,,,,,,,,,,,,,,,,
1577742574.649311,2.000000,0.000000,4170.769043,4350.256348,4124.102539,3845.128174,4138.974121,16210.000000,4.000000,,,,0.000000,4.000000,4.000000,4.000000,4.000000,4.000000,1.000000,0.000000,0.152108,-0.234863,0.860352,0.426025,0.538582,-0.561532,0.619638,8.784417,-47.850586,56.282799,,,,,,,,,,,,,,,,,,,,,,,,,
1577742574.657008,3.000000,0.000000,4194.358887,4341.025879,4146.666504,3865.128174,4156.922852,450.000000,4.000000,,,,0.000000,4.000000,4.000000,4.000000,4.000000,4.000000,,,,,,,,,,,,,,,,,,,,,,,,,,,,,,,,,,,,,
1577742574.664804,4.000000,0.000000,4200.000000,4337.948730,4161.538574,3872.820557,4166.153809,16226.000000,4.000000,,,,0.000000,4.000000,4.000000,4.000000,4.000000,4.000000,2.000000,0.000000,0.152108,-0.234863,0.860352,0.426025,0.528817,-0.563973,0.611337,8.743390,-47.731129,56.755688,,,,,,,,,,,,,,,,,,,,,,,,,
1577742574.672501,5.000000,0.000000,4177.948730,4327.692383,4141.025879,3851.794922,4147.179688,450.000000,4.000000,,,,0.000000,4.000000,4.000000,4.000000,4.000000,4.000000,,,,,,,,,,,,,,,,,,,,,,,,,,,,,,,,,,,,,
1577742574.680297,6.000000,0.000000,4156.922852,4329.230957,4117.948730,3831.281982,4118.974121,16144.000000,4.000000,,,,0.000000,4.000000,4.000000,4.000000,4.000000,4.000000,3.000000,0.000000,0.152484,-0.234619,0.860352,0.426025,0.528817,-0.563973,0.617685,11.577604,-47.803059,57.061657,,,,,,,,,,,,,,,,,,,,,,,,,
1577742574.688094,7.000000,0.000000,4142.051270,4332.307617,4108.205078,3823.076904,4096.922852,450.000000,4.000000,,,,0.000000,4.000000,4.000000,4.000000,4.000000,4.000000,,,,,,,,,,,,,,,,,,,,,,,,,,,,,,,,,,,,,
1577742574.695790,8.000000,0.000000,4137.436035,4321.025879,4104.102539,3820.512939,4092.307617,450.000000,4.000000,,,,0.000000,4.000000,4.000000,4.000000,4.000000,4.000000,4.000000,0.000000,0.152484,-0.234619,0.860352,0.426025,0.532723,-0.554696,0.623056,14.068581,-47.748169,57.337025,,,,,,,,,,,,,,,,,,,,,,,,,
1577742574.703487,9.000000,0.000000,4142.051270,4324.615234,4100.000000,3819.487061,4096.922852,16202.000000,4.000000,,,,0.000000,4.000000,4.000000,4.000000,4.000000,4.000000,,,,,,,,,,,,,,,,,,,,,,,,,,,,,,,,,,,,,
1577742574.711283,10.000000,0.000000,4151.282227,4345.641113,4107.692383,3825.128174,4106.666504,450.000000,4.000000,,,,0.000000,4.000000,4.000000,4.000000,4.000000,4.000000,5.000000,0.000000,0.151800,-0.234619,0.860352,0.426270,0.551278,-0.564950,0.624033,13.499138,-47.638950,57.704491,,,,,,,,,,,,,,,,,,,,,,,,,
1577742574.718980,11.000000,0.000000,4191.794922,4357.436035,4141.538574,3860.512939,4148.205078,16210.000000,4.000000,,,,0.000000,4.000000,4.000000,4.000000,4.000000,4.000000,,,,,,,,,,,,,22.880428,16.616179,10.203298,4.107343,2.619503,0.753241,1.745926,3.135364,1.177912,2.036736,3.320843,5.765777,6.504243,3.260232,1.853759,3.684345,12.260432,6.823935,3.777275,2.762148,14.893104,13.303004,10.147889,3.235446,2.391151
1577742574.726777,12.000000,0.000000,4217.948730,4342.051270,4151.794922,3882.051270,4176.922852,450.000000,4.000000,,,,0.000000,4.000000,4.000000,4.000000,4.000000,4.000000,6.000000,0.000000,0.152177,-0.234375,0.860352,0.426270,0.533700,-0.565927,0.609384,9.158456,-47.540653,57.915577,,,,,,,,,,,,,,,,,,,,,,,,,
1577742574.734473,13.000000,0.000000,4165.128418,4314.871582,4104.615234,3837.948730,4133.846191,450.000000,4.000000,,,,0.000000,4.000000,4.000000,4.000000,4.000000,4.000000,,,,,,,,,,,,,,,,,,,,,,,,,,,,,,,,,,,,,
1577742574.742270,14.000000,0.000000,4134.358887,4317.436035,4093.333252,3820.512939,4110.256348,450.000000,4.000000,,,,0.000000,4.000000,4.000000,4.000000,4.000000,4.000000,7.000000,0.000000,0.151491,-0.234375,0.860352,0.426514,0.526375,-0.575692,0.611826,9.139841,-47.512001,56.311096,,,,,,,,,,,,,,,,,,,,,,,,,
1577742574.749966,15.000000,0.000000,4173.333496,4335.384766,4133.333496,3865.128174,4152.820313,16210.000000,4.000000,,,,0.000000,4.000000,4.000000,4.000000,4.000000,4.000000,,,,,,,,,,,,,,,,,,,,,,,,,,,,,,,,,,,,,
1577742574.757763,16.000000,0.000000,4175.897461,4329.230957,4132.820313,3870.256348,4157.948730,0.000000,4.000000,,,,0.000000,4.000000,4.000000,4.000000,4.000000,4.000000,8.000000,0.000000,0.151868,-0.234131,0.860352,0.426514,0.536141,-0.566415,0.627939,9.063272,-47.605846,56.781155,,,,,,,,,,,,,,,,,,,,,,,,,
1577742574.765460,17.000000,0.000000,4155.384766,4331.282227,4120.000000,3863.076904,4140.000000,0.000000,4.000000,,,,0.000000,4.000000,4.000000,4.000000,4.000000,4.000000,,,,,,,,,,,,,,,,,,,,,,,,,,,,,,,,,,,,,
1577742574.773256,18.000000,0.000000,4171.794922,4335.384766,4136.922852,3887.179443,4155.897461,0.000000,4.000000,,,,0.000000,4.000000,4.000000,4.000000,4.000000,4.000000,9.000000,0.000000,0.152244,-0.233887,0.860352,0.426514,0.529793,-0.583505,0.611826,5.106361,-47.630489,55.230297,,,,,,,,,,,,,,,,,,,,,,,,,
1577742574.780953,19.000000,0.000000,4167.692383,4317.948730,4130.769043,3873.846191,4145.641113,0.000000,4.000000,,,,0.000000,4.000000,4.000000,4.000000,4.000000,4.000000,,,,,,,,,,,,,,,,,,,,,,,,,,,,,,,,,,,,,
1577742574.788749,20.000000,0.000000,4145.128418,4321.538574,4114.871582,3849.230713,4120.512695,0.000000,4.000000,,,,0.000000,4.000000,4.000000,4.000000,4.000000,4.000000,10.000000,0.000000,0.152244,-0.233887,0.860352,0.426514,0.540536,-0.578622,0.608408,5.433140,-47.652672,55.748619,,,,,,,,,,,,,,,,,,,,,,,,,
1577742574.796446,21.000000,0.000000,4157.948730,4339.487305,4130.769043,3869.230713,4134.358887,0.000000,4.000000,,,,0.000000,4.000000,4.000000,4.000000,4.000000,4.000000,,,,,,,,,,,,,,,,,,,,,,,,,,,,,,,,,,,,,
1577742574.804242,22.000000,0.000000,4157.436035,4326.666504,4131.794922,3867.179443,4128.205078,0.000000,4.000000,,,,0.000000,4.000000,4.000000,4.000000,4.000000,4.000000,11.000000,0.000000,0.151236,-0.233643,0.860596,0.426514,0.532235,-0.570809,0.596689,5.727241,-47.732449,56.394558,,,,,,,,,,,,,,,,,,,,,,,,,
1577742574.811939,23.000000,0.000000,4127.179688,4322.563965,4107.692383,3830.769287,4090.769287,0.000000,4.000000,,,,0.000000,4.000000,4.000000,4.000000,4.000000,4.000000,,,,,,,,,,,,,,,,,,,,,,,,,,,,,,,,,,,,,
1577742574.819736,24.000000,0.000000,4150.769043,4352.820313,4127.179688,3853.333252,4109.743652,0.000000,4.000000,,,,0.000000,4.000000,4.000000,4.000000,4.000000,4.000000,12.000000,0.000000,0.151612,-0.233398,0.860596,0.426514,0.534676,-0.579599,0.613779,5.752671,-47.804249,56.916084,,,,,,,,,,,,,,,,,,,,,,,,,
1577742574.827432,25.000000,0.000000,4188.717773,4356.922852,4156.410156,3888.718018,4145.128418,0.000000,4.000000,,,,0.000000,4.000000,4.000000,4.000000,4.000000,4.000000,,,,,,,,,,,,,,,,,,,,,,,,,,,,,,,,,,,,,
1577742574.835129,26.000000,0.000000,4142.051270,4323.077148,4113.846191,3834.871826,4101.538574,0.000000,4.000000,,,,0.000000,4.000000,4.000000,4.000000,4.000000,4.000000,13.000000,0.000000,0.151612,-0.233398,0.860596,0.426514,0.542489,-0.574228,0.606943,5.895188,-47.809052,57.445274,,,,,,,,,,,,,,,,,,,,,,,,,
1577742574.842925,27.000000,0.000000,4089.230713,4325.128418,4072.307617,3779.487061,4053.846191,0.000000,4.000000,,,,0.000000,4.000000,4.000000,4.000000,4.000000,4.000000,,,,,,,,,,,,,29.339050,16.554729,9.800317,4.043120,2.493514,0.593782,1.435258,2.883783,1.215276,2.082093,3.116480,4.455356,5.308999,3.337821,1.721435,3.073454,11.221743,6.633102,3.878811,2.615438,17.776226,11.390370,9.249886,3.196265,2.344411
1577742574.850722,28.000000,0.000000,4137.948730,4360.512695,4121.025879,3830.256348,4103.077148,0.000000,4.000000,,,,0.000000,4.000000,4.000000,4.000000,4.000000,4.000000,14.000000,0.000000,0.150924,-0.233398,0.860596,0.426758,0.529305,-0.587900,0.607431,6.143085,-47.813377,57.801914,,,,,,,,,,,,,,,,,,,,,,,,,
1577742574.858419,29.000000,0.000000,4186.666504,4360.512695,4159.487305,3882.564209,4149.230957,0.000000,4.000000,,,,0.000000,4.000000,4.000000,4.000000,4.000000,4.000000,,,,,,,,,,,,,,,,,,,,,,,,,,,,,,,,,,,,,
1577742574.866215,30.000000,0.000000,4155.384766,4341.538574,4118.974121,3847.692383,4113.846191,0.000000,4.000000,,,,0.000000,4.000000,4.000000,4.000000,4.000000,4.000000,15.000000,0.000000,0.151612,-0.233398,0.860596,0.426514,0.534676,-0.579599,0.613779,5.289515,-47.996716,58.122890,,,,,,,,,,,,,,,,,,,,,,,,,
1577742574.873912,31.000000,0.000000,4153.333496,4340.000000,4106.153809,3842.051270,4112.307617,0.000000,4.000000,,,,0.000000,4.000000,4.000000,4.000000,4.000000,4.000000,,,,,,,,,,,,,,,,,,,,,,,,,,,,,,,,,,,,,
1577742574.881708,32.000000,0.000000,4172.820313,4325.641113,4123.077148,3867.179443,4136.410156,0.000000,4.000000,,,,0.000000,4.000000,4.000000,4.000000,4.000000,4.000000,16.000000,0.000000,0.150924,-0.233398,0.860596,0.426758,0.529305,-0.587900,0.607431,5.597978,-47.982273,58.411766,,,,,,,,,,,,,,,,,,,,,,,,,
1577742574.889405,33.000000,0.000000,4147.692383,4316.410156,4105.641113,3840.512939,4109.743652,0.000000,4.000000,,,,0.000000,4.000000,4.000000,4.000000,4.000000,4.000000,,,,,,,,,,,,,,,,,,,,,,,,,,,,,,,,,,,,,
1577742574.897201,34.000000,0.000000,4144.615234,4337.948730,4103.589844,3834.871826,4108.205078,0.000000,4.000000,,,,0.000000,4.000000,4.000000,4.000000,4.000000,4.000000,17.000000,0.000000,0.152309,-0.233398,0.860352,0.426758,0.543465,-0.582040,0.606943,5.815780,-47.969273,56.757668,,,,,,,,,,,,,,,,,,,,,,,,,
1577742574.904898,35.000000,0.000000,4149.743652,4339.487305,4111.794922,3851.281982,4125.128418,0.000000,4.000000,,,,0.000000,4.000000,4.000000,4.000000,4.000000,4.000000,,,,,,,,,,,,,,,,,,,,,,,,,,,,,,,,,,,,,
1577742574.912695,36.000000,0.000000,4132.820313,4320.512695,4104.615234,3836.923096,4109.230957,0.000000,4.000000,,,,0.000000,4.000000,4.000000,4.000000,4.000000,4.000000,18.000000,0.000000,0.151624,-0.233398,0.860352,0.427002,0.529305,-0.578134,0.605478,8.942755,-47.837944,55.268974,,,,,,,,,,,,,,,,,,,,,,,,,
1577742574.920391,37.000000,0.000000,4174.358887,4343.589844,4143.077148,3866.666748,4146.666504,0.000000,4.000000,,,,0.000000,4.000000,4.000000,4.000000,4.000000,4.000000,,,,,,,,,,,,,,,,,,,,,,,,,,,,,,,,,,,,,
1577742574.928187,38.000000,0.000000,4243.077148,4368.205078,4191.282227,3933.333252,4220.512695,0.000000,4.000000,,,,0.000000,4.000000,4.000000,4.000000,4.000000,4.000000,19.000000,0.000000,0.150934,-0.233398,0.860352,0.427246,0.544442,-0.576181,0.605478,11.816847,-47.779564,55.962875,,,,,,,,,,,,,,,,,,,,,,,,,
1577742574.935884,39.000000,0.000000,4213.846191,4337.948730,4156.922852,3905.641113,4196.410156,0.000000,4.000000,,,,0.000000,4.000000,4.000000,4.000000,4.000000,4.000000,,,,,,,,,,,,,,,,,,,,,,,,,,,,,,,,,,,,,
1577742574.943680,40.000000,0.000000,4152.307617,4323.077148,4112.820313,3836.410156,4128.205078,0.000000,4.000000,,,,0.000000,4.000000,4.000000,4.000000,4.000000,4.000000,20.000000,0.000000,0.152319,-0.233398,0.860107,0.427246,0.540536,-0.585458,0.612314,11.352947,-47.786839,56.467754,,,,,,,,,,,,,,,,,,,,,,,,,
1577742574.951376,41.000000,0.000000,4168.205078,4358.974121,4132.820313,3848.718018,4133.333496,0.000000,4.000000,,,,0.000000,4.000000,4.000000,4.000000,4.000000,4.000000,,,,,,,,,,,,,,,,,,,,,,,,,,,,,,,,,,,,,
1577742574.959173,42.000000,0.000000,4190.256348,4360.512695,4144.615234,3877.435791,4155.897461,0.000000,4.000000,,,,0.000000,4.000000,4.000000,4.000000,4.000000,4.000000,21.000000,0.000000,0.151633,-0.233398,0.860107,0.427490,0.527352,-0.570809,0.626474,11.234513,-47.613937,55.008057,,,,,,,,,,,,,,,,,,,,,,,,,
1577742574.966869,43.000000,0.000000,4162.051270,4321.025879,4119.487305,3852.820557,4133.846191,0.000000,4.000000,,,,0.000000,4.000000,4.000000,4.000000,4.000000,4.000000,,,,,,,,,,,,,33.530155,16.255293,10.049861,3.833545,2.419470,0.507458,1.082974,2.368870,1.259322,2.145451,2.805675,3.441330,4.573963,3.239661,1.668314,2.928965,10.207523,6.868236,3.823578,2.588858,19.410685,10.083024,8.916772,3.074835,2.405810
1577742574.974566,44.000000,0.000000,4132.820313,4322.051270,4104.615234,3822.051270,4108.717773,0.000000,4.000000,,,,0.000000,4.000000,4.000000,4.000000,4.000000,4.000000,22.000000,0.000000,0.151953,-0.233643,0.859863,0.427734,0.533211,-0.577157,0.612802,10.888662,-47.577957,55.548603,,,,,,,,,,,,,,,,,,,,,,,,,
1577742574.982362,45.000000,0.000000,4157.948730,4354.871582,4133.333496,3851.281982,4135.897461,0.000000,4.000000,,,,0.000000,4.000000,4.000000,4.000000,4.000000,4.000000,,,,,,,,,,,,,,,,,,,,,,,,,,,,,,,,,,,,,
1577742574.990059,46.000000,0.000000,4212.820313,4352.820313,4176.922852,3913.846191,4197.948730,0.000000,4.000000,,,,0.000000,4.000000,4.000000,4.000000,4.000000,4.000000,23.000000,0.000000,0.151264,-0.233643,0.859863,0.427979,0.533700,-0.588876,0.620127,6.629581,-47.665207,54.180817,,,,,,,,,,,,,,,,,,,,,,,,,
1577742574.997855,47.000000,0.000000,4222.051270,4333.846191,4182.051270,3928.718018,4213.846191,0.000000,4.000000,,,,0.000000,4.000000,4.000000,4.000000,4.000000,4.000000,,,,,,,,,,,,,,,,,,,,,,,,,,,,,,,,,,,,,
1577742575.005552,48.000000,0.000000,4194.358887,4345.641113,4159.487305,3904.102539,4188.717773,0.000000,4.000000,,,,0.000000,4.000000,4.000000,4.000000,4.000000,4.000000,24.000000,0.000000,0.150571,-0.233643,0.859863,0.428223,0.527352,-0.586435,0.607431,2.916039,-47.564285,54.923717,,,,,,,,,,,,,,,,,,,,,,,,,
1577742575.013348,49.000000,0.000000,4184.102539,4361.025879,4154.358887,3900.512939,4188.717773,0.000000,4.000000,,,,0.000000,4.000000,4.000000,4.000000,4.000000,4.000000,,,,,,,,,,,,,,,,,,,,,,,,,,,,,,,,,,,,,
1577742575.021045,50.000000,0.000000,4192.820313,4334.871582,4156.922852,3909.743652,4201.538574,0.000000,4.000000,,,,0.000000,4.000000,4.000000,4.000000,4.000000,4.000000,25.000000,0.000000,0.151959,-0.233643,0.859619,0.428223,0.521492,-0.575692,0.622568,6.273173,-47.593086,55.592331,,,,,,,,,,,,,,,,,,,,,,,,,
1577742575.028842,51.000000,0.000000,4195.897461,4315.384766,4143.077148,3908.205078,4194.358887,0.000000,4.000000,,,,0.000000,4.000000,4.000000,4.000000,4.000000,4.000000,,,,,,,,,,,,,,,,,,,,,,,,,,,,,,,,,,,,,
1577742575.036538,52.000000,0.000000,4205.128418,4346.153809,4137.436035,3911.794922,4195.384766,0.000000,4.000000,,,,0.000000,4.000000,4.000000,4.000000,4.000000,4.000000,26.000000,0.000000,0.151645,-0.233398,0.859619,0.428467,0.536629,-0.582040,0.607919,6.543086,-47.977898,56.014633,,,,,,,,,,,,,,,,,,,,,,,,,
1577742575.044335,53.000000,0.000000,4192.820313,4354.358887,4129.743652,3895.384521,4184.102539,0.000000,4.000000,,,,0.000000,4.000000,4.000000,4.000000,4.000000,4.000000,,,,,,,,,,,,,,,,,,,,,,,,,,,,,,,,,,,,,
1577742575.052031,54.000000,0.000000,4167.179688,4326.666504,4114.358887,3867.179443,4156.410156,0.000000,4.000000,,,,0.000000,4.000000,4.000000,4.000000,4.000000,4.000000,27.000000,0.000000,0.151645,-0.233398,0.859619,0.428467,0.519539,-0.592294,0.618173,6.666377,-48.025154,54.540428,,,,,,,,,,,,,,,,,,,,,,,,,
1577742575.059828,55.000000,0.000000,4209.230957,4336.922852,4148.717773,3909.230713,4196.410156,0.000000,4.000000,,,,0.000000,4.000000,4.000000,4.000000,4.000000,4.000000,,,,,,,,,,,,,,,,,,,,,,,,,,,,,,,,,,,,,
1577742575.067524,56.000000,0.000000,4260.000000,4363.077148,4193.333496,3964.102539,4253.846191,0.000000,4.000000,,,,0.000000,4.000000,4.000000,4.000000,4.000000,4.000000,28.000000,0.000000,0.150954,-0.233398,0.859619,0.428711,0.520516,-0.588388,0.609873,2.829525,-48.067680,55.187553,,,,,,,,,,,,,,,,,,,,,,,,,
1577742575.075321,57.000000,0.000000,4245.128418,4361.538574,4185.128418,3951.281982,4242.051270,0.000000,4.000000,,,,0.000000,4.000000,4.000000,4.000000,4.000000,4.000000,,,,,,,,,,,,,,,,,,,,,,,,,,,,,,,,,,,,,
1577742575.083018,58.000000,0.000000,4228.717773,4353.846191,4167.692383,3930.256348,4219.487305,0.000000,4.000000,,,,0.000000,4.000000,4.000000,4.000000,4.000000,4.000000,29.000000,0.000000,0.151331,-0.233154,0.859619,0.428711,0.528328,-0.578622,0.617197,6.195310,-48.046143,55.650337,,,,,,,,,,,,,,,,,,,,,,,,,
1577742575.090714,59.000000,0.000000,4226.153809,4349.230957,4158.974121,3919.487061,4214.871582,0.000000,4.000000,,,,0.000000,4.000000,4.000000,4.000000,4.000000,4.000000,,,,,,,,,,,,,33.875744,15.620353,11.031493,3.563383,2.407042,0.524161,0.821146,1.751777,1.306680,2.219179,2.492523,2.855602,4.464760,3.003127,1.684464,2.889212,9.475500,7.520589,3.655326,2.665516,19.489843,9.663051,9.420391,2.941064,2.531723
1577742575.098511,60.000000,0.000000,4204.102539,4336.922852,4134.871582,3891.281982,4190.256348,0.000000,4.000000,,,,0.000000,4.000000,4.000000,4.000000,4.000000,4.000000,30.000000,0.000000,0.152024,-0.233154,0.859375,0.428955,0.539559,-0.586435,0.607431,2.525195,-47.966942,56.126656,,,,,,,,,,,,,,,,,,,,,,,,,
1577742575.106207,61.000000,0.000000,4208.717773,4339.487305,4133.846191,3894.871826,4182.563965,0.000000,4.000000,,,,0.000000,4.000000,4.000000,4.000000,4.000000,4.000000,,,,,,,,,,,,,,,,,,,,,,,,,,,,,,,,,,,,,
1577742575.114004,62.000000,0.000000,4237.436035,4355.384766,4155.384766,3923.589844,4197.948730,0.000000,4.000000,,,,0.000000,4.000000,4.000000,4.000000,4.000000,4.000000,31.000000,0.000000,0.152024,-0.233154,0.859375,0.428955,0.529793,-0.588876,0.603037,3.050276,-48.015293,56.555340,,,,,,,,,,,,,,,,,,,,,,,,,
1577742575.121701,63.000000,0.000000,4217.948730,4351.282227,4140.512695,3905.641113,4175.897461,0.000000,4.000000,,,,0.000000,4.000000,4.000000,4.000000,4.000000,4.000000,,,,,,,,,,,,,,,,,,,,,,,,,,,,,,,,,,,,,
1577742575.129497,64.000000,0.000000,4205.128418,4351.794922,4136.410156,3893.333252,4166.666504,450.000000,4.000000,,,,0.000000,4.000000,4.000000,4.000000,4.000000,4.000000,32.000000,0.000000,0.151333,-0.233154,0.859375,0.429199,0.530282,-0.583993,0.599619,6.453801,-48.118626,57.060787,,,,,,,,,,,,,,,,,,,,,,,,,
1577742575.137194,65.000000,0.000000,4256.410156,4371.794922,4194.358887,3950.769287,4225.641113,450.000000,4.000000,,,,0.000000,4.000000,4.000000,4.000000,4.000000,4.000000,,,,,,,,,,,,,,,,,,,,,,,,,,,,,,,,,,,,,
1577742575.144990,66.000000,0.000000,4270.256348,4360.512695,4218.974121,3974.358887,4250.769043,16213.000000,4.000000,,,,0.000000,4.000000,4.000000,4.000000,4.000000,4.000000,33.000000,0.000000,0.151333,-0.233154,0.859375,0.429199,0.531746,-0.596201,0.613291,6.526205,-47.972359,57.455879,,,,,,,,,,,,,,,,,,,,,,,,,
1577742575.152687,67.000000,0.000000,4227.692383,4330.256348,4174.358887,3925.641113,4215.897461,450.000000,4.000000,,,,0.000000,4.000000,4.000000,4.000000,4.000000,4.000000,,,,,,,,,,,,,,,,,,,,,,,,,,,,,,,,,,,,,
1577742575.160483,68.000000,0.000000,4226.153809,4329.230957,4157.948730,3907.179443,4213.846191,16232.000000,4.000000,,,,0.000000,4.000000,4.000000,4.000000,4.000000,4.000000,34.000000,0.000000,0.151016,-0.232910,0.859375,0.429443,0.520027,-0.588388,0.617685,2.823001,-47.780907,57.871273,,,,,,,,,,,,,,,,,,,,,,,,,
1577742575.168180,69.000000,0.000000,4255.384766,4347.692383,4187.179688,3937.948730,4244.102539,450.000000,4.000000,,,,0.000000,4.000000,4.000000,4.000000,4.000000,4.000000,,,,,,,,,,,,,,,,,,,,,,,,,,,,,,,,,,,,,
1577742575.175977,70.000000,0.000000,4249.743652,4353.846191,4188.205078,3939.487061,4238.974121,16147.000000,4.000000,,,,0.000000,4.000000,4.000000,4.000000,4.000000,4.000000,35.000000,0.000000,0.151016,-0.232910,0.859375,0.429443,0.522957,-0.583505,0.609384,3.378116,-47.847862,58.125496,,,,,,,,,,,,,,,,,,,,,,,,,
1577742575.183773,71.000000,0.000000,4239.487305,4346.666504,4169.230957,3917.948730,4218.974121,450.000000,4.000000,,,,0.000000,4.000000,4.000000,4.000000,4.000000,4.000000,,,,,,,,,,,,,,,,,,,,,,,,,,,,,,,,,,,,,
1577742575.191469,72.000000,0.000000,4255.384766,4346.153809,4177.948730,3931.281982,4224.102539,450.000000,4.000000,,,,0.000000,4.000000,4.000000,4.000000,4.000000,4.000000,36.000000,0.000000,0.150320,-0.232910,0.859375,0.429688,0.524422,-0.586435,0.602548,0.049536,-47.848305,58.354298,,,,,,,,,,,,,,,,,,,,,,,,,
1577742575.199266,73.000000,0.000000,4236.922852,4343.077148,4171.794922,3931.794922,4209.230957,16204.000000,4.000000,,,,0.000000,4.000000,4.000000,4.000000,4.000000,4.000000,,,,,,,,,,,,,,,,,,,,,,,,,,,,,,,,,,,,,
1577742575.206962,74.000000,0.000000,4195.384766,4333.333496,4136.922852,3891.281982,4166.666504,450.000000,4.000000,,,,0.000000,4.000000,4.000000,4.000000,4.000000,4.000000,37.000000,0.000000,0.150000,-0.232666,0.859375,0.429932,0.531746,-0.579110,0.610849,-2.766740,-47.729073,58.560223,,,,,,,,,,,,,,,,,,,,,,,,,
1577742575.214659,75.000000,0.000000,4212.307617,4342.051270,4148.205078,3900.512939,4176.410156,16206.000000,4.000000,,,,0.000000,4.000000,4.000000,4.000000,4.000000,4.000000,,,,,,,,,,,,,30.091026,14.369275,12.373617,3.330227,2.494261,0.625736,0.724621,1.213501,1.346363,2.295226,2.250348,2.586141,4.890879,2.710393,1.781264,3.421364,8.963103,8.354987,3.446691,2.848225,17.990875,9.821996,10.583385,2.851519,2.711807
1577742575.222455,76.000000,0.000000,4253.333496,4352.820313,4182.563965,3947.692383,4220.000000,450.000000,4.000000,,,,0.000000,4.000000,4.000000,4.000000,4.000000,4.000000,38.000000,0.000000,0.150000,-0.232666,0.859375,0.429932,0.534188,-0.578134,0.606455,-1.712466,-47.741394,58.805367,,,,,,,,,,,,,,,,,,,,,,,,,
1577742575.230152,77.000000,0.000000,4267.692383,4348.205078,4187.179688,3971.281982,4240.000000,450.000000,4.000000,,,,0.000000,4.000000,4.000000,4.000000,4.000000,4.000000,,,,,,,,,,,,,,,,,,,,,,,,,,,,,,,,,,,,,
1577742575.237948,78.000000,0.000000,4269.230957,4334.871582,4176.410156,3977.435791,4237.948730,450.000000,4.000000,,,,0.000000,4.000000,4.000000,4.000000,4.000000,4.000000,39.000000,0.000000,0.149678,-0.232422,0.859375,0.430176,0.525399,-0.600107,0.606943,-4.412357,-47.812298,58.966183,,,,,,,,,,,,,,,,,,,,,,,,,
1577742575.245645,79.000000,0.000000,4251.282227,4332.307617,4150.769043,3960.000000,4217.436035,16206.000000,4.000000,,,,0.000000,4.000000,4.000000,4.000000,4.000000,4.000000,,,,,,,,,,,,,,,,,,,,,,,,,,,,,,,,,,,,,
1577742575.253342,80.000000,0.000000,4222.051270,4343.589844,4124.615234,3934.871826,4199.487305,450.000000,4.000000,,,,0.000000,4.000000,4.000000,4.000000,4.000000,4.000000,40.000000,0.000000,0.149678,-0.232422,0.859375,0.430176,0.524422,-0.589364,0.606455,-3.193521,-47.756485,59.170731,,,,,,,,,,,,,,,,,,,,,,,,,
1577742575.261138,81.000000,0.000000,4233.333496,4352.820313,4144.102539,3960.512939,4218.974121,450.000000,4.000000,,,,0.000000,4.000000,4.000000,4.000000,4.000000,4.000000,,,,,,,,,,,,,,,,,,,,,,,,,,,,,,,,,,,,,
1577742575.268835,82.000000,0.000000,4269.743652,4358.461426,4183.077148,4000.512939,4247.692383,450.000000,4.000000,,,,0.000000,4.000000,4.000000,4.000000,4.000000,4.000000,41.000000,0.000000,0.151073,-0.232422,0.859131,0.430176,0.539559,-0.592294,0.603037,-5.984569,-47.766064,59.295010,,,,,,,,,,,,,,,,,,,,,,,,,
1577742575.276631,83.000000,0.000000,4263.589844,4364.102539,4174.871582,3982.051270,4234.358887,16206.000000,4.000000,,,,0.000000,4.000000,4.000000,4.000000,4.000000,4.000000,,,,,,,,,,,,,,,,,,,,,,,,,,,,,,,,,,,,,
1577742575.284428,84.000000,0.000000,4233.846191,4353.333496,4148.717773,3950.769287,4211.794922,450.000000,4.000000,,,,0.000000,4.000000,4.000000,4.000000,4.000000,4.000000,42.000000,0.000000,0.149998,-0.232666,0.859131,0.430420,0.536629,-0.595224,0.608408,-2.514974,-47.834503,59.406860,,,,,,,,,,,,,,,,,,,,,,,,,
1577742575.292125,85.000000,0.000000,4226.153809,4328.205078,4155.384766,3951.281982,4214.358887,450.000000,4.000000,,,,0.000000,4.000000,4.000000,4.000000,4.000000,4.000000,,,,,,,,,,,,,,,,,,,,,,,,,,,,,,,,,,,,,
1577742575.299921,86.000000,0.000000,4223.589844,4334.871582,4165.128418,3951.794922,4214.358887,450.000000,4.000000,,,,0.000000,4.000000,4.000000,4.000000,4.000000,4.000000,43.000000,0.000000,0.149678,-0.232422,0.859375,0.430176,0.524422,-0.589364,0.606455,-5.433691,-47.836281,59.507526,,,,,,,,,,,,,,,,,,,,,,,,,
1577742575.307617,87.000000,0.000000,4217.948730,4349.230957,4152.820313,3947.692383,4208.717773,16206.000000,4.000000,,,,0.000000,4.000000,4.000000,4.000000,4.000000,4.000000,,,,,,,,,,,,,,,,,,,,,,,,,,,,,,,,,,,,,
1577742575.315414,88.000000,0.000000,4217.436035,4334.358887,4145.128418,3953.846191,4208.717773,450.000000,4.000000,,,,0.000000,4.000000,4.000000,4.000000,4.000000,4.000000,44.000000,0.000000,0.149998,-0.232666,0.859131,0.430420,0.536629,-0.595224,0.608408,-2.019184,-47.897697,59.598125,,,,,,,,,,,,,,,,,,,,,,,,,
1577742575.323110,89.000000,0.000000,4234.871582,4335.897461,4165.641113,3978.974365,4231.794922,450.000000,4.000000,,,,0.000000,4.000000,4.000000,4.000000,4.000000,4.000000,,,,,,,,,,,,,,,,,,,,,,,,,,,,,,,,,,,,,
1577742575.330906,90.000000,0.000000,4240.000000,4338.974121,4165.641113,3982.051270,4243.589844,450.000000,4.000000,,,,0.000000,4.000000,4.000000,4.000000,4.000000,4.000000,45.000000,0.000000,0.149619,-0.232910,0.859131,0.430420,0.536629,-0.588876,0.610849,1.831471,-47.952972,59.739479,,,,,,,,,,,,,,,,,,,,,,,,,
1577742575.338603,91.000000,0.000000,4206.153809,4318.461426,4131.282227,3946.666748,4210.256348,16206.000000,4.000000,,,,0.000000,4.000000,4.000000,4.000000,4.000000,4.000000,,,,,,,,,,,,,23.494244,12.339359,13.493108,3.216693,2.739847,0.770748,0.784511,0.873807,1.361347,2.368824,2.142322,2.445566,5.695434,2.453815,1.989805,4.206980,8.337383,9.133657,3.282455,3.168812,15.619121,9.959081,11.997356,2.838043,2.979864
1577742575.346299,92.000000,0.000000,4205.641113,4325.641113,4145.641113,3952.307617,4210.256348,450.000000,4.000000,,,,0.000000,4.000000,4.000000,4.000000,4.000000,4.000000,46.000000,0.000000,0.150637,-0.233154,0.858887,0.430420,0.521981,-0.594736,0.607919,5.117616,-48.062534,59.926514,,,,,,,,,,,,,,,,,,,,,,,,,
1577742575.354096,93.000000,0.000000,4260.000000,4356.410156,4198.974121,4006.153809,4264.102539,450.000000,4.000000,,,,0.000000,4.000000,4.000000,4.000000,4.000000,4.000000,,,,,,,,,,,,,,,,,,,,,,,,,,,,,,,,,,,,,
1577742575.361893,94.000000,0.000000,4274.871582,4349.230957,4204.615234,4018.461426,4277.948730,450.000000,4.000000,,,,0.000000,4.000000,4.000000,4.000000,4.000000,4.000000,47.000000,0.000000,0.150893,-0.233887,0.858643,0.430420,0.524422,-0.583993,0.602548,5.383454,-47.981697,60.214478,,,,,,,,,,,,,,,,,,,,,,,,,
1577742575.369589,95.000000,0.000000,4238.974121,4333.846191,4179.487305,3982.051270,4245.641113,16206.000000,4.000000,,,,0.000000,4.000000,4.000000,4.000000,4.000000,4.000000,,,,,,,,,,,,,,,,,,,,,,,,,,,,,,,,,,,,,
1577742575.377286,96.000000,0.000000,4234.358887,4351.282227,4184.615234,3966.666748,4241.025879,450.000000,4.000000,,,,0.000000,4.000000,4.000000,4.000000,4.000000,4.000000,48.000000,0.000000,0.150828,-0.234375,0.858398,0.430664,0.538582,-0.578134,0.592782,1.794525,-48.028572,60.354012,,,,,,,,,,,,,,,,,,,,,,,,,
1577742575.385082,97.000000,0.000000,4235.384766,4349.743652,4184.102539,3962.564209,4240.000000,450.000000,4.000000,,,,0.000000,4.000000,4.000000,4.000000,4.000000,4.000000,,,,,,,,,,,,,,,,,,,,,,,,,,,,,,,,,,,,,
1577742575.392779,98.000000,0.000000,4218.461426,4323.589844,4157.948730,3947.179443,4217.948730,450.000000,4.000000,,,,0.000000,4.000000,4.000000,4.000000,4.000000,4.000000,49.000000,0.000000,0.151140,-0.234619,0.858154,0.430908,0.533700,-0.586923,0.600107,2.512303,-48.070759,60.300148,,,,,,,,,,,,,,,,,,,,,,,,,
1577742575.400575,99.000000,0.000000,4216.922852,4321.538574,4141.025879,3936.923096,4208.717773,16206.000000,4.000000,,,,0.000000,4.000000,4.000000,4.000000,4.000000,4.000000,,,,,,,,,,,,,,,,,,,,,,,,,,,,,,,,,,,,,
1577742575.408272,100.000000,0.000000,4193.333496,4314.871582,4120.000000,3906.153809,4186.666504,450.000000,4.000000,,,,0.000000,4.000000,4.000000,4.000000,4.000000,4.000000,50.000000,0.000000,0.151450,-0.234863,0.857910,0.431152,0.508309,-0.600107,0.596201,3.038672,-47.929279,60.431114,,,,,,,,,,,,,,,,,,,,,,,,,
1577742575.416068,101.000000,0.000000,4172.820313,4316.922852,4111.794922,3887.179443,4165.128418,450.000000,4.000000,,,,0.000000,4.000000,4.000000,4.000000,4.000000,4.000000,,,,,,,,,,,,,,,,,,,,,,,,,,,,,,,,,,,,,
1577742575.423765,102.000000,0.000000,4222.563965,4364.615234,4152.820313,3937.435791,4204.102539,450.000000,4.000000,,,,0.000000,4.000000,4.000000,4.000000,4.000000,4.000000,51.000000,0.000000,0.150690,-0.235352,0.857910,0.431152,0.529793,-0.596201,0.611826,-0.375594,-47.981400,60.489170,,,,,,,,,,,,,,,,,,,,,,,,,
1577742575.431562,103.000000,0.000000,4272.820313,4375.384766,4182.051270,3986.666748,4253.846191,16206.000000,4.000000,,,,0.000000,4.000000,4.000000,4.000000,4.000000,4.000000,,,,,,,,,,,,,,,,,,,,,,,,,,,,,,,,,,,,,
1577742575.439258,104.000000,0.000000,4250.769043,4322.051270,4154.871582,3958.461426,4238.461426,450.000000,4.000000,,,,0.000000,4.000000,4.000000,4.000000,4.000000,4.000000,52.000000,0.000000,0.150690,-0.235352,0.857910,0.431152,0.540047,-0.597177,0.605966,0.379750,-48.147934,60.601238,,,,,,,,,,,,,,,,,,,,,,,,,
1577742575.447055,105.000000,0.000000,4238.974121,4311.794922,4144.102539,3937.948730,4224.102539,450.000000,4.000000,,,,0.000000,4.000000,4.000000,4.000000,4.000000,4.000000,,,,,,,,,,,,,,,,,,,,,,,,,,,,,,,,,,,,,
1577742575.454751,106.000000,0.000000,4262.563965,4340.512695,4164.102539,3966.153809,4246.153809,450.000000,4.000000,,,,0.000000,4.000000,4.000000,4.000000,4.000000,4.000000,53.000000,0.000000,0.150308,-0.235596,0.857910,0.431152,0.519051,-0.594736,0.605478,3.990512,-48.297817,60.522648,,,,,,,,,,,,,,,,,,,,,,,,,
1577742575.462548,107.000000,0.000000,4249.743652,4320.512695,4148.717773,3953.846191,4235.384766,16206.000000,4.000000,,,,0.000000,4.000000,4.000000,4.000000,4.000000,4.000000,,,,,,,,,,,,,16.172220,9.819799,13.967532,3.256329,3.164763,0.901232,0.919296,0.757128,1.337853,2.423647,2.145953,2.352890,6.786368,2.298856,2.322072,5.104700,7.538935,9.810163,3.229735,3.640105,13.053144,9.765320,13.331460,2.901297,3.363517
1577742575.470244,108.000000,0.000000,4227.692383,4300.000000,4128.205078,3922.564209,4213.333496,450.000000,4.000000,,,,0.000000,4.000000,4.000000,4.000000,4.000000,4.000000,54.000000,0.000000,0.150308,-0.235596,0.857910,0.431152,0.539071,-0.579110,0.608896,4.608322,-48.492523,60.691181,,,,,,,,,,,,,,,,,,,,,,,,,
1577742575.478041,109.000000,0.000000,4226.666504,4320.512695,4133.846191,3925.641113,4219.487305,450.000000,4.000000,,,,0.000000,4.000000,4.000000,4.000000,4.000000,4.000000,,,,,,,,,,,,,,,,,,,,,,,,,,,,,,,,,,,,,
1577742575.485738,110.000000,0.000000,4204.102539,4316.922852,4115.897461,3908.718018,4200.512695,450.000000,4.000000,,,,0.000000,4.000000,4.000000,4.000000,4.000000,4.000000,55.000000,0.000000,0.149925,-0.235840,0.857910,0.431152,0.529793,-0.596201,0.607919,1.096906,-48.428501,60.603600,,,,,,,,,,,,,,,,,,,,,,,,,
1577742575.493534,111.000000,0.000000,4172.820313,4295.897461,4081.025635,3871.794922,4161.538574,16206.000000,4.000000,,,,0.000000,4.000000,4.000000,4.000000,4.000000,4.000000,,,,,,,,,,,,,,,,,,,,,,,,,,,,,,,,,,,,,
1577742575.501231,112.000000,0.000000,4200.512695,4310.256348,4098.974121,3900.512939,4189.743652,450.000000,4.000000,,,,0.000000,4.000000,4.000000,4.000000,4.000000,4.000000,56.000000,0.000000,0.150625,-0.235840,0.857910,0.430908,0.540536,-0.590829,0.615244,1.824631,-48.370880,60.644409,,,,,,,,,,,,,,,,,,,,,,,,,
1577742575.508927,113.000000,0.000000,4266.666504,4338.974121,4149.230957,3973.846191,4263.589844,450.000000,4.000000,,,,0.000000,4.000000,4.000000,4.000000,4.000000,4.000000,,,,,,,,,,,,,,,,,,,,,,,,,,,,,,,,,,,,,
1577742575.516724,114.000000,0.000000,4284.615234,4338.461426,4156.410156,3991.281982,4277.948730,450.000000,4.000000,,,,0.000000,4.000000,4.000000,4.000000,4.000000,4.000000,57.000000,0.000000,0.151629,-0.236084,0.857666,0.430908,0.543465,-0.583017,0.622568,5.111459,-48.139576,58.826859,,,,,,,,,,,,,,,,,,,,,,,,,
1577742575.524420,115.000000,0.000000,4265.128418,4329.743652,4136.410156,3967.179443,4251.282227,16206.000000,4.000000,,,,0.000000,4.000000,4.000000,4.000000,4.000000,4.000000,,,,,,,,,,,,,,,,,,,,,,,,,,,,,,,,,,,,,
1577742575.532217,116.000000,0.000000,4269.230957,4330.256348,4147.179688,3974.358887,4261.025879,450.000000,4.000000,,,,0.000000,4.000000,4.000000,4.000000,4.000000,4.000000,58.000000,0.000000,0.151249,-0.236328,0.857666,0.430908,0.538094,-0.579599,0.602060,5.377913,-48.110847,59.045341,,,,,,,,,,,,,,,,,,,,,,,,,
1577742575.539913,117.000000,0.000000,4271.794922,4324.102539,4154.358887,3984.102539,4269.230957,450.000000,4.000000,,,,0.000000,4.000000,4.000000,4.000000,4.000000,4.000000,,,,,,,,,,,,,,,,,,,,,,,,,,,,,,,,,,,,,
1577742575.547710,118.000000,0.000000,4247.692383,4320.512695,4131.282227,3955.384521,4239.487305,450.000000,4.000000,,,,0.000000,4.000000,4.000000,4.000000,4.000000,4.000000,59.000000,0.000000,0.151868,-0.236816,0.857422,0.430908,0.550301,-0.588388,0.595224,8.548675,-48.025177,59.182159,,,,,,,,,,,,,,,,,,,,,,,,,
1577742575.555407,119.000000,0.000000,4249.743652,4333.846191,4129.230957,3941.025635,4232.820313,16206.000000,4.000000,,,,0.000000,4.000000,4.000000,4.000000,4.000000,4.000000,,,,,,,,,,,,,,,,,,,,,,,,,,,,,,,,,,,,,
1577742575.563203,120.000000,0.000000,4248.717773,4326.153809,4124.615234,3931.794922,4226.666504,450.000000,4.000000,,,,0.000000,4.000000,4.000000,4.000000,4.000000,4.000000,60.000000,0.000000,0.151486,-0.237061,0.857422,0.430908,0.535653,-0.594247,0.605966,7.574176,-48.007889,59.305294,,,,,,,,,,,,,,,,,,,,,,,,,
1577742575.570900,121.000000,0.000000,4229.230957,4306.153809,4106.153809,3907.179443,4203.077148,450.000000,4.000000,,,,0.000000,4.000000,4.000000,4.000000,4.000000,4.000000,,,,,,,,,,,,,,,,,,,,,,,,,,,,,,,,,,,,,
1577742575.578696,122.000000,0.000000,4257.436035,4320.512695,4126.666504,3931.794922,4227.179688,450.000000,4.000000,,,,0.000000,4.000000,4.000000,4.000000,4.000000,4.000000,61.000000,0.000000,0.151104,-0.237305,0.857422,0.430908,0.532723,-0.590829,0.609384,7.713989,-47.992329,59.475933,,,,,,,,,,,,,,,,,,,,,,,,,
1577742575.586393,123.000000,0.000000,4285.641113,4333.333496,4146.666504,3967.179443,4254.871582,16206.000000,4.000000,,,,0.000000,4.000000,4.000000,4.000000,4.000000,4.000000,,,,,,,,,,,,,9.971630,7.315143,13.657618,3.443769,3.711958,0.979810,1.028834,0.820397,1.289956,2.434736,2.206787,2.289242,8.055156,2.282727,2.743150,5.843638,6.696990,10.385018,3.335344,4.212985,10.825700,9.230467,14.337564,3.031431,3.832848
1577742575.594189,124.000000,0.000000,4262.051270,4314.358887,4125.128418,3947.179443,4231.282227,450.000000,4.000000,,,,0.000000,4.000000,4.000000,4.000000,4.000000,4.000000,62.000000,0.000000,0.151720,-0.237793,0.857178,0.430908,0.527840,-0.589364,0.605966,3.892006,-48.217587,57.715416,,,,,,,,,,,,,,,,,,,,,,,,,
1577742575.601886,125.000000,0.000000,4243.077148,4309.743652,4105.128418,3921.538574,4210.769043,450.000000,4.000000,,,,0.000000,4.000000,4.000000,4.000000,4.000000,4.000000,,,,,,,,,,,,,,,,,,,,,,,,,,,,,,,,,,,,,
1577742575.609683,126.000000,0.000000,4246.666504,4336.922852,4105.641113,3931.794922,4217.436035,450.000000,4.000000,,,,0.000000,4.000000,4.000000,4.000000,4.000000,4.000000,63.000000,0.000000,0.152332,-0.238281,0.856934,0.430908,0.533211,-0.579599,0.598642,7.091728,-48.001610,58.164673,,,,,,,,,,,,,,,,,,,,,,,,,
1577742575.617379,127.000000,0.000000,4245.128418,4349.743652,4114.358887,3950.769287,4224.615234,236.000000,4.000000,,,,0.000000,4.000000,4.000000,4.000000,4.000000,4.000000,,,,,,,,,,,,,,,,,,,,,,,,,,,,,,,,,,,,,
1577742575.625176,0.000000,0.000000,4262.051270,4345.641113,4140.000000,3974.871826,4246.666504,450.000000,4.000000,,,,0.000000,4.000000,4.000000,4.000000,4.000000,4.000000,0.000000,0.000000,0.152557,-0.239014,0.856689,0.430908,0.537606,-0.589853,0.612802,7.219970,-47.986679,58.509186,,,,,,,,,,,,,,,,,,,,,,,,,
1577742575.632872,1.000000,0.000000,4288.717773,4344.102539,4152.307617,3988.205078,4268.717773,450.000000,4.000000,,,,0.000000,4.000000,4.000000,4.000000,4.000000,4.000000,,,,,,,,,,,,,,,,,,,,,,,,,,,,,,,,,,,,,
1577742575.640769,2.000000,0.000000,4265.641113,4321.538574,4121.025879,3957.948730,4244.615234,16212.000000,4.000000,,,,0.000000,4.000000,4.000000,4.000000,4.000000,4.000000,1.000000,0.000000,0.152473,-0.239502,0.856445,0.431152,0.539071,-0.577157,0.607431,10.146710,-48.152687,58.759434,,,,,,,,,,,,,,,,,,,,,,,,,
1577742575.648565,3.000000,0.000000,4241.025879,4305.641113,4109.230957,3933.846191,4225.641113,450.000000,4.000000,,,,0.000000,4.000000,4.000000,4.000000,4.000000,4.000000,,,,,,,,,,,,,,,,,,,,,,,,,,,,,,,,,,,,,
1577742575.656362,4.000000,0.000000,4256.922852,4331.282227,4132.820313,3945.641113,4242.051270,16237.000000,4.000000,,,,0.000000,4.000000,4.000000,4.000000,4.000000,4.000000,2.000000,0.000000,0.152385,-0.239990,0.856201,0.431396,0.539071,-0.575204,0.609873,9.909639,-48.182461,58.924843,,,,,,,,,,,,,,,,,,,,,,,,,
1577742575.664058,5.000000,0.000000,4266.666504,4349.230957,4125.128418,3942.564209,4243.589844,450.000000,4.000000,,,,0.000000,4.000000,4.000000,4.000000,4.000000,4.000000,,,,,,,,,,,,,,,,,,,,,,,,,,,,,,,,,,,,,
1577742575.671755,6.000000,0.000000,4253.333496,4317.436035,4089.230713,3920.512939,4221.025879,16150.000000,4.000000,,,,0.000000,4.000000,4.000000,4.000000,4.000000,4.000000,3.000000,0.000000,0.152296,-0.240479,0.855957,0.431641,0.527352,-0.571786,0.598154,9.756090,-48.209259,59.133526,,,,,,,,,,,,,,,,,,,,,,,,,
1577742575.679552,7.000000,0.000000,4230.256348,4281.025879,4068.205078,3897.435791,4195.384766,450.000000,4.000000,,,,0.000000,4.000000,4.000000,4.000000,4.000000,4.000000,,,,,,,,,,,,,,,,,,,,,,,,,,,,,,,,,,,,,
1577742575.687248,8.000000,0.000000,4193.846191,4286.666504,4055.897461,3866.666748,4162.051270,450.000000,4.000000,,,,0.000000,4.000000,4.000000,4.000000,4.000000,4.000000,4.000000,0.000000,0.152204,-0.240967,0.855713,0.431885,0.542489,-0.580087,0.602548,12.369403,-48.113750,57.227802,,,,,,,,,,,,,,,,,,,,,,,,,
1577742575.695045,9.000000,0.000000,4198.974121,4330.769043,4073.846191,3886.666748,4162.051270,16203.000000,4.000000,,,,0.000000,4.000000,4.000000,4.000000,4.000000,4.000000,,,,,,,,,,,,,,,,,,,,,,,,,,,,,,,,,,,,,
1577742575.702741,10.000000,0.000000,4281.538574,4368.205078,4146.153809,3980.512939,4239.487305,450.000000,4.000000,,,,0.000000,4.000000,4.000000,4.000000,4.000000,4.000000,5.000000,0.000000,0.152496,-0.241211,0.855469,0.432129,0.548348,-0.591318,0.611337,12.029694,-48.087605,57.546375,,,,,,,,,,,,,,,,,,,,,,,,,
1577742575.710538,11.000000,0.000000,4318.974121,4352.820313,4171.794922,4008.718018,4285.128418,16208.000000,4.000000,,,,0.000000,4.000000,4.000000,4.000000,4.000000,4.000000,,,,,,,,,,,,,5.865202,5.480799,12.768780,3.752344,4.264002,1.007337,1.070775,1.008102,1.259875,2.388530,2.326303,2.331389,9.356265,2.416910,3.173807,6.127535,6.279806,10.853130,3.610944,4.787585,9.171005,8.790162,14.898122,3.229007,4.299804
1577742575.718235,12.000000,0.000000,4250.256348,4313.846191,4104.615234,3929.230713,4219.487305,450.000000,4.000000,,,,0.000000,4.000000,4.000000,4.000000,4.000000,4.000000,6.000000,0.000000,0.153091,-0.241699,0.855225,0.432129,0.542977,-0.588388,0.600107,7.716325,-48.064072,57.952721,,,,,,,,,,,,,,,,,,,,,,,,,
1577742575.726031,13.000000,0.000000,4216.410156,4307.692383,4075.384521,3903.589844,4177.436035,450.000000,4.000000,,,,0.000000,4.000000,4.000000,4.000000,4.000000,4.000000,,,,,,,,,,,,,,,,,,,,,,,,,,,,,,,,,,,,,
1577742575.733828,14.000000,0.000000,4254.871582,4333.333496,4113.846191,3945.641113,4210.769043,450.000000,4.000000,,,,0.000000,4.000000,4.000000,4.000000,4.000000,4.000000,7.000000,0.000000,0.152013,-0.241943,0.855225,0.432373,0.533211,-0.583017,0.583505,10.593430,-48.102711,58.318432,,,,,,,,,,,,,,,,,,,,,,,,,
1577742575.741524,15.000000,0.000000,4235.384766,4343.589844,4102.051270,3929.230713,4195.897461,16208.000000,4.000000,,,,0.000000,4.000000,4.000000,4.000000,4.000000,4.000000,,,,,,,,,,,,,,,,,,,,,,,,,,,,,,,,,,,,,
1577742575.749221,16.000000,0.000000,4193.846191,4334.871582,4067.179443,3909.230713,4158.461426,0.000000,4.000000,,,,0.000000,4.000000,4.000000,4.000000,4.000000,4.000000,8.000000,0.000000,0.152496,-0.241211,0.855469,0.432129,0.548348,-0.591318,0.611337,10.431317,-48.077667,58.527939,,,,,,,,,,,,,,,,,,,,,,,,,
1577742575.757017,17.000000,0.000000,4237.436035,4340.512695,4094.358887,3960.000000,4196.410156,0.000000,4.000000,,,,0.000000,4.000000,4.000000,4.000000,4.000000,4.000000,,,,,,,,,,,,,,,,,,,,,,,,,,,,,,,,,,,,,
1577742575.764814,18.000000,0.000000,4282.051270,4351.282227,4120.000000,3983.076904,4237.948730,0.000000,4.000000,,,,0.000000,4.000000,4.000000,4.000000,4.000000,4.000000,9.000000,0.000000,0.152013,-0.241943,0.855225,0.432373,0.533211,-0.583017,0.583505,13.036922,-48.114944,58.836128,,,,,,,,,,,,,,,,,,,,,,,,,
1577742575.772510,19.000000,0.000000,4261.025879,4343.077148,4099.487305,3953.846191,4221.538574,0.000000,4.000000,,,,0.000000,4.000000,4.000000,4.000000,4.000000,4.000000,,,,,,,,,,,,,,,,,,,,,,,,,,,,,,,,,,,,,
1577742575.780207,20.000000,0.000000,4234.358887,4320.512695,4075.897461,3946.153809,4193.333496,0.000000,4.000000,,,,0.000000,4.000000,4.000000,4.000000,4.000000,4.000000,10.000000,0.000000,0.152994,-0.242188,0.854980,0.432373,0.534188,-0.574716,0.611826,8.503201,-48.148495,59.053684,,,,,,,,,,,,,,,,,,,,,,,,,
1577742575.788003,21.000000,0.000000,4227.179688,4316.410156,4063.076904,3947.692383,4182.051270,0.000000,4.000000,,,,0.000000,4.000000,4.000000,4.000000,4.000000,4.000000,,,,,,,,,,,,,,,,,,,,,,,,,,,,,,,,,,,,,
1577742575.795800,22.000000,0.000000,4209.230957,4323.077148,4053.333252,3931.794922,4170.256348,0.000000,4.000000,,,,0.000000,4.000000,4.000000,4.000000,4.000000,4.000000,11.000000,0.000000,0.152302,-0.242188,0.854980,0.432617,0.536629,-0.572763,0.611826,8.609926,-48.059059,59.309296,,,,,,,,,,,,,,,,,,,,,,,,,
1577742575.803496,23.000000,0.000000,4197.436035,4327.692383,4060.512939,3942.051270,4163.589844,0.000000,4.000000,,,,0.000000,4.000000,4.000000,4.000000,4.000000,4.000000,,,,,,,,,,,,,,,,,,,,,,,,,,,,,,,,,,,,,
1577742575.811193,24.000000,0.000000,4215.897461,4342.051270,4083.076904,3991.281982,4179.487305,0.000000,4.000000,,,,0.000000,4.000000,4.000000,4.000000,4.000000,4.000000,12.000000,0.000000,0.152302,-0.242188,0.854980,0.432617,0.540536,-0.579599,0.608408,4.698350,-48.098198,59.359905,,,,,,,,,,,,,,,,,,,,,,,,,
1577742575.818989,25.000000,0.000000,4249.743652,4355.897461,4106.153809,4030.769287,4210.769043,0.000000,4.000000,,,,0.000000,4.000000,4.000000,4.000000,4.000000,4.000000,,,,,,,,,,,,,,,,,,,,,,,,,,,,,,,,,,,,,
1577742575.826686,26.000000,0.000000,4298.461426,4371.794922,4141.538574,4065.641113,4256.922852,0.000000,4.000000,,,,0.000000,4.000000,4.000000,4.000000,4.000000,4.000000,13.000000,0.000000,0.152302,-0.242188,0.854980,0.432617,0.545419,-0.590341,0.598154,5.065930,-48.193237,59.525082,,,,,,,,,,,,,,,,,,,,,,,,,
1577742575.834482,27.000000,0.000000,4329.230957,4379.487305,4170.769043,4101.025879,4291.282227,0.000000,4.000000,,,,0.000000,4.000000,4.000000,4.000000,4.000000,4.000000,,,,,,,,,,,,,3.667382,4.705259,11.659177,4.135988,4.689015,1.012022,1.087833,1.266907,1.293049,2.296905,2.518408,2.563457,10.493527,2.683117,3.523183,6.094260,6.733643,11.155049,4.024145,5.254379,7.899951,8.881568,14.964923,3.487688,4.657931
1577742575.842179,28.000000,0.000000,4299.487305,4349.743652,4147.692383,4088.718018,4261.025879,0.000000,4.000000,,,,0.000000,4.000000,4.000000,4.000000,4.000000,4.000000,14.000000,0.000000,0.152994,-0.242188,0.854980,0.432373,0.538582,-0.584482,0.601083,4.379891,-48.099327,59.673740,,,,,,,,,,,,,,,,,,,,,,,,,
1577742575.849976,29.000000,0.000000,4247.692383,4323.077148,4108.205078,4046.153809,4202.051270,0.000000,4.000000,,,,0.000000,4.000000,4.000000,4.000000,4.000000,4.000000,,,,,,,,,,,,,,,,,,,,,,,,,,,,,,,,,,,,,
1577742575.857672,30.000000,0.000000,4229.230957,4348.205078,4103.589844,4036.410156,4181.538574,0.000000,4.000000,,,,0.000000,4.000000,4.000000,4.000000,4.000000,4.000000,15.000000,0.000000,0.151623,-0.242188,0.855225,0.432373,0.533700,-0.581064,0.610849,7.650455,-48.134441,59.807533,,,,,,,,,,,,,,,,,,,,,,,,,
1577742575.865469,31.000000,0.000000,4215.897461,4365.128418,4100.000000,4039.487061,4174.358887,0.000000,4.000000,,,,0.000000,4.000000,4.000000,4.000000,4.000000,4.000000,,,,,,,,,,,,,,,,,,,,,,,,,,,,,,,,,,,,,
1577742575.873165,32.000000,0.000000,4201.025879,4344.615234,4082.051270,4033.333252,4158.974121,0.000000,4.000000,,,,0.000000,4.000000,4.000000,4.000000,4.000000,4.000000,16.000000,0.000000,0.151623,-0.242188,0.855225,0.432373,0.546883,-0.556649,0.617685,4.014272,-48.225857,59.987762,,,,,,,,,,,,,,,,,,,,,,,,,
1577742575.880962,33.000000,0.000000,4217.436035,4348.717773,4091.794922,4046.153809,4169.230957,0.000000,4.000000,,,,0.000000,4.000000,4.000000,4.000000,4.000000,4.000000,,,,,,,,,,,,,,,,,,,,,,,,,,,,,,,,,,,,,
1577742575.888659,34.000000,0.000000,4233.846191,4369.230957,4116.922852,4067.692383,4193.333496,0.000000,4.000000,,,,0.000000,4.000000,4.000000,4.000000,4.000000,4.000000,17.000000,0.000000,0.152318,-0.242188,0.855225,0.432129,0.538582,-0.573251,0.606943,3.433398,-48.128685,60.090153,,,,,,,,,,,,,,,,,,,,,,,,,
1577742575.896455,35.000000,0.000000,4226.153809,4355.897461,4110.256348,4068.205078,4195.384766,0.000000,4.000000,,,,0.000000,4.000000,4.000000,4.000000,4.000000,4.000000,,,,,,,,,,,,,,,,,,,,,,,,,,,,,,,,,,,,,
1577742575.904151,36.000000,0.000000,4212.307617,4330.256348,4082.564209,4042.564209,4176.922852,0.000000,4.000000,,,,0.000000,4.000000,4.000000,4.000000,4.000000,4.000000,18.000000,0.000000,0.151623,-0.242188,0.855225,0.432373,0.531258,-0.577157,0.607431,3.688212,-48.101044,60.122490,,,,,,,,,,,,,,,,,,,,,,,,,
1577742575.911948,37.000000,0.000000,4227.179688,4351.794922,4095.897461,4042.564209,4183.077148,0.000000,4.000000,,,,0.000000,4.000000,4.000000,4.000000,4.000000,4.000000,,,,,,,,,,,,,,,,,,,,,,,,,,,,,,,,,,,,,
1577742575.919644,38.000000,0.000000,4254.358887,4390.256348,4128.717773,4074.358887,4211.794922,0.000000,4.000000,,,,0.000000,4.000000,4.000000,4.000000,4.000000,4.000000,19.000000,0.000000,0.152013,-0.241943,0.855225,0.432373,0.534188,-0.583993,0.604990,4.096991,-48.076172,60.211411,,,,,,,,,,,,,,,,,,,,,,,,,
1577742575.927440,39.000000,0.000000,4265.641113,4376.410156,4137.436035,4089.230713,4230.256348,0.000000,4.000000,,,,0.000000,4.000000,4.000000,4.000000,4.000000,4.000000,,,,,,,,,,,,,,,,,,,,,,,,,,,,,,,,,,,,,
1577742575.935137,40.000000,0.000000,4270.256348,4344.102539,4142.051270,4088.718018,4235.384766,0.000000,4.000000,,,,0.000000,4.000000,4.000000,4.000000,4.000000,4.000000,20.000000,0.000000,0.152400,-0.241699,0.855225,0.432373,0.536141,-0.579110,0.605966,4.464891,-48.113598,60.231621,,,,,,,,,,,,,,,,,,,,,,,,,
1577742575.942833,41.000000,0.000000,4241.538574,4343.077148,4121.538574,4054.358887,4204.615234,0.000000,4.000000,,,,0.000000,4.000000,4.000000,4.000000,4.000000,4.000000,,,,,,,,,,,,,,,,,,,,,,,,,,,,,,,,,,,,,
1577742575.950630,42.000000,0.000000,4196.410156,4357.436035,4080.512939,4009.230713,4158.974121,0.000000,4.000000,,,,0.000000,4.000000,4.000000,4.000000,4.000000,4.000000,21.000000,0.000000,0.152400,-0.241699,0.855225,0.432373,0.548837,-0.590341,0.602548,4.676372,-48.087467,60.309624,,,,,,,,,,,,,,,,,,,,,,,,,
1577742575.958327,43.000000,0.000000,4220.512695,4374.871582,4100.512695,4043.589844,4184.615234,0.000000,4.000000,,,,0.000000,4.000000,4.000000,4.000000,4.000000,4.000000,,,,,,,,,,,,,2.458575,5.091414,10.766272,4.534301,4.905538,1.008474,1.179079,1.553173,1.434724,2.196389,2.784279,3.118038,11.293053,3.039427,3.732737,5.700027,8.374387,11.333640,4.513901,5.541439,6.679747,9.746946,14.655638,3.796678,4.836689
1577742575.966123,44.000000,0.000000,4274.358887,4375.384766,4150.256348,4101.025879,4240.512695,0.000000,4.000000,,,,0.000000,4.000000,4.000000,4.000000,4.000000,4.000000,22.000000,0.000000,0.152400,-0.241699,0.855225,0.432373,0.560555,-0.582040,0.601083,1.158151,-47.944321,60.499462,,,,,,,,,,,,,,,,,,,,,,,,,
1577742575.973820,45.000000,0.000000,4257.436035,4357.436035,4142.051270,4072.820557,4225.128418,0.000000,4.000000,,,,0.000000,4.000000,4.000000,4.000000,4.000000,4.000000,,,,,,,,,,,,,,,,,,,,,,,,,,,,,,,,,,,,,
1577742575.981616,46.000000,0.000000,4251.794922,4374.358887,4141.025879,4060.512939,4217.948730,0.000000,4.000000,,,,0.000000,4.000000,4.000000,4.000000,4.000000,4.000000,23.000000,0.000000,0.151706,-0.241699,0.855225,0.432617,0.549813,-0.599130,0.612802,1.700305,-48.054749,60.550682,,,,,,,,,,,,,,,,,,,,,,,,,
1577742575.989313,47.000000,0.000000,4271.282227,4389.743652,4156.410156,4085.641113,4234.871582,0.000000,4.000000,,,,0.000000,4.000000,4.000000,4.000000,4.000000,4.000000,,,,,,,,,,,,,,,,,,,,,,,,,,,,,,,,,,,,,
1577742575.997109,48.000000,0.000000,4218.461426,4352.820313,4115.384766,4041.538574,4181.025879,0.000000,4.000000,,,,0.000000,4.000000,4.000000,4.000000,4.000000,4.000000,24.000000,0.000000,0.151706,-0.241699,0.855225,0.432617,0.543954,-0.591318,0.613291,-1.460494,-48.213947,60.536964,,,,,,,,,,,,,,,,,,,,,,,,,
1577742576.004806,49.000000,0.000000,4194.871582,4340.000000,4091.281982,4018.974365,4156.922852,0.000000,4.000000,,,,0.000000,4.000000,4.000000,4.000000,4.000000,4.000000,,,,,,,,,,,,,,,,,,,,,,,,,,,,,,,,,,,,,
1577742576.012603,50.000000,0.000000,4238.974121,4364.615234,4120.512695,4061.538574,4199.487305,0.000000,4.000000,,,,0.000000,4.000000,4.000000,4.000000,4.000000,4.000000,25.000000,0.000000,0.152094,-0.241455,0.855225,0.432617,0.540536,-0.592782,0.601572,2.274477,-48.237598,58.550713,,,,,,,,,,,,,,,,,,,,,,,,,
1577742576.020299,51.000000,0.000000,4200.000000,4337.948730,4096.410156,4027.179443,4165.128418,0.000000,4.000000,,,,0.000000,4.000000,4.000000,4.000000,4.000000,4.000000,,,,,,,,,,,,,,,,,,,,,,,,,,,,,,,,,,,,,
1577742576.028096,52.000000,0.000000,4131.282227,4294.871582,4045.641113,3954.358887,4104.615234,0.000000,4.000000,,,,0.000000,4.000000,4.000000,4.000000,4.000000,4.000000,26.000000,0.000000,0.151414,-0.241455,0.855469,0.432373,0.528328,-0.591318,0.607431,2.884444,-48.318699,58.796810,,,,,,,,,,,,,,,,,,,,,,,,,
1577742576.035792,53.000000,0.000000,4186.153809,4327.692383,4087.692383,3995.384521,4163.077148,0.000000,4.000000,,,,0.000000,4.000000,4.000000,4.000000,4.000000,4.000000,,,,,,,,,,,,,,,,,,,,,,,,,,,,,,,,,,,,,
1577742576.043589,54.000000,0.000000,4264.615234,4372.820313,4154.871582,4074.358887,4243.077148,0.000000,4.000000,,,,0.000000,4.000000,4.000000,4.000000,4.000000,4.000000,27.000000,0.000000,0.151414,-0.241455,0.855469,0.432373,0.533211,-0.582040,0.601572,3.313785,-48.272057,59.018295,,,,,,,,,,,,,,,,,,,,,,,,,
1577742576.051286,55.000000,0.000000,4255.384766,4352.307617,4152.307617,4074.871826,4233.333496,0.000000,4.000000,,,,0.000000,4.000000,4.000000,4.000000,4.000000,4.000000,,,,,,,,,,,,,,,,,,,,,,,,,,,,,,,,,,,,,
1577742576.059082,56.000000,0.000000,4246.153809,4332.307617,4149.743652,4066.153809,4222.563965,0.000000,4.000000,,,,0.000000,4.000000,4.000000,4.000000,4.000000,4.000000,28.000000,0.000000,0.151803,-0.241211,0.855469,0.432373,0.543954,-0.575204,0.602060,6.690959,-48.110451,59.098003,,,,,,,,,,,,,,,,,,,,,,,,,
1577742576.066779,57.000000,0.000000,4272.820313,4354.871582,4170.256348,4092.820557,4257.436035,0.000000,4.000000,,,,0.000000,4.000000,4.000000,4.000000,4.000000,4.000000,,,,,,,,,,,,,,,,,,,,,,,,,,,,,,,,,,,,,
1577742576.074675,58.000000,0.000000,4268.717773,4348.205078,4154.871582,4089.743652,4261.538574,0.000000,4.000000,,,,0.000000,4.000000,4.000000,4.000000,4.000000,4.000000,29.000000,0.000000,0.151803,-0.241211,0.855469,0.432373,0.539559,-0.573251,0.615732,9.730415,-48.204266,59.109924,,,,,,,,,,,,,,,,,,,,,,,,,
1577742576.082472,59.000000,0.000000,4248.717773,4323.077148,4127.179688,4057.948730,4229.743652,0.000000,4.000000,,,,0.000000,4.000000,4.000000,4.000000,4.000000,4.000000,,,,,,,,,,,,,1.634255,6.388422,10.558701,4.948378,4.914758,1.008655,1.429895,1.838863,1.714120,2.127992,3.058583,4.126321,11.700608,3.453677,3.800861,5.091319,11.167068,11.573456,5.051193,5.634738,5.457236,11.290465,14.278465,4.195198,4.832287
1577742576.090368,60.000000,0.000000,4261.025879,4347.179688,4129.743652,4061.025635,4227.179688,0.000000,4.000000,,,,0.000000,4.000000,4.000000,4.000000,4.000000,4.000000,30.000000,0.000000,0.151105,-0.241211,0.855469,0.432617,0.523934,-0.572274,0.607431,12.525742,-48.228882,59.300098,,,,,,,,,,,,,,,,,,,,,,,,,
1577742576.098165,61.000000,0.000000,4248.205078,4352.820313,4107.692383,4048.718018,4212.820313,0.000000,4.000000,,,,0.000000,4.000000,4.000000,4.000000,4.000000,4.000000,,,,,,,,,,,,,,,,,,,,,,,,,,,,,,,,,,,,,
1577742576.105961,62.000000,0.000000,4198.974121,4309.230957,4066.666748,3999.487061,4166.153809,0.000000,4.000000,,,,0.000000,4.000000,4.000000,4.000000,4.000000,4.000000,31.000000,0.000000,0.151105,-0.241211,0.855469,0.432617,0.535164,-0.587900,0.596201,8.282399,-48.191223,59.411442,,,,,,,,,,,,,,,,,,,,,,,,,
1577742576.113658,63.000000,0.000000,4196.410156,4311.794922,4077.435791,3994.358887,4163.589844,0.000000,4.000000,,,,0.000000,4.000000,4.000000,4.000000,4.000000,4.000000,,,,,,,,,,,,,,,,,,,,,,,,,,,,,,,,,,,,,
1577742576.121354,64.000000,0.000000,4233.333496,4357.948730,4119.487305,4035.897461,4207.179688,450.000000,4.000000,,,,0.000000,4.000000,4.000000,4.000000,4.000000,4.000000,32.000000,0.000000,0.152481,-0.241211,0.855225,0.432617,0.539559,-0.591806,0.597665,11.162712,-48.276962,59.392017,,,,,,,,,,,,,,,,,,,,,,,,,
1577742576.129151,65.000000,0.000000,4247.692383,4366.666504,4136.922852,4055.384521,4225.128418,450.000000,4.000000,,,,0.000000,4.000000,4.000000,4.000000,4.000000,4.000000,,,,,,,,,,,,,,,,,,,,,,,,,,,,,,,,,,,,,
1577742576.136847,66.000000,0.000000,4246.153809,4356.922852,4136.922852,4054.358887,4214.358887,16220.000000,4.000000,,,,0.000000,4.000000,4.000000,4.000000,4.000000,4.000000,33.000000,0.000000,0.152094,-0.241455,0.855225,0.432617,0.541512,-0.579599,0.607431,13.635363,-48.234493,59.494167,,,,,,,,,,,,,,,,,,,,,,,,,
1577742576.144644,67.000000,0.000000,4270.769043,4365.641113,4156.410156,4076.410156,4231.282227,450.000000,4.000000,,,,0.000000,4.000000,4.000000,4.000000,4.000000,4.000000,,,,,,,,,,,,,,,,,,,,,,,,,,,,,,,,,,,,,
1577742576.152340,68.000000,0.000000,4284.102539,4362.051270,4161.025879,4089.230713,4248.717773,16248.000000,4.000000,,,,0.000000,4.000000,4.000000,4.000000,4.000000,4.000000,34.000000,0.000000,0.151398,-0.241455,0.855225,0.432861,0.551766,-0.583017,0.592782,16.040195,-48.256088,59.586102,,,,,,,,,,,,,,,,,,,,,,,,,
1577742576.160137,69.000000,0.000000,4241.538574,4342.051270,4121.538574,4050.769287,4217.948730,450.000000,4.000000,,,,0.000000,4.000000,4.000000,4.000000,4.000000,4.000000,,,,,,,,,,,,,,,,,,,,,,,,,,,,,,,,,,,,,
1577742576.167834,70.000000,0.000000,4215.384766,4344.102539,4104.615234,4023.076904,4194.358887,16157.000000,4.000000,,,,0.000000,4.000000,4.000000,4.000000,4.000000,4.000000,35.000000,0.000000,0.151787,-0.241211,0.855225,0.432861,0.546395,-0.581552,0.610361,15.153959,-48.096081,59.788475,,,,,,,,,,,,,,,,,,,,,,,,,
1577742576.175630,71.000000,0.000000,4249.743652,4360.512695,4128.717773,4052.307617,4221.025879,450.000000,4.000000,,,,0.000000,4.000000,4.000000,4.000000,4.000000,4.000000,,,,,,,,,,,,,,,,,,,,,,,,,,,,,,,,,,,,,
1577742576.183327,72.000000,0.000000,4260.000000,4345.641113,4125.128418,4066.153809,4232.820313,450.000000,4.000000,,,,0.000000,4.000000,4.000000,4.000000,4.000000,4.000000,36.000000,0.000000,0.152094,-0.241455,0.855225,0.432617,0.541512,-0.579599,0.607431,17.287300,-48.071701,59.791164,,,,,,,,,,,,,,,,,,,,,,,,,
1577742576.191123,73.000000,0.000000,4206.153809,4312.820313,4074.871826,4010.769287,4184.615234,16201.000000,4.000000,,,,0.000000,4.000000,4.000000,4.000000,4.000000,4.000000,,,,,,,,,,,,,,,,,,,,,,,,,,,,,,,,,,,,,
1577742576.198820,74.000000,0.000000,4188.717773,4334.871582,4064.102539,3982.564209,4168.205078,450.000000,4.000000,,,,0.000000,4.000000,4.000000,4.000000,4.000000,4.000000,37.000000,0.000000,0.151787,-0.241211,0.855225,0.432861,0.546395,-0.581552,0.610361,16.276356,-47.930130,59.973030,,,,,,,,,,,,,,,,,,,,,,,,,
1577742576.206716,75.000000,0.000000,4244.615234,4378.974121,4116.922852,4035.384521,4225.641113,16218.000000,4.000000,,,,0.000000,4.000000,4.000000,4.000000,4.000000,4.000000,,,,,,,,,,,,,1.206213,8.137817,11.285970,5.435501,4.787730,0.984306,1.852371,2.094862,2.126270,2.122890,3.300231,5.644425,11.770222,3.930160,3.774881,4.654573,14.563960,12.038129,5.664444,5.575154,4.399117,13.054313,14.182167,4.765259,4.702764
1577742576.214513,76.000000,0.000000,4278.974121,4359.487305,4146.153809,4071.794922,4265.641113,450.000000,4.000000,,,,0.000000,4.000000,4.000000,4.000000,4.000000,4.000000,38.000000,0.000000,0.151787,-0.241211,0.855225,0.432861,0.526864,-0.581552,0.598154,18.297457,-47.922344,59.957264,,,,,,,,,,,,,,,,,,,,,,,,,
1577742576.222409,77.000000,0.000000,4255.384766,4334.871582,4121.538574,4048.205078,4241.538574,450.000000,4.000000,,,,0.000000,4.000000,4.000000,4.000000,4.000000,4.000000,,,,,,,,,,,,,,,,,,,,,,,,,,,,,,,,,,,,,
1577742576.230206,78.000000,0.000000,4225.641113,4355.897461,4101.025879,4018.461426,4205.128418,450.000000,4.000000,,,,0.000000,4.000000,4.000000,4.000000,4.000000,4.000000,39.000000,0.000000,0.151398,-0.241455,0.855225,0.432861,0.537606,-0.591318,0.609873,17.245312,-47.975155,59.883259,,,,,,,,,,,,,,,,,,,,,,,,,
1577742576.238002,79.000000,0.000000,4223.077148,4349.230957,4105.128418,4008.205078,4200.512695,16218.000000,4.000000,,,,0.000000,4.000000,4.000000,4.000000,4.000000,4.000000,,,,,,,,,,,,,,,,,,,,,,,,,,,,,,,,,,,,,
1577742576.245699,80.000000,0.000000,4228.205078,4325.128418,4106.153809,4005.128174,4209.230957,450.000000,4.000000,,,,0.000000,4.000000,4.000000,4.000000,4.000000,4.000000,40.000000,0.000000,0.151398,-0.241455,0.855225,0.432861,0.547372,-0.593759,0.597665,12.410381,-48.142315,59.996101,,,,,,,,,,,,,,,,,,,,,,,,,
1577742576.253595,81.000000,0.000000,4218.974121,4332.820313,4101.025879,4007.179443,4200.512695,450.000000,4.000000,,,,0.000000,4.000000,4.000000,4.000000,4.000000,4.000000,,,,,,,,,,,,,,,,,,,,,,,,,,,,,,,,,,,,,
1577742576.261392,82.000000,0.000000,4204.615234,4344.102539,4095.384521,3998.974365,4177.436035,450.000000,4.000000,,,,0.000000,4.000000,4.000000,4.000000,4.000000,4.000000,41.000000,0.000000,0.151398,-0.241455,0.855225,0.432861,0.527352,-0.593271,0.589364,11.946942,-48.173130,60.097656,,,,,,,,,,,,,,,,,,,,,,,,,
1577742576.269288,83.000000,0.000000,4197.948730,4333.333496,4089.230713,3981.538574,4166.153809,16218.000000,4.000000,,,,0.000000,4.000000,4.000000,4.000000,4.000000,4.000000,,,,,,,,,,,,,,,,,,,,,,,,,,,,,,,,,,,,,
1577742576.277085,84.000000,0.000000,4225.128418,4331.794922,4113.846191,4013.846191,4198.974121,450.000000,4.000000,,,,0.000000,4.000000,4.000000,4.000000,4.000000,4.000000,42.000000,0.000000,0.151398,-0.241455,0.855225,0.432861,0.539559,-0.598642,0.607919,11.470033,-48.260677,60.248875,,,,,,,,,,,,,,,,,,,,,,,,,
1577742576.284981,85.000000,0.000000,4277.948730,4361.025879,4164.615234,4088.718018,4262.563965,450.000000,4.000000,,,,0.000000,4.000000,4.000000,4.000000,4.000000,4.000000,,,,,,,,,,,,,,,,,,,,,,,,,,,,,,,,,,,,,
1577742576.292778,86.000000,0.000000,4290.256348,4373.333496,4170.769043,4106.666504,4276.922852,450.000000,4.000000,,,,0.000000,4.000000,4.000000,4.000000,4.000000,4.000000,43.000000,0.000000,0.150715,-0.241455,0.855469,0.432617,0.551278,-0.597177,0.616709,10.023952,-48.219837,60.325153,,,,,,,,,,,,,,,,,,,,,,,,,
1577742576.300574,87.000000,0.000000,4262.051270,4347.179688,4136.410156,4060.000000,4238.974121,16218.000000,4.000000,,,,0.000000,4.000000,4.000000,4.000000,4.000000,4.000000,,,,,,,,,,,,,,,,,,,,,,,,,,,,,,,,,,,,,
1577742576.308271,88.000000,0.000000,4256.410156,4330.256348,4130.769043,4038.461426,4228.717773,450.000000,4.000000,,,,0.000000,4.000000,4.000000,4.000000,4.000000,4.000000,44.000000,0.000000,0.151105,-0.241211,0.855469,0.432617,0.533700,-0.587900,0.593759,12.730110,-48.063454,60.214359,,,,,,,,,,,,,,,,,,,,,,,,,
1577742576.316067,89.000000,0.000000,4266.153809,4346.153809,4142.051270,4049.743652,4241.025879,450.000000,4.000000,,,,0.000000,4.000000,4.000000,4.000000,4.000000,4.000000,,,,,,,,,,,,,,,,,,,,,,,,,,,,,,,,,,,,,
1577742576.323763,90.000000,0.000000,4245.641113,4352.307617,4118.974121,4032.820557,4218.974121,450.000000,4.000000,,,,0.000000,4.000000,4.000000,4.000000,4.000000,4.000000,45.000000,0.000000,0.151414,-0.241455,0.855469,0.432373,0.535653,-0.583017,0.604013,12.294515,-48.161968,60.353909,,,,,,,,,,,,,,,,,,,,,,,,,
1577742576.331560,91.000000,0.000000,4216.410156,4336.922852,4098.974121,4003.589844,4183.589844,16218.000000,4.000000,,,,0.000000,4.000000,4.000000,4.000000,4.000000,4.000000,,,,,,,,,,,,,1.274321,9.907425,13.040246,6.056820,4.651420,0.950449,2.362664,2.321024,2.609684,2.196346,3.439837,7.601460,11.772248,4.469035,3.732281,4.714229,17.796503,12.896343,6.379803,5.461201,3.846366,14.679297,14.772544,5.561702,4.562524
1577742576.339256,92.000000,0.000000,4211.794922,4333.333496,4110.256348,4000.512939,4177.948730,450.000000,4.000000,,,,0.000000,4.000000,4.000000,4.000000,4.000000,4.000000,46.000000,0.000000,0.150715,-0.241455,0.855469,0.432617,0.540047,-0.581064,0.599130,14.713800,-48.190815,58.445778,,,,,,,,,,,,,,,,,,,,,,,,,
1577742576.347052,93.000000,0.000000,4203.589844,4333.846191,4104.615234,4000.512939,4176.922852,450.000000,4.000000,,,,0.000000,4.000000,4.000000,4.000000,4.000000,4.000000,,,,,,,,,,,,,,,,,,,,,,,,,,,,,,,,,,,,,
1577742576.354749,94.000000,0.000000,4176.410156,4315.384766,4078.461426,3984.102539,4158.461426,450.000000,4.000000,,,,0.000000,4.000000,4.000000,4.000000,4.000000,4.000000,47.000000,0.000000,0.150715,-0.241455,0.855469,0.432617,0.538582,-0.573251,0.604501,16.950974,-48.037331,58.522919,,,,,,,,,,,,,,,,,,,,,,,,,
1577742576.362445,95.000000,0.000000,4175.897461,4303.589844,4088.718018,3983.076904,4158.461426,16218.000000,4.000000,,,,0.000000,4.000000,4.000000,4.000000,4.000000,4.000000,,,,,,,,,,,,,,,,,,,,,,,,,,,,,,,,,,,,,
1577742576.370342,96.000000,0.000000,4226.153809,4333.846191,4137.436035,4025.641113,4200.512695,450.000000,4.000000,,,,0.000000,4.000000,4.000000,4.000000,4.000000,4.000000,48.000000,0.000000,0.150715,-0.241455,0.855469,0.432617,0.536629,-0.588388,0.598642,16.093290,-48.198273,58.652164,,,,,,,,,,,,,,,,,,,,,,,,,
1577742576.378138,97.000000,0.000000,4277.436035,4362.563965,4173.333496,4076.923096,4247.179688,450.000000,4.000000,,,,0.000000,4.000000,4.000000,4.000000,4.000000,4.000000,,,,,,,,,,,,,,,,,,,,,,,,,,,,,,,,,,,,,
1577742576.385935,98.000000,0.000000,4294.358887,4359.487305,4177.948730,4088.205078,4257.948730,450.000000,4.000000,,,,0.000000,4.000000,4.000000,4.000000,4.000000,4.000000,49.000000,0.000000,0.150715,-0.241455,0.855469,0.432617,0.532723,-0.590341,0.600595,15.201746,-48.163677,58.828300,,,,,,,,,,,,,,,,,,,,,,,,,
1577742576.393632,99.000000,0.000000,4282.563965,4362.563965,4163.077148,4061.025635,4233.333496,16218.000000,4.000000,,,,0.000000,4.000000,4.000000,4.000000,4.000000,4.000000,,,,,,,,,,,,,,,,,,,,,,,,,,,,,,,,,,,,,
1577742576.401428,100.000000,0.000000,4242.563965,4350.769043,4129.230957,4022.051270,4191.282227,450.000000,4.000000,,,,0.000000,4.000000,4.000000,4.000000,4.000000,4.000000,50.000000,0.000000,0.150323,-0.241699,0.855469,0.432617,0.531258,-0.591318,0.607431,17.330309,-48.132538,59.166267,,,,,,,,,,,,,,,,,,,,,,,,,
1577742576.409125,101.000000,0.000000,4210.256348,4314.358887,4107.179688,3997.435791,4164.615234,450.000000,4.000000,,,,0.000000,4.000000,4.000000,4.000000,4.000000,4.000000,,,,,,,,,,,,,,,,,,,,,,,,,,,,,,,,,,,,,
1577742576.416921,102.000000,0.000000,4222.563965,4319.487305,4127.179688,4003.589844,4175.897461,450.000000,4.000000,,,,0.000000,4.000000,4.000000,4.000000,4.000000,4.000000,51.000000,0.000000,0.150323,-0.241699,0.855469,0.432617,0.540047,-0.583017,0.604501,16.374878,-48.224144,57.436718,,,,,,,,,,,,,,,,,,,,,,,,,
1577742576.424618,103.000000,0.000000,4235.897461,4350.769043,4145.641113,4014.871826,4190.769043,16218.000000,4.000000,,,,0.000000,4.000000,4.000000,4.000000,4.000000,4.000000,,,,,,,,,,,,,,,,,,,,,,,,,,,,,,,,,,,,,
1577742576.432414,104.000000,0.000000,4207.692383,4341.025879,4126.153809,3995.897461,4172.307617,450.000000,4.000000,,,,0.000000,4.000000,4.000000,4.000000,4.000000,4.000000,52.000000,0.000000,0.150323,-0.241699,0.855469,0.432617,0.531746,-0.588388,0.609873,11.567176,-48.366405,57.734398,,,,,,,,,,,,,,,,,,,,,,,,,
1577742576.440111,105.000000,0.000000,4207.692383,4337.948730,4131.282227,3992.820557,4177.948730,450.000000,4.000000,,,,0.000000,4.000000,4.000000,4.000000,4.000000,4.000000,,,,,,,,,,,,,,,,,,,,,,,,,,,,,,,,,,,,,
1577742576.447907,106.000000,0.000000,4271.282227,4380.000000,4183.589844,4048.718018,4239.487305,450.000000,4.000000,,,,0.000000,4.000000,4.000000,4.000000,4.000000,4.000000,53.000000,0.000000,0.151706,-0.241699,0.855225,0.432617,0.536141,-0.581552,0.601572,10.231011,-48.434624,58.062126,,,,,,,,,,,,,,,,,,,,,,,,,
1577742576.455604,107.000000,0.000000,4295.384766,4376.410156,4195.897461,4078.461426,4256.410156,16218.000000,4.000000,,,,0.000000,4.000000,4.000000,4.000000,4.000000,4.000000,,,,,,,,,,,,,1.811513,11.402451,15.637671,6.771492,4.619455,0.928849,2.816159,2.561109,3.070822,2.346361,3.466201,9.837291,12.157961,5.012537,3.735907,5.258864,20.202248,14.279605,7.125601,5.392870,3.959287,15.984418,16.296118,6.486444,4.523553
1577742576.463401,108.000000,0.000000,4246.153809,4326.666504,4152.307617,4032.820557,4204.102539,450.000000,4.000000,,,,0.000000,4.000000,4.000000,4.000000,4.000000,4.000000,54.000000,0.000000,0.151316,-0.241943,0.855225,0.432617,0.519051,-0.592782,0.603037,12.796832,-48.436207,58.297264,,,,,,,,,,,,,,,,,,,,,,,,,
1577742576.471097,109.000000,0.000000,4229.230957,4336.922852,4146.153809,4009.743652,4190.256348,450.000000,4.000000,,,,0.000000,4.000000,4.000000,4.000000,4.000000,4.000000,,,,,,,,,,,,,,,,,,,,,,,,,,,,,,,,,,,,,
1577742576.478994,110.000000,0.000000,4254.871582,4363.077148,4173.333496,4036.923096,4219.487305,450.000000,4.000000,,,,0.000000,4.000000,4.000000,4.000000,4.000000,4.000000,55.000000,0.000000,0.151316,-0.241943,0.855225,0.432617,0.546883,-0.579110,0.592782,12.234934,-48.377815,58.628521,,,,,,,,,,,,,,,,,,,,,,,,,
1577742576.486790,111.000000,0.000000,4246.153809,4339.487305,4160.512695,4032.307617,4213.333496,16218.000000,4.000000,,,,0.000000,4.000000,4.000000,4.000000,4.000000,4.000000,,,,,,,,,,,,,,,,,,,,,,,,,,,,,,,,,,,,,
1577742576.494587,112.000000,0.000000,4229.743652,4325.128418,4136.410156,4005.128174,4200.512695,450.000000,4.000000,,,,0.000000,4.000000,4.000000,4.000000,4.000000,4.000000,56.000000,0.000000,0.150633,-0.241943,0.855469,0.432373,0.537606,-0.593271,0.605966,11.789040,-48.385078,58.866837,,,,,,,,,,,,,,,,,,,,,,,,,
1577742576.502383,113.000000,0.000000,4231.794922,4331.794922,4131.282227,3992.307617,4203.077148,450.000000,4.000000,,,,0.000000,4.000000,4.000000,4.000000,4.000000,4.000000,,,,,,,,,,,,,,,,,,,,,,,,,,,,,,,,,,,,,
1577742576.510280,114.000000,0.000000,4215.897461,4324.615234,4115.897461,3972.820557,4185.128418,450.000000,4.000000,,,,0.000000,4.000000,4.000000,4.000000,4.000000,4.000000,57.000000,0.000000,0.150633,-0.241943,0.855469,0.432373,0.542977,-0.576181,0.607431,10.311059,-48.571060,59.021503,,,,,,,,,,,,,,,,,,,,,,,,,
1577742576.518076,115.000000,0.000000,4215.897461,4329.230957,4116.922852,3978.461426,4185.128418,16218.000000,4.000000,,,,0.000000,4.000000,4.000000,4.000000,4.000000,4.000000,,,,,,,,,,,,,,,,,,,,,,,,,,,,,,,,,,,,,
1577742576.525973,116.000000,0.000000,4263.589844,4343.589844,4164.102539,4033.846191,4233.846191,450.000000,4.000000,,,,0.000000,4.000000,4.000000,4.000000,4.000000,4.000000,58.000000,0.000000,0.150633,-0.241943,0.855469,0.432373,0.533211,-0.566415,0.599130,10.057553,-48.738445,59.280338,,,,,,,,,,,,,,,,,,,,,,,,,
1577742576.533769,117.000000,0.000000,4278.461426,4340.000000,4187.179688,4057.948730,4251.794922,450.000000,4.000000,,,,0.000000,4.000000,4.000000,4.000000,4.000000,4.000000,,,,,,,,,,,,,,,,,,,,,,,,,,,,,,,,,,,,,
1577742576.541466,118.000000,0.000000,4234.871582,4327.692383,4153.333496,4019.487061,4211.282227,450.000000,4.000000,,,,0.000000,4.000000,4.000000,4.000000,4.000000,4.000000,59.000000,0.000000,0.150633,-0.241943,0.855469,0.432373,0.542977,-0.580087,0.620127,6.120845,-48.769463,59.513287,,,,,,,,,,,,,,,,,,,,,,,,,
1577742576.549262,119.000000,0.000000,4232.307617,4334.871582,4149.743652,4011.281982,4206.153809,16218.000000,4.000000,,,,0.000000,4.000000,4.000000,4.000000,4.000000,4.000000,,,,,,,,,,,,,,,,,,,,,,,,,,,,,,,,,,,,,
1577742576.556959,120.000000,0.000000,4268.205078,4356.922852,4184.102539,4043.076904,4240.000000,450.000000,4.000000,,,,0.000000,4.000000,4.000000,4.000000,4.000000,4.000000,60.000000,0.000000,0.150941,-0.242188,0.855469,0.432129,0.538582,-0.571786,0.622568,2.398361,-48.617928,59.663124,,,,,,,,,,,,,,,,,,,,,,,,,
1577742576.564755,121.000000,0.000000,4264.102539,4360.000000,4186.666504,4043.589844,4236.922852,450.000000,4.000000,,,,0.000000,4.000000,4.000000,4.000000,4.000000,4.000000,,,,,,,,,,,,,,,,,,,,,,,,,,,,,,,,,,,,,
1577742576.572452,122.000000,0.000000,4238.461426,4337.948730,4167.179688,4018.974365,4209.743652,450.000000,4.000000,,,,0.000000,4.000000,4.000000,4.000000,4.000000,4.000000,61.000000,0.000000,0.150240,-0.242188,0.855469,0.432373,0.538582,-0.585946,0.609873,2.816494,-48.660995,59.857796,,,,,,,,,,,,,,,,,,,,,,,,,
1577742576.580249,123.000000,0.000000,4215.384766,4316.410156,4149.230957,3989.743652,4189.743652,16218.000000,4.000000,,,,0.000000,4.000000,4.000000,4.000000,4.000000,4.000000,,,,,,,,,,,,,2.692299,12.538198,18.823879,7.486051,4.732635,0.964237,3.080964,2.902924,3.415692,2.548677,3.355079,12.060028,13.438968,5.495959,3.802763,6.228465,21.435335,16.452486,7.810840,5.421851,4.591997,16.945772,18.909580,7.371003,4.637136
1577742576.587945,124.000000,0.000000,4190.256348,4309.743652,4135.897461,3969.230713,4174.358887,450.000000,4.000000,,,,0.000000,4.000000,4.000000,4.000000,4.000000,4.000000,62.000000,0.000000,0.150633,-0.241943,0.855469,0.432373,0.540536,-0.588388,0.596201,-0.396108,-48.699757,59.973183,,,,,,,,,,,,,,,,,,,,,,,,,
1577742576.595742,125.000000,0.000000,4197.948730,4314.358887,4155.897461,3991.794922,4182.563965,450.000000,4.000000,,,,0.000000,4.000000,4.000000,4.000000,4.000000,4.000000,,,,,,,,,,,,,,,,,,,,,,,,,,,,,,,,,,,,,
1577742576.603438,126.000000,0.000000,4245.641113,4344.615234,4195.897461,4038.461426,4227.179688,450.000000,4.000000,,,,0.000000,4.000000,4.000000,4.000000,4.000000,4.000000,63.000000,0.000000,0.150633,-0.241943,0.855469,0.432373,0.549813,-0.579110,0.604990,3.352055,-48.674824,60.017216,,,,,,,,,,,,,,,,,,,,,,,,,
1577742576.611235,127.000000,0.000000,4248.717773,4360.512695,4184.102539,4032.820557,4238.461426,236.000000,4.000000,,,,0.000000,4.000000,4.000000,4.000000,4.000000,4.000000,,,,,,,,,,,,,,,,,,,,,,,,,,,,,,,,,,,,,
1577742576.618932,0.000000,0.000000,4199.487305,4322.563965,4142.563965,3987.179443,4195.897461,450.000000,4.000000,,,,0.000000,4.000000,4.000000,4.000000,4.000000,4.000000,0.000000,0.000000,0.150240,-0.242188,0.855469,0.432373,0.538582,-0.585946,0.609873,3.734634,-48.712204,59.997032,,,,,,,,,,,,,,,,,,,,,,,,,
1577742576.626828,1.000000,0.000000,4200.000000,4308.205078,4150.256348,3992.307617,4197.948730,450.000000,4.000000,,,,0.000000,4.000000,4.000000,4.000000,4.000000,4.000000,,,,,,,,,,,,,,,,,,,,,,,,,,,,,,,,,,,,,
1577742576.634625,2.000000,0.000000,4219.487305,4331.794922,4160.512695,4004.615479,4216.410156,16211.000000,4.000000,,,,0.000000,4.000000,4.000000,4.000000,4.000000,4.000000,1.000000,0.000000,0.150633,-0.241943,0.855469,0.432373,0.549813,-0.579110,0.604990,7.069724,-48.686028,60.038681,,,,,,,,,,,,,,,,,,,,,,,,,
1577742576.642421,3.000000,0.000000,4193.846191,4322.051270,4131.794922,3972.820557,4183.077148,450.000000,4.000000,,,,0.000000,4.000000,4.000000,4.000000,4.000000,4.000000,,,,,,,,,,,,,,,,,,,,,,,,,,,,,,,,,,,,,
1577742576.650118,4.000000,0.000000,4197.948730,4305.641113,4142.563965,3981.025635,4178.461426,16244.000000,4.000000,,,,0.000000,4.000000,4.000000,4.000000,4.000000,4.000000,2.000000,0.000000,0.150240,-0.242188,0.855469,0.432373,0.537118,-0.585946,0.604501,7.080535,-48.602654,60.076164,,,,,,,,,,,,,,,,,,,,,,,,,
1577742576.658014,5.000000,0.000000,4252.307617,4339.487305,4189.743652,4040.000000,4235.384766,450.000000,4.000000,,,,0.000000,4.000000,4.000000,4.000000,4.000000,4.000000,,,,,,,,,,,,,,,,,,,,,,,,,,,,,,,,,,,,,
1577742576.665811,6.000000,0.000000,4264.615234,4364.615234,4191.794922,4051.794922,4253.333496,16151.000000,4.000000,,,,0.000000,4.000000,4.000000,4.000000,4.000000,4.000000,3.000000,0.000000,0.150240,-0.242188,0.855469,0.432373,0.540536,-0.575204,0.603037,9.243620,-48.527618,58.195808,,,,,,,,,,,,,,,,,,,,,,,,,
1577742576.673607,7.000000,0.000000,4231.794922,4334.358887,4161.538574,4014.871826,4212.307617,450.000000,4.000000,,,,0.000000,4.000000,4.000000,4.000000,4.000000,4.000000,,,,,,,,,,,,,,,,,,,,,,,,,,,,,,,,,,,,,
1577742576.681304,8.000000,0.000000,4227.692383,4312.820313,4154.871582,4000.512939,4198.461426,450.000000,4.000000,,,,0.000000,4.000000,4.000000,4.000000,4.000000,4.000000,4.000000,0.000000,0.150240,-0.242188,0.855469,0.432373,0.536629,-0.582528,0.606455,9.156672,-48.579716,58.477394,,,,,,,,,,,,,,,,,,,,,,,,,
1577742576.689200,9.000000,0.000000,4242.563965,4324.102539,4153.846191,4004.102539,4213.333496,16197.000000,4.000000,,,,0.000000,4.000000,4.000000,4.000000,4.000000,4.000000,,,,,,,,,,,,,,,,,,,,,,,,,,,,,,,,,,,,,
1577742576.696996,10.000000,0.000000,4236.410156,4328.205078,4143.077148,4003.589844,4212.820313,450.000000,4.000000,,,,0.000000,4.000000,4.000000,4.000000,4.000000,4.000000,5.000000,0.000000,0.150240,-0.242188,0.855469,0.432373,0.529793,-0.578622,0.604990,11.829927,-48.686420,58.551376,,,,,,,,,,,,,,,,,,,,,,,,,
1577742576.704893,11.000000,0.000000,4223.077148,4317.436035,4145.641113,3998.974365,4197.436035,16212.000000,4.000000,,,,0.000000,4.000000,4.000000,4.000000,4.000000,4.000000,,,,,,,,,,,,,3.656826,13.471883,22.312775,8.004416,4.935048,1.071432,3.102727,3.417737,3.583049,2.757532,3.158653,13.943573,15.840795,5.809222,3.898101,6.998609,21.623976,19.571795,8.256057,5.519869,5.367356,17.694042,22.513044,7.967592,4.860214
1577742576.712689,12.000000,0.000000,4223.589844,4326.666504,4159.487305,4000.000000,4192.307617,450.000000,4.000000,,,,0.000000,4.000000,4.000000,4.000000,4.000000,4.000000,6.000000,0.000000,0.150240,-0.242188,0.855469,0.432373,0.536629,-0.590341,0.597665,11.484350,-48.782452,56.823498,,,,,,,,,,,,,,,,,,,,,,,,,
1577742576.720586,13.000000,0.000000,4201.025879,4341.538574,4136.922852,3978.974365,4171.794922,450.000000,4.000000,,,,0.000000,4.000000,4.000000,4.000000,4.000000,4.000000,,,,,,,,,,,,,,,,,,,,,,,,,,,,,,,,,,,,,
1577742576.728382,14.000000,0.000000,4159.487305,4324.102539,4105.128418,3948.205078,4135.384766,450.000000,4.000000,,,,0.000000,4.000000,4.000000,4.000000,4.000000,4.000000,7.000000,0.000000,0.151623,-0.242188,0.855225,0.432373,0.547372,-0.590341,0.602060,11.113515,-48.629623,57.122684,,,,,,,,,,,,,,,,,,,,,,,,,
1577742576.736079,15.000000,0.000000,4173.333496,4306.666504,4132.307617,3971.281982,4151.282227,16212.000000,4.000000,,,,0.000000,4.000000,4.000000,4.000000,4.000000,4.000000,,,,,,,,,,,,,,,,,,,,,,,,,,,,,,,,,,,,,
1577742576.743876,16.000000,0.000000,4234.358887,4326.666504,4179.487305,4030.256348,4213.333496,0.000000,4.000000,,,,0.000000,4.000000,4.000000,4.000000,4.000000,4.000000,8.000000,0.000000,0.151623,-0.242188,0.855225,0.432373,0.542489,-0.583993,0.600107,10.660132,-48.551888,55.597492,,,,,,,,,,,,,,,,,,,,,,,,,
1577742576.751672,17.000000,0.000000,4259.487305,4347.692383,4176.410156,4044.615479,4236.922852,0.000000,4.000000,,,,0.000000,4.000000,4.000000,4.000000,4.000000,4.000000,,,,,,,,,,,,,,,,,,,,,,,,,,,,,,,,,,,,,
1577742576.759368,18.000000,0.000000,4239.487305,4341.538574,4152.820313,4016.923096,4214.358887,0.000000,4.000000,,,,0.000000,4.000000,4.000000,4.000000,4.000000,4.000000,9.000000,0.000000,0.151233,-0.242432,0.855225,0.432373,0.536629,-0.576181,0.606455,10.311903,-48.541744,56.079094,,,,,,,,,,,,,,,,,,,,,,,,,
1577742576.767065,19.000000,0.000000,4220.000000,4324.102539,4148.205078,4002.564209,4197.436035,0.000000,4.000000,,,,0.000000,4.000000,4.000000,4.000000,4.000000,4.000000,,,,,,,,,,,,,,,,,,,,,,,,,,,,,,,,,,,,,
1577742576.774862,20.000000,0.000000,4205.128418,4309.743652,4138.461426,3994.358887,4184.102539,0.000000,4.000000,,,,0.000000,4.000000,4.000000,4.000000,4.000000,4.000000,10.000000,0.000000,0.151233,-0.242432,0.855225,0.432373,0.526864,-0.571298,0.598642,9.041451,-48.412983,56.632168,,,,,,,,,,,,,,,,,,,,,,,,,
1577742576.782558,21.000000,0.000000,4202.563965,4314.358887,4132.820313,3983.076904,4176.922852,0.000000,4.000000,,,,0.000000,4.000000,4.000000,4.000000,4.000000,4.000000,,,,,,,,,,,,,,,,,,,,,,,,,,,,,,,,,,,,,
1577742576.790355,22.000000,0.000000,4229.230957,4329.743652,4161.025879,4004.102539,4205.641113,0.000000,4.000000,,,,0.000000,4.000000,4.000000,4.000000,4.000000,4.000000,11.000000,0.000000,0.150533,-0.242432,0.855225,0.432617,0.530282,-0.572274,0.605966,8.914907,-48.416729,57.010303,,,,,,,,,,,,,,,,,,,,,,,,,
1577742576.798051,23.000000,0.000000,4241.538574,4325.128418,4177.948730,4022.051270,4222.563965,0.000000,4.000000,,,,0.000000,4.000000,4.000000,4.000000,4.000000,4.000000,,,,,,,,,,,,,,,,,,,,,,,,,,,,,,,,,,,,,
1577742576.805948,24.000000,0.000000,4218.974121,4309.743652,4154.358887,3995.384521,4199.487305,0.000000,4.000000,,,,0.000000,4.000000,4.000000,4.000000,4.000000,4.000000,12.000000,0.000000,0.150925,-0.242188,0.855225,0.432617,0.525399,-0.576669,0.600107,4.972832,-48.599548,57.230995,,,,,,,,,,,,,,,,,,,,,,,,,
1577742576.813744,25.000000,0.000000,4198.461426,4311.282227,4132.307617,3964.615479,4176.410156,0.000000,4.000000,,,,0.000000,4.000000,4.000000,4.000000,4.000000,4.000000,,,,,,,,,,,,,,,,,,,,,,,,,,,,,,,,,,,,,
1577742576.821541,26.000000,0.000000,4195.384766,4325.128418,4139.487305,3965.128174,4174.871582,0.000000,4.000000,,,,0.000000,4.000000,4.000000,4.000000,4.000000,4.000000,13.000000,0.000000,0.150925,-0.242188,0.855225,0.432617,0.524910,-0.588876,0.602060,5.372779,-48.524822,55.515526,,,,,,,,,,,,,,,,,,,,,,,,,
1577742576.829238,27.000000,0.000000,4207.179688,4336.922852,4157.948730,3985.128174,4189.743652,0.000000,4.000000,,,,0.000000,4.000000,4.000000,4.000000,4.000000,4.000000,,,,,,,,,,,,,4.454411,14.438768,25.576712,8.145860,5.138978,1.248040,2.941799,4.057711,3.574958,2.920871,3.021963,15.211268,18.904205,5.864451,3.979406,7.611152,21.233192,23.287357,8.324008,5.630424,5.906608,18.337366,26.446556,8.089428,5.105727
1577742576.837034,28.000000,0.000000,4234.358887,4330.769043,4174.871582,4010.256348,4215.384766,0.000000,4.000000,,,,0.000000,4.000000,4.000000,4.000000,4.000000,4.000000,14.000000,0.000000,0.150533,-0.242432,0.855225,0.432617,0.542977,-0.584970,0.603525,4.656055,-48.397755,55.885693,,,,,,,,,,,,,,,,,,,,,,,,,
1577742576.844731,29.000000,0.000000,4255.384766,4327.692383,4185.128418,4028.205078,4234.358887,0.000000,4.000000,,,,0.000000,4.000000,4.000000,4.000000,4.000000,4.000000,,,,,,,,,,,,,,,,,,,,,,,,,,,,,,,,,,,,,
1577742576.852527,30.000000,0.000000,4256.410156,4342.563965,4182.563965,4032.307617,4233.846191,0.000000,4.000000,,,,0.000000,4.000000,4.000000,4.000000,4.000000,4.000000,15.000000,0.000000,0.150925,-0.242188,0.855225,0.432617,0.545907,-0.588876,0.618662,4.968050,-48.403023,56.278660,,,,,,,,,,,,,,,,,,,,,,,,,
1577742576.860224,31.000000,0.000000,4250.769043,4331.282227,4171.282227,4025.128174,4226.666504,0.000000,4.000000,,,,0.000000,4.000000,4.000000,4.000000,4.000000,4.000000,,,,,,,,,,,,,,,,,,,,,,,,,,,,,,,,,,,,,
1577742576.868120,32.000000,0.000000,4243.077148,4309.230957,4162.563965,4010.769287,4219.487305,0.000000,4.000000,,,,0.000000,4.000000,4.000000,4.000000,4.000000,4.000000,16.000000,0.000000,0.150533,-0.242432,0.855225,0.432617,0.535653,-0.584970,0.624521,5.248844,-48.347950,56.811775,,,,,,,,,,,,,,,,,,,,,,,,,
1577742576.875917,33.000000,0.000000,4222.051270,4312.307617,4152.820313,3989.743652,4206.153809,0.000000,4.000000,,,,0.000000,4.000000,4.000000,4.000000,4.000000,4.000000,,,,,,,,,,,,,,,,,,,,,,,,,,,,,,,,,,,,,
1577742576.883713,34.000000,0.000000,4209.743652,4320.512695,4148.717773,3980.000000,4200.000000,0.000000,4.000000,,,,0.000000,4.000000,4.000000,4.000000,4.000000,4.000000,17.000000,0.000000,0.150533,-0.242432,0.855225,0.432617,0.536141,-0.581064,0.614755,8.432512,-48.418015,55.198044,,,,,,,,,,,,,,,,,,,,,,,,,
1577742576.891410,35.000000,0.000000,4216.410156,4318.974121,4153.333496,3987.179443,4194.358887,0.000000,4.000000,,,,0.000000,4.000000,4.000000,4.000000,4.000000,4.000000,,,,,,,,,,,,,,,,,,,,,,,,,,,,,,,,,,,,,
1577742576.899206,36.000000,0.000000,4192.820313,4307.692383,4133.333496,3971.281982,4160.000000,0.000000,4.000000,,,,0.000000,4.000000,4.000000,4.000000,4.000000,4.000000,18.000000,0.000000,0.150925,-0.242188,0.855225,0.432617,0.540047,-0.590341,0.606455,11.297813,-48.481075,55.719593,,,,,,,,,,,,,,,,,,,,,,,,,
1577742576.906902,37.000000,0.000000,4148.205078,4290.256348,4103.077148,3933.846191,4125.128418,0.000000,4.000000,,,,0.000000,4.000000,4.000000,4.000000,4.000000,4.000000,,,,,,,,,,,,,,,,,,,,,,,,,,,,,,,,,,,,,
1577742576.914799,38.000000,0.000000,4154.871582,4301.538574,4114.358887,3942.051270,4141.025879,0.000000,4.000000,,,,0.000000,4.000000,4.000000,4.000000,4.000000,4.000000,19.000000,0.000000,0.150925,-0.242188,0.855225,0.432617,0.529305,-0.583017,0.604013,6.997818,-48.597641,54.334709,,,,,,,,,,,,,,,,,,,,,,,,,
1577742576.922595,39.000000,0.000000,4215.897461,4343.077148,4165.128418,4006.153809,4200.000000,0.000000,4.000000,,,,0.000000,4.000000,4.000000,4.000000,4.000000,4.000000,,,,,,,,,,,,,,,,,,,,,,,,,,,,,,,,,,,,,
1577742576.930492,40.000000,0.000000,4262.051270,4340.000000,4199.487305,4049.743652,4247.179688,0.000000,4.000000,,,,0.000000,4.000000,4.000000,4.000000,4.000000,4.000000,20.000000,0.000000,0.151623,-0.242188,0.855225,0.432373,0.527840,-0.566903,0.587900,3.247453,-48.582924,55.002403,,,,,,,,,,,,,,,,,,,,,,,,,
1577742576.938288,41.000000,0.000000,4272.820313,4323.077148,4207.179688,4052.307617,4258.974121,0.000000,4.000000,,,,0.000000,4.000000,4.000000,4.000000,4.000000,4.000000,,,,,,,,,,,,,,,,,,,,,,,,,,,,,,,,,,,,,
1577742576.946185,42.000000,0.000000,4261.025879,4344.102539,4202.051270,4042.051270,4243.589844,0.000000,4.000000,,,,0.000000,4.000000,4.000000,4.000000,4.000000,4.000000,21.000000,0.000000,0.150925,-0.242188,0.855225,0.432617,0.542489,-0.578622,0.598642,6.511629,-48.629490,55.543518,,,,,,,,,,,,,,,,,,,,,,,,,
1577742576.953981,43.000000,0.000000,4231.794922,4343.077148,4182.563965,4016.410156,4213.846191,0.000000,4.000000,,,,0.000000,4.000000,4.000000,4.000000,4.000000,4.000000,,,,,,,,,,,,,4.897062,15.417830,27.909832,7.857364,5.269189,1.460373,2.705785,4.648184,3.452521,3.000893,3.015723,15.675688,21.651134,5.653697,4.018335,7.405714,20.674417,26.759352,8.000237,5.694032,5.953110,18.728405,29.653872,7.726542,5.285488
1577742576.961678,44.000000,0.000000,4217.436035,4305.128418,4172.307617,4004.615479,4202.563965,0.000000,4.000000,,,,0.000000,4.000000,4.000000,4.000000,4.000000,4.000000,22.000000,0.000000,0.151316,-0.241943,0.855225,0.432617,0.538582,-0.569345,0.602548,9.628835,-48.432140,54.116425,,,,,,,,,,,,,,,,,,,,,,,,,
1577742576.969474,45.000000,0.000000,4216.922852,4295.897461,4171.282227,4010.256348,4204.102539,0.000000,4.000000,,,,0.000000,4.000000,4.000000,4.000000,4.000000,4.000000,,,,,,,,,,,,,,,,,,,,,,,,,,,,,,,,,,,,,
1577742576.977171,46.000000,0.000000,4209.230957,4325.641113,4153.333496,3996.923096,4194.358887,0.000000,4.000000,,,,0.000000,4.000000,4.000000,4.000000,4.000000,4.000000,23.000000,0.000000,0.149930,-0.241943,0.855469,0.432617,0.542000,-0.587411,0.615732,9.443551,-48.553600,54.686317,,,,,,,,,,,,,,,,,,,,,,,,,
1577742576.984968,47.000000,0.000000,4210.769043,4327.179688,4144.615234,3989.230713,4194.358887,0.000000,4.000000,,,,0.000000,4.000000,4.000000,4.000000,4.000000,4.000000,,,,,,,,,,,,,,,,,,,,,,,,,,,,,,,,,,,,,
1577742576.992664,48.000000,0.000000,4200.512695,4298.974121,4138.461426,3985.641113,4187.692383,0.000000,4.000000,,,,0.000000,4.000000,4.000000,4.000000,4.000000,4.000000,24.000000,0.000000,0.150617,-0.241943,0.855225,0.432861,0.534188,-0.587411,0.589853,9.276795,-48.603100,53.404762,,,,,,,,,,,,,,,,,,,,,,,,,
1577742577.000461,49.000000,0.000000,4174.358887,4302.051270,4124.615234,3962.051270,4166.153809,0.000000,4.000000,,,,0.000000,4.000000,4.000000,4.000000,4.000000,4.000000,,,,,,,,,,,,,,,,,,,,,,,,,,,,,,,,,,,,,
1577742577.008157,50.000000,0.000000,4192.307617,4326.666504,4149.230957,3978.974365,4187.692383,0.000000,4.000000,,,,0.000000,4.000000,4.000000,4.000000,4.000000,4.000000,25.000000,0.000000,0.150617,-0.241943,0.855225,0.432861,0.528328,-0.595224,0.604990,9.126716,-48.647652,54.165455,,,,,,,,,,,,,,,,,,,,,,,,,
1577742577.015954,51.000000,0.000000,4253.846191,4329.230957,4205.128418,4051.281982,4249.230957,0.000000,4.000000,,,,0.000000,4.000000,4.000000,4.000000,4.000000,4.000000,,,,,,,,,,,,,,,,,,,,,,,,,,,,,,,,,,,,,
1577742577.023650,52.000000,0.000000,4273.846191,4311.282227,4208.717773,4070.256348,4267.179688,0.000000,4.000000,,,,0.000000,4.000000,4.000000,4.000000,4.000000,4.000000,26.000000,0.000000,0.149224,-0.241943,0.855469,0.432861,0.539071,-0.599619,0.604990,5.103645,-48.627930,54.790260,,,,,,,,,,,,,,,,,,,,,,,,,
1577742577.031447,53.000000,0.000000,4236.410156,4313.333496,4164.615234,4021.025635,4232.307617,0.000000,4.000000,,,,0.000000,4.000000,4.000000,4.000000,4.000000,4.000000,,,,,,,,,,,,,,,,,,,,,,,,,,,,,,,,,,,,,
1577742577.039144,54.000000,0.000000,4215.897461,4334.358887,4152.307617,3998.461426,4212.820313,0.000000,4.000000,,,,0.000000,4.000000,4.000000,4.000000,4.000000,4.000000,27.000000,0.000000,0.149930,-0.241943,0.855469,0.432617,0.542977,-0.582040,0.596689,5.370880,-48.490551,55.472218,,,,,,,,,,,,,,,,,,,,,,,,,
1577742577.046940,55.000000,0.000000,4243.077148,4336.922852,4183.589844,4024.615479,4235.384766,0.000000,4.000000,,,,0.000000,4.000000,4.000000,4.000000,4.000000,4.000000,,,,,,,,,,,,,,,,,,,,,,,,,,,,,,,,,,,,,
1577742577.054637,56.000000,0.000000,4262.051270,4324.615234,4199.487305,4042.564209,4250.769043,0.000000,4.000000,,,,0.000000,4.000000,4.000000,4.000000,4.000000,4.000000,28.000000,0.000000,0.149930,-0.241943,0.855469,0.432617,0.536141,-0.574228,0.600107,1.783209,-48.486542,55.966347,,,,,,,,,,,,,,,,,,,,,,,,,
1577742577.062433,57.000000,0.000000,4222.563965,4315.384766,4167.179688,4006.666748,4214.358887,0.000000,4.000000,,,,0.000000,4.000000,4.000000,4.000000,4.000000,4.000000,,,,,,,,,,,,,,,,,,,,,,,,,,,,,,,,,,,,,
1577742577.070230,58.000000,0.000000,4180.512695,4308.717773,4140.512695,3962.564209,4175.384766,0.000000,4.000000,,,,0.000000,4.000000,4.000000,4.000000,4.000000,4.000000,29.000000,0.000000,0.149224,-0.241943,0.855469,0.432861,0.539071,-0.599619,0.604990,1.425442,-48.542747,56.411064,,,,,,,,,,,,,,,,,,,,,,,,,
1577742577.077926,59.000000,0.000000,4207.179688,4314.871582,4167.692383,3990.769287,4200.512695,0.000000,4.000000,,,,0.000000,4.000000,4.000000,4.000000,4.000000,4.000000,,,,,,,,,,,,,5.079197,16.034121,28.788351,7.324900,5.279275,1.634877,2.471181,4.986313,3.311481,2.986729,3.206747,15.204553,23.128752,5.306088,4.004004,6.888931,19.988829,29.093225,7.483605,5.664802,5.635196,18.454086,31.275276,7.130330,5.334654
1577742577.085823,60.000000,0.000000,4222.563965,4313.846191,4177.436035,4013.846191,4216.410156,0.000000,4.000000,,,,0.000000,4.000000,4.000000,4.000000,4.000000,4.000000,30.000000,0.000000,0.149930,-0.241943,0.855469,0.432617,0.536141,-0.574228,0.600107,-1.767686,-48.533516,56.811310,,,,,,,,,,,,,,,,,,,,,,,,,
1577742577.093619,61.000000,0.000000,4183.589844,4285.128418,4147.692383,3977.948730,4182.051270,0.000000,4.000000,,,,0.000000,4.000000,4.000000,4.000000,4.000000,4.000000,,,,,,,,,,,,,,,,,,,,,,,,,,,,,,,,,,,,,
1577742577.101416,62.000000,0.000000,4183.589844,4293.846191,4162.563965,3983.076904,4189.230957,0.000000,4.000000,,,,0.000000,4.000000,4.000000,4.000000,4.000000,4.000000,31.000000,0.000000,0.149224,-0.241943,0.855469,0.432861,0.536141,-0.589364,0.606455,-1.770364,-48.585026,57.171532,,,,,,,,,,,,,,,,,,,,,,,,,
1577742577.109312,63.000000,0.000000,4226.153809,4343.589844,4206.666504,4034.358887,4237.948730,0.000000,4.000000,,,,0.000000,4.000000,4.000000,4.000000,4.000000,4.000000,,,,,,,,,,,,,,,,,,,,,,,,,,,,,,,,,,,,,
1577742577.117109,64.000000,0.000000,4217.436035,4340.000000,4197.436035,4028.718018,4231.282227,450.000000,4.000000,,,,0.000000,4.000000,4.000000,4.000000,4.000000,4.000000,32.000000,0.000000,0.150617,-0.241943,0.855225,0.432861,0.533700,-0.583505,0.615244,-4.524280,-48.571568,57.555546,,,,,,,,,,,,,,,,,,,,,,,,,
1577742577.125005,65.000000,0.000000,4199.487305,4311.794922,4177.436035,4005.641113,4204.615234,450.000000,4.000000,,,,0.000000,4.000000,4.000000,4.000000,4.000000,4.000000,,,,,,,,,,,,,,,,,,,,,,,,,,,,,,,,,,,,,
1577742577.132802,66.000000,0.000000,4233.846191,4314.358887,4194.871582,4032.307617,4222.563965,16210.000000,4.000000,,,,0.000000,4.000000,4.000000,4.000000,4.000000,4.000000,33.000000,0.000000,0.150617,-0.241943,0.855225,0.432861,0.536141,-0.578134,0.601083,-7.182251,-48.679085,57.781528,,,,,,,,,,,,,,,,,,,,,,,,,
1577742577.140698,67.000000,0.000000,4216.410156,4294.358887,4172.820313,4010.256348,4202.051270,450.000000,4.000000,,,,0.000000,4.000000,4.000000,4.000000,4.000000,4.000000,,,,,,,,,,,,,,,,,,,,,,,,,,,,,,,,,,,,,
1577742577.148495,68.000000,0.000000,4168.205078,4277.436035,4143.077148,3966.153809,4155.384766,16237.000000,4.000000,,,,0.000000,4.000000,4.000000,4.000000,4.000000,4.000000,34.000000,0.000000,0.150224,-0.242188,0.855225,0.432861,0.536629,-0.587900,0.610849,-9.454794,-48.656223,56.130634,,,,,,,,,,,,,,,,,,,,,,,,,
1577742577.156291,69.000000,0.000000,4200.000000,4312.820313,4182.051270,4005.128174,4188.205078,450.000000,4.000000,,,,0.000000,4.000000,4.000000,4.000000,4.000000,4.000000,,,,,,,,,,,,,,,,,,,,,,,,,,,,,,,,,,,,,
1577742577.164188,70.000000,0.000000,4232.307617,4341.025879,4206.666504,4037.435791,4228.205078,16149.000000,4.000000,,,,0.000000,4.000000,4.000000,4.000000,4.000000,4.000000,35.000000,0.000000,0.150224,-0.242188,0.855225,0.432861,0.541512,-0.596689,0.600107,-11.679529,-48.396381,54.644833,,,,,,,,,,,,,,,,,,,,,,,,,
1577742577.171984,71.000000,0.000000,4196.922852,4324.615234,4173.846191,3996.410156,4195.384766,450.000000,4.000000,,,,0.000000,4.000000,4.000000,4.000000,4.000000,4.000000,,,,,,,,,,,,,,,,,,,,,,,,,,,,,,,,,,,,,
