title:012r, start timestamp:2019-12-31T00:52:10.519477+03:00, stop timestamp:2019-12-31T00:52:49.809941+03:00, headset type:INSIGHT, headset serial:A2D200FB, headset firmware:930, subject name:Qasim, channels:56, sampling rate:eeg_128;mot_64;pow_8, samples:5040      , version:2.0
Timestamp,EEG.Counter,EEG.Interpolated,EEG.AF3,EEG.T7,EEG.Pz,EEG.T8,EEG.AF4,EEG.RawCq,EEG.Battery,MarkerIndex,MarkerType,MarkerValueInt,EEG.MarkerHardware,CQ.AF3,CQ.T7,CQ.Pz,CQ.T8,CQ.AF4,MOT.CounterMems,MOT.InterpolatedMems,MOT.Q0,MOT.Q1,MOT.Q2,MOT.Q3,MOT.AccX,MOT.AccY,MOT.AccZ,MOT.MagX,MOT.MagY,MOT.MagZ,POW.AF3.Theta,POW.AF3.Alpha,POW.AF3.BetaL,POW.AF3.BetaH,POW.AF3.Gamma,POW.T7.Theta,POW.T7.Alpha,POW.T7.BetaL,POW.T7.BetaH,POW.T7.Gamma,POW.Pz.Theta,POW.Pz.Alpha,POW.Pz.BetaL,POW.Pz.BetaH,POW.Pz.Gamma,POW.T8.Theta,POW.T8.Alpha,POW.T8.BetaL,POW.T8.BetaH,POW.T8.Gamma,POW.AF4.Theta,POW.AF4.Alpha,POW.AF4.BetaL,POW.AF4.BetaH,POW.AF4.Gamma
1577742730.519477,27.000000,0.000000,4290.256348,4300.000000,4220.512695,4211.794922,4287.692383,0.000000,4.000000,,,,0.000000,4.000000,4.000000,4.000000,4.000000,4.000000,,,,,,,,,,,,,10.916388,7.841123,8.407738,5.446160,3.724591,1.199524,0.654227,2.842754,2.152544,2.047228,4.961067,4.851502,5.695555,3.711388,3.055309,3.561149,10.578033,8.393038,5.188924,4.167473,6.660747,10.831399,6.279561,5.422579,3.727822
1577742730.527373,28.000000,0.000000,4275.384766,4307.692383,4205.641113,4205.128418,4267.692383,0.000000,4.000000,,,,0.000000,4.000000,4.000000,4.000000,4.000000,4.000000,14.000000,0.000000,0.075465,-0.350342,0.813232,0.458496,0.514168,-0.603525,0.593271,7.482605,-46.913071,56.857964,,,,,,,,,,,,,,,,,,,,,,,,,
1577742730.535170,29.000000,0.000000,4277.436035,4313.846191,4204.615234,4197.948730,4251.794922,0.000000,4.000000,,,,0.000000,4.000000,4.000000,4.000000,4.000000,4.000000,,,,,,,,,,,,,,,,,,,,,,,,,,,,,,,,,,,,,
1577742730.543066,30.000000,0.000000,4261.538574,4294.871582,4191.282227,4177.436035,4226.153809,0.000000,4.000000,,,,0.000000,4.000000,4.000000,4.000000,4.000000,4.000000,15.000000,0.000000,0.074323,-0.350586,0.813232,0.458496,0.510262,-0.616709,0.617685,3.683761,-46.887363,57.273335,,,,,,,,,,,,,,,,,,,,,,,,,
1577742730.550863,31.000000,0.000000,4243.589844,4288.205078,4177.948730,4171.794922,4216.922852,0.000000,4.000000,,,,0.000000,4.000000,4.000000,4.000000,4.000000,4.000000,,,,,,,,,,,,,,,,,,,,,,,,,,,,,,,,,,,,,
1577742730.558759,32.000000,0.000000,4261.025879,4311.282227,4198.974121,4198.461426,4242.563965,0.000000,4.000000,,,,0.000000,4.000000,4.000000,4.000000,4.000000,4.000000,16.000000,0.000000,0.074323,-0.350586,0.813232,0.458496,0.522469,-0.602548,0.595712,4.332246,-46.804409,57.587353,,,,,,,,,,,,,,,,,,,,,,,,,
1577742730.566556,33.000000,0.000000,4278.461426,4320.512695,4210.256348,4205.128418,4251.794922,0.000000,4.000000,,,,0.000000,4.000000,4.000000,4.000000,4.000000,4.000000,,,,,,,,,,,,,,,,,,,,,,,,,,,,,,,,,,,,,
1577742730.574452,34.000000,0.000000,4275.384766,4313.333496,4187.179688,4190.256348,4242.563965,0.000000,4.000000,,,,0.000000,4.000000,4.000000,4.000000,4.000000,4.000000,17.000000,0.000000,0.074323,-0.350586,0.813232,0.458496,0.506844,-0.595224,0.600595,4.796252,-46.729752,57.869972,,,,,,,,,,,,,,,,,,,,,,,,,
1577742730.582248,35.000000,0.000000,4293.333496,4322.051270,4191.794922,4211.794922,4275.897461,0.000000,4.000000,,,,0.000000,4.000000,4.000000,4.000000,4.000000,4.000000,,,,,,,,,,,,,,,,,,,,,,,,,,,,,,,,,,,,,
1577742730.590145,36.000000,0.000000,4321.025879,4332.307617,4221.538574,4242.051270,4326.153809,0.000000,4.000000,,,,0.000000,4.000000,4.000000,4.000000,4.000000,4.000000,18.000000,0.000000,0.075478,-0.350586,0.812988,0.458740,0.522469,-0.597177,0.601083,1.325858,-46.782188,56.270050,,,,,,,,,,,,,,,,,,,,,,,,,
1577742730.597941,37.000000,0.000000,4298.974121,4309.230957,4206.666504,4218.461426,4318.461426,0.000000,4.000000,,,,0.000000,4.000000,4.000000,4.000000,4.000000,4.000000,,,,,,,,,,,,,,,,,,,,,,,,,,,,,,,,,,,,,
1577742730.605838,38.000000,0.000000,4267.179688,4281.025879,4178.974121,4187.179688,4289.230957,0.000000,4.000000,,,,0.000000,4.000000,4.000000,4.000000,4.000000,4.000000,19.000000,0.000000,0.073979,-0.350586,0.812988,0.458984,0.521492,-0.594736,0.605478,2.210134,-46.709755,56.684395,,,,,,,,,,,,,,,,,,,,,,,,,
1577742730.613634,39.000000,0.000000,4262.051270,4284.615234,4180.000000,4192.820313,4287.692383,0.000000,4.000000,,,,0.000000,4.000000,4.000000,4.000000,4.000000,4.000000,,,,,,,,,,,,,,,,,,,,,,,,,,,,,,,,,,,,,
1577742730.621331,40.000000,0.000000,4251.794922,4313.333496,4181.025879,4190.256348,4289.230957,0.000000,4.000000,,,,0.000000,4.000000,4.000000,4.000000,4.000000,4.000000,20.000000,0.000000,0.075137,-0.350586,0.812744,0.459229,0.529793,-0.592782,0.585458,-0.822202,-46.584747,57.236755,,,,,,,,,,,,,,,,,,,,,,,,,
1577742730.629128,41.000000,0.000000,4221.538574,4312.820313,4159.487305,4155.384766,4260.000000,0.000000,4.000000,,,,0.000000,4.000000,4.000000,4.000000,4.000000,4.000000,,,,,,,,,,,,,,,,,,,,,,,,,,,,,,,,,,,,,
1577742730.636824,42.000000,0.000000,4196.410156,4276.922852,4131.794922,4120.512695,4220.512695,0.000000,4.000000,,,,0.000000,4.000000,4.000000,4.000000,4.000000,4.000000,21.000000,0.000000,0.074783,-0.350342,0.812744,0.459473,0.515633,-0.612802,0.596689,2.968571,-46.532055,57.434799,,,,,,,,,,,,,,,,,,,,,,,,,
1577742730.644621,43.000000,0.000000,4226.666504,4288.717773,4155.384766,4145.641113,4244.615234,0.000000,4.000000,,,,0.000000,4.000000,4.000000,4.000000,4.000000,4.000000,,,,,,,,,,,,,5.651543,7.756627,8.258012,5.232825,3.856694,1.278410,0.628632,2.766442,2.365936,1.929350,5.138534,4.588366,5.399360,3.557039,3.188097,3.448793,11.013467,8.325150,4.682762,4.191838,5.929773,10.963343,6.411893,5.122917,3.794094
1577742730.652317,44.000000,0.000000,4304.102539,4340.512695,4221.025879,4222.563965,4323.077148,0.000000,4.000000,,,,0.000000,4.000000,4.000000,4.000000,4.000000,4.000000,22.000000,0.000000,0.074425,-0.350098,0.812744,0.459717,0.520027,-0.603525,0.601572,3.748391,-46.604263,57.852303,,,,,,,,,,,,,,,,,,,,,,,,,
1577742730.660114,45.000000,0.000000,4334.871582,4333.846191,4238.461426,4254.871582,4347.692383,0.000000,4.000000,,,,0.000000,4.000000,4.000000,4.000000,4.000000,4.000000,,,,,,,,,,,,,,,,,,,,,,,,,,,,,,,,,,,,,
1577742730.667810,46.000000,0.000000,4313.846191,4297.436035,4213.333496,4232.307617,4323.589844,0.000000,4.000000,,,,0.000000,4.000000,4.000000,4.000000,4.000000,4.000000,23.000000,0.000000,0.074064,-0.349854,0.812744,0.459961,0.517098,-0.606943,0.605966,7.022289,-46.848698,56.194332,,,,,,,,,,,,,,,,,,,,,,,,,
1577742730.675707,47.000000,0.000000,4330.256348,4306.153809,4218.974121,4238.974121,4340.000000,0.000000,4.000000,,,,0.000000,4.000000,4.000000,4.000000,4.000000,4.000000,,,,,,,,,,,,,,,,,,,,,,,,,,,,,,,,,,,,,
1577742730.683503,48.000000,0.000000,4345.641113,4333.333496,4235.897461,4263.589844,4360.512695,0.000000,4.000000,,,,0.000000,4.000000,4.000000,4.000000,4.000000,4.000000,24.000000,0.000000,0.073699,-0.349609,0.812744,0.460205,0.519539,-0.610361,0.595224,9.968798,-46.829426,56.676067,,,,,,,,,,,,,,,,,,,,,,,,,
1577742730.691400,49.000000,0.000000,4281.025879,4318.461426,4202.051270,4215.384766,4300.000000,0.000000,4.000000,,,,0.000000,4.000000,4.000000,4.000000,4.000000,4.000000,,,,,,,,,,,,,,,,,,,,,,,,,,,,,,,,,,,,,
1577742730.699196,50.000000,0.000000,4225.128418,4287.692383,4159.487305,4143.077148,4225.128418,0.000000,4.000000,,,,0.000000,4.000000,4.000000,4.000000,4.000000,4.000000,25.000000,0.000000,0.074425,-0.350098,0.812744,0.459717,0.520027,-0.603525,0.601572,10.048594,-46.871899,57.169445,,,,,,,,,,,,,,,,,,,,,,,,,
1577742730.707093,51.000000,1.000000,4227.122559,4289.287598,4158.119629,4141.196777,4223.248047,0.000000,4.000000,,,,0.000000,4.000000,4.000000,4.000000,4.000000,4.000000,,,,,,,,,,,,,,,,,,,,,,,,,,,,,,,,,,,,,
1577742730.714890,52.000000,1.000000,4229.116699,4290.883301,4156.751953,4139.316406,4221.367676,0.000000,4.000000,,,,0.000000,4.000000,4.000000,4.000000,4.000000,4.000000,26.000000,1.000000,0.000000,-0.349756,0.812744,0.460010,0.516219,-0.609384,0.000000,0.000000,0.000000,0.000000,,,,,,,,,,,,,,,,,,,,,,,,,
1577742730.722687,53.000000,1.000000,4231.111328,4292.478516,4155.384766,4137.436035,4219.487305,0.000000,4.000000,,,,0.000000,4.000000,4.000000,4.000000,4.000000,4.000000,,,,,,,,,,,,,,,,,,,,,,,,,,,,,,,,,,,,,
1577742730.730483,54.000000,1.000000,4233.105469,4294.074219,4154.017090,4135.555664,4217.606934,0.000000,4.000000,,,,0.000000,4.000000,4.000000,4.000000,4.000000,4.000000,27.000000,1.000000,0.000000,-0.349414,0.812744,0.460303,0.512410,-0.615244,0.000000,0.000000,0.000000,0.000000,,,,,,,,,,,,,,,,,,,,,,,,,
1577742730.738280,55.000000,1.000000,4235.099609,4295.669434,4152.649414,4133.675293,4215.726563,0.000000,4.000000,,,,0.000000,4.000000,4.000000,4.000000,4.000000,4.000000,,,,,,,,,,,,,,,,,,,,,,,,,,,,,,,,,,,,,
1577742730.746077,56.000000,1.000000,4237.094238,4297.265137,4151.282227,4131.794922,4213.846191,0.000000,4.000000,,,,0.000000,4.000000,4.000000,4.000000,4.000000,4.000000,28.000000,1.000000,0.000000,-0.349072,0.812744,0.460596,0.508601,-0.621103,0.000000,0.000000,0.000000,0.000000,,,,,,,,,,,,,,,,,,,,,,,,,
1577742730.753874,57.000000,1.000000,4239.088379,4298.860352,4149.914551,4129.914551,4211.965820,0.000000,4.000000,,,,0.000000,4.000000,4.000000,4.000000,4.000000,4.000000,,,,,,,,,,,,,,,,,,,,,,,,,,,,,,,,,,,,,
1577742730.761670,58.000000,1.000000,4241.082520,4300.456055,4148.546875,4128.034180,4210.085449,0.000000,4.000000,,,,0.000000,4.000000,4.000000,4.000000,4.000000,4.000000,29.000000,1.000000,0.000000,-0.348730,0.812744,0.460889,0.504793,-0.626963,0.000000,0.000000,0.000000,0.000000,,,,,,,,,,,,,,,,,,,,,,,,,
1577742730.769467,59.000000,0.000000,4243.077148,4302.051270,4147.179688,4126.153809,4208.205078,0.000000,4.000000,,,,0.000000,4.000000,4.000000,4.000000,4.000000,4.000000,,,,,,,,,,,,,4.377209,7.947958,8.272099,4.871102,4.166701,1.328598,0.595301,2.675687,2.637455,1.898793,5.345020,4.383766,5.291394,3.359382,3.425647,3.229734,10.848615,8.448160,4.188887,4.453946,6.350379,10.920295,7.263115,4.677594,4.018225
1577742730.777164,60.000000,0.000000,4213.846191,4297.436035,4120.512695,4097.436035,4176.922852,0.000000,4.000000,,,,0.000000,4.000000,4.000000,4.000000,4.000000,4.000000,30.000000,0.000000,0.073374,-0.348389,0.812744,0.461182,0.500984,-0.632822,0.595224,8.983919,-47.029751,57.733112,,,,,,,,,,,,,,,,,,,,,,,,,
1577742730.784960,61.000000,0.000000,4235.384766,4323.077148,4152.820313,4121.025879,4196.410156,0.000000,4.000000,,,,0.000000,4.000000,4.000000,4.000000,4.000000,4.000000,,,,,,,,,,,,,,,,,,,,,,,,,,,,,,,,,,,,,
1577742730.792756,62.000000,0.000000,4287.692383,4331.282227,4198.461426,4176.410156,4246.153809,0.000000,4.000000,,,,0.000000,4.000000,4.000000,4.000000,4.000000,4.000000,31.000000,0.000000,0.073374,-0.348389,0.812744,0.461182,0.507820,-0.639170,0.598642,8.982758,-46.992374,56.206692,,,,,,,,,,,,,,,,,,,,,,,,,
1577742730.800453,63.000000,0.000000,4300.000000,4316.410156,4198.974121,4191.282227,4258.461426,0.000000,4.000000,,,,0.000000,4.000000,4.000000,4.000000,4.000000,4.000000,,,,,,,,,,,,,,,,,,,,,,,,,,,,,,,,,,,,,
1577742730.808149,64.000000,0.000000,4291.794922,4328.717773,4192.307617,4186.153809,4258.974121,450.000000,4.000000,,,,0.000000,4.000000,4.000000,4.000000,4.000000,4.000000,32.000000,0.000000,0.074534,-0.348389,0.812500,0.461426,0.512215,-0.641123,0.585946,8.981712,-46.898922,56.806820,,,,,,,,,,,,,,,,,,,,,,,,,
1577742730.815945,65.000000,0.000000,4292.307617,4338.461426,4193.333496,4182.563965,4265.128418,450.000000,4.000000,,,,0.000000,4.000000,4.000000,4.000000,4.000000,4.000000,,,,,,,,,,,,,,,,,,,,,,,,,,,,,,,,,,,,,
1577742730.823642,66.000000,0.000000,4263.589844,4304.615234,4168.717773,4142.051270,4235.384766,16217.000000,4.000000,,,,0.000000,4.000000,4.000000,4.000000,4.000000,4.000000,33.000000,0.000000,0.073007,-0.348389,0.812500,0.461670,0.509285,-0.622080,0.592782,5.092773,-46.994259,57.227306,,,,,,,,,,,,,,,,,,,,,,,,,
1577742730.831438,67.000000,0.000000,4228.205078,4281.538574,4147.692383,4106.666504,4208.205078,450.000000,4.000000,,,,0.000000,4.000000,4.000000,4.000000,4.000000,4.000000,,,,,,,,,,,,,,,,,,,,,,,,,,,,,,,,,,,,,
1577742730.839134,68.000000,0.000000,4252.820313,4310.769043,4162.051270,4134.871582,4231.794922,16233.000000,4.000000,,,,0.000000,4.000000,4.000000,4.000000,4.000000,4.000000,34.000000,0.000000,0.073007,-0.348389,0.812500,0.461670,0.513680,-0.609873,0.589364,3.686265,-46.840801,57.605743,,,,,,,,,,,,,,,,,,,,,,,,,
1577742730.846931,69.000000,0.000000,4274.358887,4325.128418,4162.563965,4147.692383,4234.871582,450.000000,4.000000,,,,0.000000,4.000000,4.000000,4.000000,4.000000,4.000000,,,,,,,,,,,,,,,,,,,,,,,,,,,,,,,,,,,,,
1577742730.854727,70.000000,0.000000,4251.794922,4312.820313,4150.256348,4118.974121,4221.025879,16137.000000,4.000000,,,,0.000000,4.000000,4.000000,4.000000,4.000000,4.000000,35.000000,0.000000,0.074162,-0.348145,0.812500,0.461670,0.518074,-0.621103,0.584970,7.086007,-47.001766,58.185596,,,,,,,,,,,,,,,,,,,,,,,,,
1577742730.862423,71.000000,0.000000,4267.692383,4325.128418,4183.077148,4148.205078,4248.205078,450.000000,4.000000,,,,0.000000,4.000000,4.000000,4.000000,4.000000,4.000000,,,,,,,,,,,,,,,,,,,,,,,,,,,,,,,,,,,,,
1577742730.870120,72.000000,0.000000,4289.743652,4327.692383,4200.000000,4178.461426,4258.974121,450.000000,4.000000,,,,0.000000,4.000000,4.000000,4.000000,4.000000,4.000000,36.000000,0.000000,0.072626,-0.348145,0.812500,0.461914,0.507332,-0.633310,0.590829,3.386638,-47.086819,58.468204,,,,,,,,,,,,,,,,,,,,,,,,,
1577742730.877916,73.000000,0.000000,4260.512695,4305.128418,4162.563965,4139.487305,4229.230957,16201.000000,4.000000,,,,0.000000,4.000000,4.000000,4.000000,4.000000,4.000000,,,,,,,,,,,,,,,,,,,,,,,,,,,,,,,,,,,,,
1577742730.885612,74.000000,0.000000,4245.128418,4298.461426,4152.820313,4128.205078,4214.358887,450.000000,4.000000,,,,0.000000,4.000000,4.000000,4.000000,4.000000,4.000000,37.000000,0.000000,0.073787,-0.347900,0.812500,0.461914,0.496590,-0.629404,0.596689,3.885389,-46.924103,58.722553,,,,,,,,,,,,,,,,,,,,,,,,,
1577742730.893409,75.000000,0.000000,4283.077148,4321.025879,4191.794922,4174.871582,4252.820313,16214.000000,4.000000,,,,0.000000,4.000000,4.000000,4.000000,4.000000,4.000000,,,,,,,,,,,,,4.244331,8.204655,8.837992,4.499202,4.649930,1.361220,0.552303,2.699143,2.880913,1.967386,5.902981,4.377071,5.636271,3.204556,3.753114,3.009359,10.283900,9.113821,3.835125,4.939952,7.578964,10.631142,9.207037,4.246725,4.438296
1577742730.901105,76.000000,0.000000,4312.307617,4339.487305,4209.230957,4195.897461,4287.179688,450.000000,4.000000,,,,0.000000,4.000000,4.000000,4.000000,4.000000,4.000000,38.000000,0.000000,0.074929,-0.347656,0.812500,0.461914,0.492683,-0.632334,0.600107,4.513711,-46.897293,59.011280,,,,,,,,,,,,,,,,,,,,,,,,,
1577742730.908901,77.000000,0.000000,4291.282227,4311.282227,4175.897461,4164.102539,4257.948730,450.000000,4.000000,,,,0.000000,4.000000,4.000000,4.000000,4.000000,4.000000,,,,,,,,,,,,,,,,,,,,,,,,,,,,,,,,,,,,,
1577742730.916598,78.000000,0.000000,4281.538574,4293.333496,4165.641113,4151.794922,4246.666504,450.000000,4.000000,,,,0.000000,4.000000,4.000000,4.000000,4.000000,4.000000,39.000000,0.000000,0.072232,-0.347656,0.812744,0.461914,0.508309,-0.633310,0.583505,5.019386,-46.992790,59.271133,,,,,,,,,,,,,,,,,,,,,,,,,
1577742730.924394,79.000000,0.000000,4291.794922,4319.487305,4182.563965,4162.563965,4262.051270,16214.000000,4.000000,,,,0.000000,4.000000,4.000000,4.000000,4.000000,4.000000,,,,,,,,,,,,,,,,,,,,,,,,,,,,,,,,,,,,,
1577742730.932090,80.000000,0.000000,4273.846191,4322.051270,4166.153809,4145.128418,4239.487305,450.000000,4.000000,,,,0.000000,4.000000,4.000000,4.000000,4.000000,4.000000,40.000000,0.000000,0.072232,-0.347656,0.812744,0.461914,0.523934,-0.627939,0.586435,3.560402,-46.899296,59.624634,,,,,,,,,,,,,,,,,,,,,,,,,
1577742730.939887,81.000000,0.000000,4255.384766,4287.179688,4147.692383,4122.051270,4211.282227,450.000000,4.000000,,,,0.000000,4.000000,4.000000,4.000000,4.000000,4.000000,,,,,,,,,,,,,,,,,,,,,,,,,,,,,,,,,,,,,
1577742730.947583,82.000000,0.000000,4269.743652,4289.743652,4168.717773,4129.743652,4224.615234,450.000000,4.000000,,,,0.000000,4.000000,4.000000,4.000000,4.000000,4.000000,41.000000,0.000000,0.072617,-0.347900,0.812744,0.461670,0.527840,-0.620615,0.583505,6.912914,-46.934780,59.763336,,,,,,,,,,,,,,,,,,,,,,,,,
1577742730.955379,83.000000,0.000000,4258.974121,4311.794922,4176.410156,4128.717773,4222.563965,16214.000000,4.000000,,,,0.000000,4.000000,4.000000,4.000000,4.000000,4.000000,,,,,,,,,,,,,,,,,,,,,,,,,,,,,,,,,,,,,
1577742730.963076,84.000000,0.000000,4225.128418,4297.948730,4148.717773,4104.102539,4188.717773,450.000000,4.000000,,,,0.000000,4.000000,4.000000,4.000000,4.000000,4.000000,42.000000,0.000000,0.072617,-0.347900,0.812744,0.461670,0.513680,-0.628428,0.584970,9.930176,-46.847084,59.708725,,,,,,,,,,,,,,,,,,,,,,,,,
1577742730.970872,85.000000,0.000000,4246.153809,4290.256348,4153.846191,4118.461426,4203.077148,450.000000,4.000000,,,,0.000000,4.000000,4.000000,4.000000,4.000000,4.000000,,,,,,,,,,,,,,,,,,,,,,,,,,,,,,,,,,,,,
1577742730.978568,86.000000,0.000000,4275.897461,4307.692383,4173.333496,4138.461426,4235.897461,450.000000,4.000000,,,,0.000000,4.000000,4.000000,4.000000,4.000000,4.000000,43.000000,0.000000,0.071437,-0.348145,0.812744,0.461670,0.508797,-0.620127,0.585946,9.954020,-46.887791,59.839020,,,,,,,,,,,,,,,,,,,,,,,,,
1577742730.986365,87.000000,0.000000,4263.589844,4306.666504,4155.897461,4121.025879,4231.282227,16214.000000,4.000000,,,,0.000000,4.000000,4.000000,4.000000,4.000000,4.000000,,,,,,,,,,,,,,,,,,,,,,,,,,,,,,,,,,,,,
1577742730.994061,88.000000,0.000000,4303.077148,4315.384766,4171.282227,4155.897461,4272.820313,450.000000,4.000000,,,,0.000000,4.000000,4.000000,4.000000,4.000000,4.000000,44.000000,0.000000,0.071823,-0.348389,0.812744,0.461426,0.514168,-0.633310,0.589364,9.915663,-46.804794,59.896469,,,,,,,,,,,,,,,,,,,,,,,,,
1577742731.001757,89.000000,0.000000,4394.358887,4352.820313,4234.871582,4246.666504,4365.128418,450.000000,4.000000,,,,0.000000,4.000000,4.000000,4.000000,4.000000,4.000000,,,,,,,,,,,,,,,,,,,,,,,,,,,,,,,,,,,,,
1577742731.009554,90.000000,0.000000,4395.384766,4343.589844,4229.743652,4244.615234,4370.769043,450.000000,4.000000,,,,0.000000,4.000000,4.000000,4.000000,4.000000,4.000000,45.000000,0.000000,0.073748,-0.348633,0.812744,0.460938,0.523445,-0.623545,0.593271,9.881143,-46.849728,58.093899,,,,,,,,,,,,,,,,,,,,,,,,,
1577742731.017350,91.000000,0.000000,4337.948730,4300.000000,4170.769043,4176.922852,4314.358887,16214.000000,4.000000,,,,0.000000,4.000000,4.000000,4.000000,4.000000,4.000000,,,,,,,,,,,,,4.638349,8.808500,10.257346,4.282481,5.211306,1.325133,0.547014,2.882717,3.007285,2.125849,6.904162,4.645153,6.517946,3.152407,4.109709,3.154038,9.765099,10.523000,3.738839,5.549124,10.169766,10.255213,12.335105,3.985051,4.998882
1577742731.025046,92.000000,0.000000,4356.410156,4321.025879,4186.666504,4196.922852,4330.769043,450.000000,4.000000,,,,0.000000,4.000000,4.000000,4.000000,4.000000,4.000000,46.000000,0.000000,0.074118,-0.348877,0.812744,0.460693,0.518563,-0.618662,0.584482,6.021891,-46.830357,56.411770,,,,,,,,,,,,,,,,,,,,,,,,,
1577742731.032843,93.000000,0.000000,4389.230957,4361.538574,4221.538574,4237.436035,4365.641113,450.000000,4.000000,,,,0.000000,4.000000,4.000000,4.000000,4.000000,4.000000,,,,,,,,,,,,,,,,,,,,,,,,,,,,,,,,,,,,,
1577742731.040539,94.000000,0.000000,4355.384766,4334.871582,4191.794922,4206.153809,4333.846191,450.000000,4.000000,,,,0.000000,4.000000,4.000000,4.000000,4.000000,4.000000,47.000000,0.000000,0.074118,-0.348877,0.812744,0.460693,0.521981,-0.614755,0.596201,8.290839,-46.872734,56.811943,,,,,,,,,,,,,,,,,,,,,,,,,
1577742731.048235,95.000000,0.000000,4302.051270,4286.153809,4153.846191,4167.179688,4278.461426,16214.000000,4.000000,,,,0.000000,4.000000,4.000000,4.000000,4.000000,4.000000,,,,,,,,,,,,,,,,,,,,,,,,,,,,,,,,,,,,,
1577742731.056032,96.000000,0.000000,4284.615234,4293.846191,4146.666504,4153.846191,4253.846191,450.000000,4.000000,,,,0.000000,4.000000,4.000000,4.000000,4.000000,4.000000,48.000000,0.000000,0.074484,-0.349121,0.812744,0.460449,0.505867,-0.606455,0.590829,11.170308,-46.851059,57.172100,,,,,,,,,,,,,,,,,,,,,,,,,
1577742731.063728,97.000000,0.000000,4288.717773,4332.307617,4146.153809,4143.077148,4252.307617,450.000000,4.000000,,,,0.000000,4.000000,4.000000,4.000000,4.000000,4.000000,,,,,,,,,,,,,,,,,,,,,,,,,,,,,,,,,,,,,
1577742731.071524,98.000000,0.000000,4286.666504,4328.205078,4144.102539,4133.846191,4245.641113,450.000000,4.000000,,,,0.000000,4.000000,4.000000,4.000000,4.000000,4.000000,49.000000,0.000000,0.074484,-0.349121,0.812744,0.460449,0.510750,-0.608408,0.600107,11.010324,-46.711922,57.615875,,,,,,,,,,,,,,,,,,,,,,,,,
1577742731.079221,99.000000,0.000000,4291.282227,4309.230957,4157.436035,4147.179688,4251.282227,16214.000000,4.000000,,,,0.000000,4.000000,4.000000,4.000000,4.000000,4.000000,,,,,,,,,,,,,,,,,,,,,,,,,,,,,,,,,,,,,
1577742731.087017,100.000000,0.000000,4316.410156,4332.307617,4181.538574,4176.922852,4284.102539,450.000000,4.000000,,,,0.000000,4.000000,4.000000,4.000000,4.000000,4.000000,50.000000,0.000000,0.074484,-0.349121,0.812744,0.460449,0.500496,-0.617685,0.593271,7.097969,-46.766144,57.955456,,,,,,,,,,,,,,,,,,,,,,,,,
1577742731.094713,101.000000,0.000000,4318.974121,4327.179688,4177.948730,4180.000000,4285.641113,450.000000,4.000000,,,,0.000000,4.000000,4.000000,4.000000,4.000000,4.000000,,,,,,,,,,,,,,,,,,,,,,,,,,,,,,,,,,,,,
1577742731.102510,102.000000,0.000000,4294.871582,4283.077148,4160.000000,4163.589844,4258.461426,450.000000,4.000000,,,,0.000000,4.000000,4.000000,4.000000,4.000000,4.000000,51.000000,0.000000,0.072148,-0.349365,0.812988,0.460205,0.508797,-0.634775,0.588876,7.345218,-46.814941,58.500336,,,,,,,,,,,,,,,,,,,,,,,,,
1577742731.110206,103.000000,0.000000,4304.102539,4298.461426,4172.307617,4178.974121,4272.820313,16214.000000,4.000000,,,,0.000000,4.000000,4.000000,4.000000,4.000000,4.000000,,,,,,,,,,,,,,,,,,,,,,,,,,,,,,,,,,,,,
1577742731.117903,104.000000,0.000000,4335.897461,4340.000000,4190.769043,4202.563965,4308.717773,450.000000,4.000000,,,,0.000000,4.000000,4.000000,4.000000,4.000000,4.000000,52.000000,0.000000,0.073688,-0.349365,0.812988,0.459961,0.511727,-0.624033,0.590341,7.687372,-46.918678,58.751472,,,,,,,,,,,,,,,,,,,,,,,,,
1577742731.125699,105.000000,0.000000,4341.538574,4329.230957,4184.102539,4193.846191,4315.384766,450.000000,4.000000,,,,0.000000,4.000000,4.000000,4.000000,4.000000,4.000000,,,,,,,,,,,,,,,,,,,,,,,,,,,,,,,,,,,,,
1577742731.133495,106.000000,0.000000,4329.230957,4308.205078,4170.769043,4172.820313,4305.641113,450.000000,4.000000,,,,0.000000,4.000000,4.000000,4.000000,4.000000,4.000000,53.000000,0.000000,0.074484,-0.349121,0.812744,0.460449,0.500496,-0.617685,0.593271,3.868052,-46.952225,58.917675,,,,,,,,,,,,,,,,,,,,,,,,,
1577742731.141192,107.000000,0.000000,4330.769043,4320.512695,4171.282227,4169.230957,4303.589844,16214.000000,4.000000,,,,0.000000,4.000000,4.000000,4.000000,4.000000,4.000000,,,,,,,,,,,,,5.772402,10.160685,12.554458,4.302187,5.682426,1.299867,0.650148,3.175066,2.961700,2.340631,8.236102,5.225196,7.785098,3.194857,4.400210,4.051072,9.881715,12.626070,3.923846,6.108093,14.133555,10.148417,16.318369,3.952004,5.550998
1577742731.148988,108.000000,0.000000,4354.871582,4337.948730,4188.717773,4182.563965,4322.563965,450.000000,4.000000,,,,0.000000,4.000000,4.000000,4.000000,4.000000,4.000000,54.000000,0.000000,0.073688,-0.349365,0.812988,0.459961,0.511727,-0.624033,0.590341,4.557923,-47.042229,59.127075,,,,,,,,,,,,,,,,,,,,,,,,,
1577742731.156684,109.000000,0.000000,4367.179688,4345.128418,4202.051270,4189.230957,4340.000000,450.000000,4.000000,,,,0.000000,4.000000,4.000000,4.000000,4.000000,4.000000,,,,,,,,,,,,,,,,,,,,,,,,,,,,,,,,,,,,,
1577742731.164480,110.000000,0.000000,4346.153809,4330.256348,4184.615234,4171.282227,4319.487305,450.000000,4.000000,,,,0.000000,4.000000,4.000000,4.000000,4.000000,4.000000,55.000000,0.000000,0.075196,-0.349365,0.812988,0.459717,0.510262,-0.615244,0.597177,1.111362,-47.003605,57.521076,,,,,,,,,,,,,,,,,,,,,,,,,
1577742731.172177,111.000000,0.000000,4340.000000,4309.743652,4171.282227,4164.615234,4303.589844,16214.000000,4.000000,,,,0.000000,4.000000,4.000000,4.000000,4.000000,4.000000,,,,,,,,,,,,,,,,,,,,,,,,,,,,,,,,,,,,,
1577742731.179973,112.000000,0.000000,4375.897461,4326.153809,4194.871582,4193.333496,4336.922852,450.000000,4.000000,,,,0.000000,4.000000,4.000000,4.000000,4.000000,4.000000,56.000000,0.000000,0.075196,-0.349365,0.812988,0.459717,0.500008,-0.610361,0.613291,1.897457,-47.088474,57.989765,,,,,,,,,,,,,,,,,,,,,,,,,
1577742731.187670,113.000000,0.000000,4391.794922,4333.846191,4202.563965,4206.153809,4352.820313,450.000000,4.000000,,,,0.000000,4.000000,4.000000,4.000000,4.000000,4.000000,,,,,,,,,,,,,,,,,,,,,,,,,,,,,,,,,,,,,
1577742731.195466,114.000000,0.000000,4362.563965,4295.384766,4167.179688,4176.410156,4320.000000,450.000000,4.000000,,,,0.000000,4.000000,4.000000,4.000000,4.000000,4.000000,57.000000,0.000000,0.075196,-0.349365,0.812988,0.459717,0.525399,-0.600107,0.599619,5.476079,-47.164856,58.351772,,,,,,,,,,,,,,,,,,,,,,,,,
1577742731.203162,115.000000,0.000000,4336.410156,4283.077148,4144.615234,4152.307617,4295.897461,16214.000000,4.000000,,,,0.000000,4.000000,4.000000,4.000000,4.000000,4.000000,,,,,,,,,,,,,,,,,,,,,,,,,,,,,,,,,,,,,
1577742731.210959,116.000000,0.000000,4335.384766,4319.487305,4158.461426,4162.563965,4301.538574,450.000000,4.000000,,,,0.000000,4.000000,4.000000,4.000000,4.000000,4.000000,58.000000,0.000000,0.074053,-0.349609,0.812988,0.459717,0.521492,-0.620615,0.605478,5.825702,-47.233601,58.617760,,,,,,,,,,,,,,,,,,,,,,,,,
1577742731.218655,117.000000,0.000000,4346.666504,4341.538574,4164.615234,4177.948730,4314.871582,450.000000,4.000000,,,,0.000000,4.000000,4.000000,4.000000,4.000000,4.000000,,,,,,,,,,,,,,,,,,,,,,,,,,,,,,,,,,,,,
1577742731.226451,118.000000,0.000000,4333.333496,4318.461426,4131.794922,4152.307617,4303.077148,450.000000,4.000000,,,,0.000000,4.000000,4.000000,4.000000,4.000000,4.000000,59.000000,0.000000,0.074414,-0.349854,0.812988,0.459473,0.514656,-0.606943,0.603037,6.200177,-47.235653,58.797337,,,,,,,,,,,,,,,,,,,,,,,,,
1577742731.234148,119.000000,0.000000,4297.948730,4294.358887,4096.922852,4109.743652,4273.846191,16214.000000,4.000000,,,,0.000000,4.000000,4.000000,4.000000,4.000000,4.000000,,,,,,,,,,,,,,,,,,,,,,,,,,,,,,,,,,,,,
1577742731.241944,120.000000,0.000000,4308.717773,4315.897461,4118.974121,4129.230957,4287.179688,450.000000,4.000000,,,,0.000000,4.000000,4.000000,4.000000,4.000000,4.000000,60.000000,0.000000,0.074414,-0.349854,0.812988,0.459473,0.500008,-0.613779,0.597177,6.357759,-47.177689,59.018772,,,,,,,,,,,,,,,,,,,,,,,,,
1577742731.249640,121.000000,0.000000,4364.102539,4355.897461,4166.153809,4188.717773,4334.358887,450.000000,4.000000,,,,0.000000,4.000000,4.000000,4.000000,4.000000,4.000000,,,,,,,,,,,,,,,,,,,,,,,,,,,,,,,,,,,,,
1577742731.257337,122.000000,0.000000,4381.025879,4346.153809,4162.563965,4195.897461,4338.974121,450.000000,4.000000,,,,0.000000,4.000000,4.000000,4.000000,4.000000,4.000000,61.000000,0.000000,0.072878,-0.349609,0.813232,0.459473,0.517586,-0.612802,0.597665,2.850846,-47.245148,59.158245,,,,,,,,,,,,,,,,,,,,,,,,,
1577742731.265133,123.000000,0.000000,4371.794922,4313.846191,4138.461426,4174.871582,4321.538574,16214.000000,4.000000,,,,0.000000,4.000000,4.000000,4.000000,4.000000,4.000000,,,,,,,,,,,,,7.636373,12.749013,15.323986,4.485544,5.907757,1.334748,0.934981,3.448797,2.733482,2.563590,9.541909,6.179521,9.108135,3.260955,4.538334,5.773185,11.297839,15.023123,4.285515,6.446090,19.046721,11.089164,20.388721,4.081373,5.925401
1577742731.272829,124.000000,0.000000,4382.051270,4320.000000,4142.563965,4178.461426,4331.794922,450.000000,4.000000,,,,0.000000,4.000000,4.000000,4.000000,4.000000,4.000000,62.000000,0.000000,0.074401,-0.349609,0.813232,0.459229,0.511727,-0.607919,0.595224,6.214499,-47.126415,59.223957,,,,,,,,,,,,,,,,,,,,,,,,,
1577742731.280626,125.000000,0.000000,4374.871582,4334.358887,4137.948730,4165.128418,4327.692383,450.000000,4.000000,,,,0.000000,4.000000,4.000000,4.000000,4.000000,4.000000,,,,,,,,,,,,,,,,,,,,,,,,,,,,,,,,,,,,,
1577742731.288322,126.000000,0.000000,4340.000000,4318.974121,4107.179688,4125.641113,4288.717773,450.000000,4.000000,,,,0.000000,4.000000,4.000000,4.000000,4.000000,4.000000,63.000000,0.000000,0.072878,-0.349609,0.813232,0.459473,0.521981,-0.603037,0.598154,9.301601,-47.079372,59.522362,,,,,,,,,,,,,,,,,,,,,,,,,
1577742731.296118,127.000000,0.000000,4326.153809,4304.102539,4092.820557,4108.717773,4266.153809,235.000000,4.000000,,,,0.000000,4.000000,4.000000,4.000000,4.000000,4.000000,,,,,,,,,,,,,,,,,,,,,,,,,,,,,,,,,,,,,
1577742731.303815,0.000000,0.000000,4327.179688,4300.000000,4092.307617,4105.128418,4261.025879,450.000000,4.000000,,,,0.000000,4.000000,4.000000,4.000000,4.000000,4.000000,0.000000,0.000000,0.075553,-0.349609,0.812988,0.459473,0.522957,-0.588388,0.582528,9.328487,-46.977219,59.551659,,,,,,,,,,,,,,,,,,,,,,,,,
1577742731.311611,1.000000,0.000000,4318.461426,4291.794922,4085.641113,4095.384521,4245.641113,450.000000,4.000000,,,,0.000000,4.000000,4.000000,4.000000,4.000000,4.000000,,,,,,,,,,,,,,,,,,,,,,,,,,,,,,,,,,,,,
1577742731.319307,2.000000,0.000000,4313.846191,4294.358887,4083.589844,4095.897461,4229.743652,16205.000000,4.000000,,,,0.000000,4.000000,4.000000,4.000000,4.000000,4.000000,1.000000,0.000000,0.075196,-0.349365,0.812988,0.459717,0.515145,-0.588388,0.594247,9.352684,-46.885281,59.757477,,,,,,,,,,,,,,,,,,,,,,,,,
1577742731.327104,3.000000,0.000000,4289.743652,4292.820313,4060.512939,4080.000000,4201.538574,450.000000,4.000000,,,,0.000000,4.000000,4.000000,4.000000,4.000000,4.000000,,,,,,,,,,,,,,,,,,,,,,,,,,,,,,,,,,,,,
1577742731.334800,4.000000,0.000000,4261.025879,4289.230957,4037.948730,4056.923096,4186.153809,16229.000000,4.000000,,,,0.000000,4.000000,4.000000,4.000000,4.000000,4.000000,2.000000,0.000000,0.073688,-0.349365,0.812988,0.459961,0.516121,-0.606455,0.594247,11.348369,-46.922165,57.849174,,,,,,,,,,,,,,,,,,,,,,,,,
1577742731.342596,5.000000,0.000000,4297.436035,4319.487305,4076.923096,4094.358887,4234.358887,450.000000,4.000000,,,,0.000000,4.000000,4.000000,4.000000,4.000000,4.000000,,,,,,,,,,,,,,,,,,,,,,,,,,,,,,,,,,,,,
1577742731.350293,6.000000,0.000000,4372.307617,4355.384766,4138.974121,4166.153809,4307.179688,16132.000000,4.000000,,,,0.000000,4.000000,4.000000,4.000000,4.000000,4.000000,3.000000,0.000000,0.073320,-0.349121,0.812988,0.460205,0.514656,-0.620127,0.594247,11.050947,-47.074993,58.225239,,,,,,,,,,,,,,,,,,,,,,,,,
1577742731.358089,7.000000,0.000000,4381.025879,4337.948730,4137.948730,4175.384766,4317.948730,450.000000,4.000000,,,,0.000000,4.000000,4.000000,4.000000,4.000000,4.000000,,,,,,,,,,,,,,,,,,,,,,,,,,,,,,,,,,,,,
1577742731.365785,8.000000,0.000000,4338.461426,4305.641113,4096.410156,4128.717773,4276.922852,450.000000,4.000000,,,,0.000000,4.000000,4.000000,4.000000,4.000000,4.000000,4.000000,0.000000,0.074473,-0.348877,0.812988,0.460205,0.504891,-0.626963,0.596689,12.936621,-47.152725,56.529976,,,,,,,,,,,,,,,,,,,,,,,,,
1577742731.373482,9.000000,0.000000,4334.358887,4320.512695,4094.871826,4117.948730,4265.641113,16191.000000,4.000000,,,,0.000000,4.000000,4.000000,4.000000,4.000000,4.000000,,,,,,,,,,,,,,,,,,,,,,,,,,,,,,,,,,,,,
1577742731.381278,10.000000,0.000000,4349.230957,4333.846191,4113.846191,4136.410156,4278.461426,450.000000,4.000000,,,,0.000000,4.000000,4.000000,4.000000,4.000000,4.000000,5.000000,0.000000,0.074473,-0.348877,0.812988,0.460205,0.522957,-0.613291,0.582040,15.351511,-47.222679,56.978146,,,,,,,,,,,,,,,,,,,,,,,,,
1577742731.388974,11.000000,0.000000,4339.487305,4317.948730,4111.282227,4128.205078,4273.846191,16203.000000,4.000000,,,,0.000000,4.000000,4.000000,4.000000,4.000000,4.000000,,,,,,,,,,,,,10.085512,16.855488,17.877453,4.660210,5.820726,1.485034,1.421008,3.570878,2.371832,2.761278,10.339381,7.562737,10.098183,3.257025,4.484981,8.135706,14.435257,17.082626,4.625016,6.471704,24.498886,13.909943,23.585100,4.232648,6.012492
1577742731.396771,12.000000,0.000000,4337.948730,4313.846191,4112.307617,4118.461426,4274.358887,450.000000,4.000000,,,,0.000000,4.000000,4.000000,4.000000,4.000000,4.000000,6.000000,0.000000,0.072948,-0.348877,0.812988,0.460449,0.520027,-0.612314,0.582040,14.952852,-47.166012,57.321682,,,,,,,,,,,,,,,,,,,,,,,,,
1577742731.404467,13.000000,0.000000,4343.077148,4317.948730,4120.000000,4116.922852,4278.461426,450.000000,4.000000,,,,0.000000,4.000000,4.000000,4.000000,4.000000,4.000000,,,,,,,,,,,,,,,,,,,,,,,,,,,,,,,,,,,,,
1577742731.412263,14.000000,0.000000,4328.717773,4311.794922,4110.256348,4105.128418,4264.615234,450.000000,4.000000,,,,0.000000,4.000000,4.000000,4.000000,4.000000,4.000000,7.000000,0.000000,0.074118,-0.348877,0.812744,0.460693,0.506355,-0.619638,0.598154,10.466799,-47.294456,57.571053,,,,,,,,,,,,,,,,,,,,,,,,,
1577742731.419960,15.000000,0.000000,4315.897461,4305.641113,4096.410156,4095.384521,4249.743652,16203.000000,4.000000,,,,0.000000,4.000000,4.000000,4.000000,4.000000,4.000000,,,,,,,,,,,,,,,,,,,,,,,,,,,,,,,,,,,,,
1577742731.427756,16.000000,0.000000,4306.153809,4301.538574,4093.333252,4090.769287,4236.410156,0.000000,4.000000,,,,0.000000,4.000000,4.000000,4.000000,4.000000,4.000000,8.000000,0.000000,0.072584,-0.348877,0.812744,0.460938,0.519539,-0.625498,0.593271,6.489166,-47.230606,57.974930,,,,,,,,,,,,,,,,,,,,,,,,,
1577742731.435453,17.000000,0.000000,4297.948730,4298.461426,4091.794922,4087.179443,4225.641113,0.000000,4.000000,,,,0.000000,4.000000,4.000000,4.000000,4.000000,4.000000,,,,,,,,,,,,,,,,,,,,,,,,,,,,,,,,,,,,,
1577742731.443249,18.000000,0.000000,4290.256348,4286.666504,4077.435791,4084.615479,4217.948730,0.000000,4.000000,,,,0.000000,4.000000,4.000000,4.000000,4.000000,4.000000,9.000000,0.000000,0.073757,-0.348877,0.812500,0.461182,0.507332,-0.614755,0.599130,6.737480,-47.173145,58.398235,,,,,,,,,,,,,,,,,,,,,,,,,
1577742731.450945,19.000000,0.000000,4273.333496,4271.282227,4059.487061,4074.871826,4204.102539,0.000000,4.000000,,,,0.000000,4.000000,4.000000,4.000000,4.000000,4.000000,,,,,,,,,,,,,,,,,,,,,,,,,,,,,,,,,,,,,
1577742731.458741,20.000000,0.000000,4311.794922,4310.769043,4098.461426,4116.410156,4246.666504,0.000000,4.000000,,,,0.000000,4.000000,4.000000,4.000000,4.000000,4.000000,10.000000,0.000000,0.073757,-0.348877,0.812500,0.461182,0.494636,-0.640635,0.596689,9.772285,-47.360691,56.685669,,,,,,,,,,,,,,,,,,,,,,,,,
1577742731.466438,21.000000,0.000000,4388.717773,4365.641113,4154.358887,4186.153809,4323.589844,0.000000,4.000000,,,,0.000000,4.000000,4.000000,4.000000,4.000000,4.000000,,,,,,,,,,,,,,,,,,,,,,,,,,,,,,,,,,,,,
1577742731.474234,22.000000,0.000000,4386.153809,4337.948730,4134.358887,4171.282227,4319.487305,0.000000,4.000000,,,,0.000000,4.000000,4.000000,4.000000,4.000000,4.000000,11.000000,0.000000,0.074903,-0.348633,0.812500,0.461182,0.509285,-0.631846,0.582528,11.666194,-47.350037,57.118271,,,,,,,,,,,,,,,,,,,,,,,,,
1577742731.481931,23.000000,0.000000,4334.358887,4285.641113,4094.871826,4117.948730,4275.897461,0.000000,4.000000,,,,0.000000,4.000000,4.000000,4.000000,4.000000,4.000000,,,,,,,,,,,,,,,,,,,,,,,,,,,,,,,,,,,,,
1577742731.489727,24.000000,0.000000,4333.846191,4298.461426,4102.563965,4124.102539,4282.563965,0.000000,4.000000,,,,0.000000,4.000000,4.000000,4.000000,4.000000,4.000000,12.000000,0.000000,0.074903,-0.348633,0.812500,0.461182,0.511727,-0.629892,0.600107,14.208127,-47.280632,57.507610,,,,,,,,,,,,,,,,,,,,,,,,,
1577742731.497423,25.000000,0.000000,4343.589844,4318.461426,4108.717773,4132.820313,4289.230957,0.000000,4.000000,,,,0.000000,4.000000,4.000000,4.000000,4.000000,4.000000,,,,,,,,,,,,,,,,,,,,,,,,,,,,,,,,,,,,,
1577742731.505220,26.000000,0.000000,4324.615234,4311.282227,4100.000000,4110.769043,4265.128418,0.000000,4.000000,,,,0.000000,4.000000,4.000000,4.000000,4.000000,4.000000,13.000000,0.000000,0.073384,-0.348633,0.812500,0.461426,0.516121,-0.625010,0.592294,13.624729,-47.158352,57.798203,,,,,,,,,,,,,,,,,,,,,,,,,
1577742731.512916,27.000000,0.000000,4328.717773,4317.436035,4105.641113,4117.436035,4268.205078,0.000000,4.000000,,,,0.000000,4.000000,4.000000,4.000000,4.000000,4.000000,,,,,,,,,,,,,13.021056,22.343561,19.430241,4.685013,5.472765,1.762087,2.086071,3.453810,1.978080,2.932631,10.478592,9.264997,10.455580,3.148784,4.273184,10.673585,19.177759,18.186022,4.784861,6.207455,29.649202,19.042343,25.022827,4.298806,5.809405
1577742731.520712,28.000000,0.000000,4344.615234,4321.538574,4107.179688,4131.794922,4282.051270,0.000000,4.000000,,,,0.000000,4.000000,4.000000,4.000000,4.000000,4.000000,14.000000,0.000000,0.073384,-0.348633,0.812500,0.461426,0.524422,-0.614267,0.588388,13.039856,-47.227745,56.205456,,,,,,,,,,,,,,,,,,,,,,,,,
1577742731.528409,29.000000,0.000000,4324.615234,4303.589844,4095.384521,4108.205078,4259.487305,0.000000,4.000000,,,,0.000000,4.000000,4.000000,4.000000,4.000000,4.000000,,,,,,,,,,,,,,,,,,,,,,,,,,,,,,,,,,,,,
1577742731.536205,30.000000,0.000000,4302.051270,4297.436035,4092.307617,4086.153809,4236.922852,0.000000,4.000000,,,,0.000000,4.000000,4.000000,4.000000,4.000000,4.000000,15.000000,0.000000,0.071832,-0.348633,0.812500,0.461670,0.506844,-0.612802,0.596201,12.692916,-47.170570,56.805710,,,,,,,,,,,,,,,,,,,,,,,,,
1577742731.543901,31.000000,0.000000,4294.871582,4293.333496,4083.076904,4082.051270,4228.205078,0.000000,4.000000,,,,0.000000,4.000000,4.000000,4.000000,4.000000,4.000000,,,,,,,,,,,,,,,,,,,,,,,,,,,,,,,,,,,,,
1577742731.551698,32.000000,0.000000,4283.077148,4274.358887,4066.153809,4075.384521,4216.410156,0.000000,4.000000,,,,0.000000,4.000000,4.000000,4.000000,4.000000,4.000000,16.000000,0.000000,0.071832,-0.348633,0.812500,0.461670,0.500984,-0.628428,0.596201,15.132177,-47.178925,55.252399,,,,,,,,,,,,,,,,,,,,,,,,,
1577742731.559394,33.000000,0.000000,4307.692383,4302.051270,4094.358887,4104.102539,4244.615234,0.000000,4.000000,,,,0.000000,4.000000,4.000000,4.000000,4.000000,4.000000,,,,,,,,,,,,,,,,,,,,,,,,,,,,,,,,,,,,,
1577742731.567190,34.000000,0.000000,4366.666504,4354.871582,4144.102539,4165.128418,4304.102539,0.000000,4.000000,,,,0.000000,4.000000,4.000000,4.000000,4.000000,4.000000,17.000000,0.000000,0.073384,-0.348633,0.812500,0.461426,0.524422,-0.614267,0.588388,13.439513,-47.186447,55.888142,,,,,,,,,,,,,,,,,,,,,,,,,
1577742731.574887,35.000000,0.000000,4380.000000,4348.205078,4141.025879,4177.436035,4319.487305,0.000000,4.000000,,,,0.000000,4.000000,4.000000,4.000000,4.000000,4.000000,,,,,,,,,,,,,,,,,,,,,,,,,,,,,,,,,,,,,
1577742731.582683,36.000000,0.000000,4322.563965,4303.589844,4080.000000,4114.871582,4262.563965,0.000000,4.000000,,,,0.000000,4.000000,4.000000,4.000000,4.000000,4.000000,18.000000,0.000000,0.071832,-0.348633,0.812500,0.461670,0.500984,-0.628428,0.596201,15.804115,-47.193218,54.426586,,,,,,,,,,,,,,,,,,,,,,,,,
1577742731.590379,37.000000,0.000000,4278.974121,4290.769043,4043.589844,4063.076904,4209.230957,0.000000,4.000000,,,,0.000000,4.000000,4.000000,4.000000,4.000000,4.000000,,,,,,,,,,,,,,,,,,,,,,,,,,,,,,,,,,,,,
1577742731.598176,38.000000,0.000000,4317.948730,4311.794922,4085.641113,4100.000000,4241.025879,0.000000,4.000000,,,,0.000000,4.000000,4.000000,4.000000,4.000000,4.000000,19.000000,0.000000,0.073007,-0.348389,0.812500,0.461670,0.501472,-0.632334,0.588876,11.232935,-47.139492,55.144913,,,,,,,,,,,,,,,,,,,,,,,,,
1577742731.605872,39.000000,0.000000,4380.512695,4322.051270,4138.461426,4162.051270,4310.769043,0.000000,4.000000,,,,0.000000,4.000000,4.000000,4.000000,4.000000,4.000000,,,,,,,,,,,,,,,,,,,,,,,,,,,,,,,,,,,,,
1577742731.613668,40.000000,0.000000,4374.358887,4319.487305,4123.077148,4150.256348,4312.820313,0.000000,4.000000,,,,0.000000,4.000000,4.000000,4.000000,4.000000,4.000000,20.000000,0.000000,0.073007,-0.348389,0.812500,0.461670,0.511238,-0.628916,0.584482,12.980779,-47.150959,55.671772,,,,,,,,,,,,,,,,,,,,,,,,,
1577742731.621365,41.000000,0.000000,4339.487305,4333.333496,4091.281982,4116.410156,4282.563965,0.000000,4.000000,,,,0.000000,4.000000,4.000000,4.000000,4.000000,4.000000,,,,,,,,,,,,,,,,,,,,,,,,,,,,,,,,,,,,,
1577742731.629161,42.000000,0.000000,4351.794922,4338.461426,4102.563965,4133.333496,4296.410156,0.000000,4.000000,,,,0.000000,4.000000,4.000000,4.000000,4.000000,4.000000,21.000000,0.000000,0.073007,-0.348389,0.812500,0.461670,0.510750,-0.622080,0.586435,12.699562,-47.041645,56.205761,,,,,,,,,,,,,,,,,,,,,,,,,
1577742731.636857,43.000000,0.000000,4337.948730,4291.794922,4084.102539,4113.333496,4285.641113,0.000000,4.000000,,,,0.000000,4.000000,4.000000,4.000000,4.000000,4.000000,,,,,,,,,,,,,16.235512,28.484297,19.424175,4.526742,5.003680,2.083141,2.903587,3.092147,1.653975,3.097026,10.070168,11.079035,10.050269,2.973335,3.991598,12.754700,24.782598,17.926870,4.708881,5.766796,33.970673,26.107105,24.203794,4.250732,5.412322
1577742731.644654,44.000000,0.000000,4284.102539,4262.563965,4038.974365,4049.230713,4234.358887,0.000000,4.000000,,,,0.000000,4.000000,4.000000,4.000000,4.000000,4.000000,22.000000,0.000000,0.073007,-0.348389,0.812500,0.461670,0.516121,-0.624033,0.592294,8.438838,-46.943264,56.686352,,,,,,,,,,,,,,,,,,,,,,,,,
1577742731.652350,45.000000,0.000000,4307.179688,4307.692383,4073.333252,4074.358887,4257.436035,0.000000,4.000000,,,,0.000000,4.000000,4.000000,4.000000,4.000000,4.000000,,,,,,,,,,,,,,,,,,,,,,,,,,,,,,,,,,,,,
1577742731.660046,46.000000,0.000000,4360.000000,4336.410156,4132.820313,4138.461426,4307.692383,0.000000,4.000000,,,,0.000000,4.000000,4.000000,4.000000,4.000000,4.000000,23.000000,0.000000,0.070237,-0.348389,0.812744,0.461670,0.516121,-0.610849,0.599130,10.466092,-46.974350,57.059071,,,,,,,,,,,,,,,,,,,,,,,,,
1577742731.667843,47.000000,0.000000,4316.922852,4285.128418,4095.897461,4095.384521,4257.948730,0.000000,4.000000,,,,0.000000,4.000000,4.000000,4.000000,4.000000,4.000000,,,,,,,,,,,,,,,,,,,,,,,,,,,,,,,,,,,,,
1577742731.675539,48.000000,0.000000,4283.077148,4270.256348,4056.410156,4052.307617,4212.307617,0.000000,4.000000,,,,0.000000,4.000000,4.000000,4.000000,4.000000,4.000000,24.000000,0.000000,0.070237,-0.348389,0.812744,0.461670,0.506355,-0.607431,0.598154,10.436344,-47.062145,57.394516,,,,,,,,,,,,,,,,,,,,,,,,,
1577742731.683335,49.000000,0.000000,4344.102539,4323.077148,4103.077148,4118.974121,4265.128418,0.000000,4.000000,,,,0.000000,4.000000,4.000000,4.000000,4.000000,4.000000,,,,,,,,,,,,,,,,,,,,,,,,,,,,,,,,,,,,,
1577742731.691032,50.000000,0.000000,4357.948730,4312.820313,4123.589844,4145.641113,4286.666504,0.000000,4.000000,,,,0.000000,4.000000,4.000000,4.000000,4.000000,4.000000,25.000000,0.000000,0.070237,-0.348389,0.812744,0.461670,0.513680,-0.635752,0.591318,10.349755,-47.141159,55.842140,,,,,,,,,,,,,,,,,,,,,,,,,
1577742731.698828,51.000000,0.000000,4330.256348,4272.307617,4105.128418,4114.871582,4270.256348,0.000000,4.000000,,,,0.000000,4.000000,4.000000,4.000000,4.000000,4.000000,,,,,,,,,,,,,,,,,,,,,,,,,,,,,,,,,,,,,
1577742731.706524,52.000000,0.000000,4355.384766,4296.410156,4114.358887,4136.410156,4298.461426,0.000000,4.000000,,,,0.000000,4.000000,4.000000,4.000000,4.000000,4.000000,26.000000,0.000000,0.071437,-0.348145,0.812744,0.461670,0.514168,-0.634287,0.584482,10.271826,-47.032829,56.538540,,,,,,,,,,,,,,,,,,,,,,,,,
1577742731.714321,53.000000,0.000000,4359.487305,4323.589844,4113.846191,4147.692383,4307.179688,0.000000,4.000000,,,,0.000000,4.000000,4.000000,4.000000,4.000000,4.000000,,,,,,,,,,,,,,,,,,,,,,,,,,,,,,,,,,,,,
1577742731.722017,54.000000,0.000000,4319.487305,4302.051270,4097.436035,4111.794922,4275.384766,0.000000,4.000000,,,,0.000000,4.000000,4.000000,4.000000,4.000000,4.000000,27.000000,0.000000,0.071437,-0.348145,0.812744,0.461670,0.521981,-0.625986,0.582040,10.141873,-47.054958,57.105484,,,,,,,,,,,,,,,,,,,,,,,,,
1577742731.729813,55.000000,0.000000,4302.051270,4285.641113,4100.512695,4098.974121,4256.922852,0.000000,4.000000,,,,0.000000,4.000000,4.000000,4.000000,4.000000,4.000000,,,,,,,,,,,,,,,,,,,,,,,,,,,,,,,,,,,,,
1577742731.737510,56.000000,0.000000,4282.051270,4278.461426,4085.641113,4082.051270,4223.589844,0.000000,4.000000,,,,0.000000,4.000000,4.000000,4.000000,4.000000,4.000000,28.000000,0.000000,0.072997,-0.348145,0.812744,0.461426,0.505867,-0.629892,0.586923,11.998824,-47.074875,57.316654,,,,,,,,,,,,,,,,,,,,,,,,,
1577742731.745306,57.000000,0.000000,4254.871582,4271.282227,4066.153809,4057.948730,4190.256348,0.000000,4.000000,,,,0.000000,4.000000,4.000000,4.000000,4.000000,4.000000,,,,,,,,,,,,,,,,,,,,,,,,,,,,,,,,,,,,,
1577742731.753002,58.000000,0.000000,4283.589844,4295.384766,4095.384521,4092.820557,4221.025879,0.000000,4.000000,,,,0.000000,4.000000,4.000000,4.000000,4.000000,4.000000,29.000000,0.000000,0.071437,-0.348145,0.812744,0.461670,0.514168,-0.616709,0.587411,9.841895,-47.152618,57.745972,,,,,,,,,,,,,,,,,,,,,,,,,
1577742731.760799,59.000000,0.000000,4323.589844,4308.717773,4120.512695,4133.333496,4256.922852,0.000000,4.000000,,,,0.000000,4.000000,4.000000,4.000000,4.000000,4.000000,,,,,,,,,,,,,18.958202,34.172962,17.675529,4.321202,4.573970,2.383459,3.841508,2.579912,1.495477,3.275768,9.467826,12.725240,8.942211,2.835410,3.746602,13.931601,30.144543,16.226320,4.514141,5.303502,36.302937,33.981689,21.217705,4.194370,4.964817
1577742731.768495,60.000000,0.000000,4278.974121,4278.461426,4076.410156,4085.641113,4207.179688,0.000000,4.000000,,,,0.000000,4.000000,4.000000,4.000000,4.000000,4.000000,30.000000,0.000000,0.072617,-0.347900,0.812744,0.461670,0.500984,-0.614755,0.576181,9.754936,-47.222588,58.132359,,,,,,,,,,,,,,,,,,,,,,,,,
1577742731.776291,61.000000,0.000000,4224.102539,4274.871582,4032.820557,4029.230713,4150.256348,0.000000,4.000000,,,,0.000000,4.000000,4.000000,4.000000,4.000000,4.000000,,,,,,,,,,,,,,,,,,,,,,,,,,,,,,,,,,,,,
1577742731.783988,62.000000,0.000000,4260.000000,4305.641113,4068.205078,4065.128174,4189.230957,0.000000,4.000000,,,,0.000000,4.000000,4.000000,4.000000,4.000000,4.000000,31.000000,0.000000,0.072617,-0.347900,0.812744,0.461670,0.509773,-0.604501,0.587900,12.487995,-46.986481,56.506199,,,,,,,,,,,,,,,,,,,,,,,,,
1577742731.791784,63.000000,0.000000,4307.179688,4300.000000,4113.846191,4116.410156,4244.102539,0.000000,4.000000,,,,0.000000,4.000000,4.000000,4.000000,4.000000,4.000000,,,,,,,,,,,,,,,,,,,,,,,,,,,,,,,,,,,,,
1577742731.799480,64.000000,0.000000,4279.487305,4276.922852,4096.410156,4096.410156,4224.102539,450.000000,4.000000,,,,0.000000,4.000000,4.000000,4.000000,4.000000,4.000000,32.000000,0.000000,0.071047,-0.347900,0.812744,0.461914,0.500496,-0.632822,0.591806,12.016796,-47.073059,57.016560,,,,,,,,,,,,,,,,,,,,,,,,,
1577742731.807177,65.000000,0.000000,4249.230957,4297.948730,4073.846191,4072.307617,4203.077148,450.000000,4.000000,,,,0.000000,4.000000,4.000000,4.000000,4.000000,4.000000,,,,,,,,,,,,,,,,,,,,,,,,,,,,,,,,,,,,,
1577742731.814973,66.000000,0.000000,4278.461426,4321.025879,4100.512695,4105.641113,4241.538574,16203.000000,4.000000,,,,0.000000,4.000000,4.000000,4.000000,4.000000,4.000000,33.000000,0.000000,0.071047,-0.347900,0.812744,0.461914,0.506844,-0.632334,0.591318,11.652532,-46.971539,57.296440,,,,,,,,,,,,,,,,,,,,,,,,,
1577742731.822670,67.000000,0.000000,4293.333496,4293.846191,4114.358887,4124.615234,4255.384766,450.000000,4.000000,,,,0.000000,4.000000,4.000000,4.000000,4.000000,4.000000,,,,,,,,,,,,,,,,,,,,,,,,,,,,,,,,,,,,,
1577742731.830466,68.000000,0.000000,4258.974121,4261.538574,4080.512939,4082.564209,4211.794922,16226.000000,4.000000,,,,0.000000,4.000000,4.000000,4.000000,4.000000,4.000000,34.000000,0.000000,0.071047,-0.347900,0.812744,0.461914,0.520027,-0.622080,0.583017,7.556325,-46.999798,57.667965,,,,,,,,,,,,,,,,,,,,,,,,,
1577742731.838162,69.000000,0.000000,4232.820313,4273.846191,4055.897461,4040.512939,4182.051270,450.000000,4.000000,,,,0.000000,4.000000,4.000000,4.000000,4.000000,4.000000,,,,,,,,,,,,,,,,,,,,,,,,,,,,,,,,,,,,,
1577742731.845959,70.000000,0.000000,4235.384766,4296.922852,4071.794922,4048.205078,4187.692383,16136.000000,4.000000,,,,0.000000,4.000000,4.000000,4.000000,4.000000,4.000000,35.000000,0.000000,0.073787,-0.347900,0.812500,0.461914,0.514656,-0.621592,0.585458,5.903462,-47.025230,57.942520,,,,,,,,,,,,,,,,,,,,,,,,,
1577742731.853655,71.000000,0.000000,4255.897461,4296.922852,4105.128418,4086.666748,4209.743652,450.000000,4.000000,,,,0.000000,4.000000,4.000000,4.000000,4.000000,4.000000,,,,,,,,,,,,,,,,,,,,,,,,,,,,,,,,,,,,,
1577742731.861451,72.000000,0.000000,4274.871582,4298.974121,4114.358887,4106.153809,4224.615234,450.000000,4.000000,,,,0.000000,4.000000,4.000000,4.000000,4.000000,4.000000,36.000000,0.000000,0.073787,-0.347900,0.812500,0.461914,0.506844,-0.621103,0.596201,9.021668,-47.167755,56.454975,,,,,,,,,,,,,,,,,,,,,,,,,
1577742731.869148,73.000000,0.000000,4253.333496,4302.563965,4077.948730,4072.820557,4194.358887,16197.000000,4.000000,,,,0.000000,4.000000,4.000000,4.000000,4.000000,4.000000,,,,,,,,,,,,,,,,,,,,,,,,,,,,,,,,,,,,,
1577742731.876944,74.000000,0.000000,4220.512695,4283.077148,4053.846191,4042.051270,4159.487305,450.000000,4.000000,,,,0.000000,4.000000,4.000000,4.000000,4.000000,4.000000,37.000000,0.000000,0.072626,-0.348145,0.812500,0.461914,0.511238,-0.631357,0.604501,9.076548,-47.296024,57.030273,,,,,,,,,,,,,,,,,,,,,,,,,
1577742731.884640,75.000000,0.000000,4232.307617,4272.820313,4075.384521,4063.076904,4173.846191,16199.000000,4.000000,,,,0.000000,4.000000,4.000000,4.000000,4.000000,4.000000,,,,,,,,,,,,,20.645201,38.195858,14.511497,4.320696,4.306364,2.574482,4.803530,2.050906,1.583081,3.471351,8.889074,13.894420,7.360121,2.888040,3.623908,13.837523,34.165874,13.369560,4.451897,4.958595,36.626457,40.972935,16.754139,4.359064,4.603773
1577742731.892437,76.000000,0.000000,4246.666504,4293.333496,4087.179443,4077.948730,4187.692383,450.000000,4.000000,,,,0.000000,4.000000,4.000000,4.000000,4.000000,4.000000,38.000000,0.000000,0.072626,-0.348145,0.812500,0.461914,0.503914,-0.627451,0.578622,11.817630,-47.052574,57.488232,,,,,,,,,,,,,,,,,,,,,,,,,
1577742731.900133,77.000000,0.000000,4239.487305,4302.563965,4081.538574,4067.179443,4180.000000,450.000000,4.000000,,,,0.000000,4.000000,4.000000,4.000000,4.000000,4.000000,,,,,,,,,,,,,,,,,,,,,,,,,,,,,,,,,,,,,
1577742731.907929,78.000000,0.000000,4247.692383,4283.077148,4095.384521,4075.897461,4189.230957,450.000000,4.000000,,,,0.000000,4.000000,4.000000,4.000000,4.000000,4.000000,39.000000,0.000000,0.072626,-0.348145,0.812500,0.461914,0.513680,-0.630381,0.579110,11.533097,-47.072731,57.840576,,,,,,,,,,,,,,,,,,,,,,,,,
1577742731.915626,79.000000,0.000000,4262.051270,4282.051270,4106.153809,4094.358887,4203.589844,16199.000000,4.000000,,,,0.000000,4.000000,4.000000,4.000000,4.000000,4.000000,,,,,,,,,,,,,,,,,,,,,,,,,,,,,,,,,,,,,
1577742731.923422,80.000000,0.000000,4245.641113,4299.487305,4085.641113,4083.076904,4189.230957,450.000000,4.000000,,,,0.000000,4.000000,4.000000,4.000000,4.000000,4.000000,40.000000,0.000000,0.072626,-0.348145,0.812500,0.461914,0.508309,-0.620127,0.581064,7.508650,-47.031055,58.038055,,,,,,,,,,,,,,,,,,,,,,,,,
1577742731.931118,81.000000,0.000000,4231.282227,4305.641113,4074.358887,4070.256348,4178.461426,450.000000,4.000000,,,,0.000000,4.000000,4.000000,4.000000,4.000000,4.000000,,,,,,,,,,,,,,,,,,,,,,,,,,,,,,,,,,,,,
1577742731.938815,82.000000,0.000000,4252.307617,4306.666504,4094.871826,4089.230713,4205.641113,450.000000,4.000000,,,,0.000000,4.000000,4.000000,4.000000,4.000000,4.000000,41.000000,0.000000,0.072626,-0.348145,0.812500,0.461914,0.505379,-0.613779,0.590341,9.628922,-46.993549,58.335415,,,,,,,,,,,,,,,,,,,,,,,,,
1577742731.946611,83.000000,0.000000,4270.256348,4303.077148,4101.538574,4107.692383,4227.692383,16199.000000,4.000000,,,,0.000000,4.000000,4.000000,4.000000,4.000000,4.000000,,,,,,,,,,,,,,,,,,,,,,,,,,,,,,,,,,,,,
1577742731.954407,84.000000,0.000000,4252.307617,4290.769043,4076.923096,4087.179443,4203.589844,450.000000,4.000000,,,,0.000000,4.000000,4.000000,4.000000,4.000000,4.000000,42.000000,0.000000,0.071446,-0.348389,0.812500,0.461914,0.505867,-0.621103,0.590341,9.503446,-47.019608,56.808578,,,,,,,,,,,,,,,,,,,,,,,,,
1577742731.962104,85.000000,0.000000,4246.666504,4302.563965,4083.589844,4078.974365,4191.282227,450.000000,4.000000,,,,0.000000,4.000000,4.000000,4.000000,4.000000,4.000000,,,,,,,,,,,,,,,,,,,,,,,,,,,,,,,,,,,,,
1577742731.969800,86.000000,0.000000,4281.538574,4332.307617,4125.641113,4118.461426,4227.692383,450.000000,4.000000,,,,0.000000,4.000000,4.000000,4.000000,4.000000,4.000000,43.000000,0.000000,0.072626,-0.348145,0.812500,0.461914,0.507820,-0.609384,0.594247,9.510147,-47.222507,57.109261,,,,,,,,,,,,,,,,,,,,,,,,,
1577742731.977596,87.000000,0.000000,4279.487305,4317.948730,4115.897461,4118.974121,4226.666504,16199.000000,4.000000,,,,0.000000,4.000000,4.000000,4.000000,4.000000,4.000000,,,,,,,,,,,,,,,,,,,,,,,,,,,,,,,,,,,,,
1577742731.985293,88.000000,0.000000,4235.897461,4286.666504,4069.743652,4069.230713,4175.384766,450.000000,4.000000,,,,0.000000,4.000000,4.000000,4.000000,4.000000,4.000000,44.000000,0.000000,0.071056,-0.348145,0.812500,0.462158,0.509773,-0.613291,0.582528,9.396547,-47.106041,55.705040,,,,,,,,,,,,,,,,,,,,,,,,,
1577742731.993089,89.000000,0.000000,4221.025879,4297.436035,4065.641113,4058.461426,4156.922852,450.000000,4.000000,,,,0.000000,4.000000,4.000000,4.000000,4.000000,4.000000,,,,,,,,,,,,,,,,,,,,,,,,,,,,,,,,,,,,,
1577742732.000785,90.000000,0.000000,4250.256348,4320.512695,4102.563965,4104.102539,4189.743652,450.000000,4.000000,,,,0.000000,4.000000,4.000000,4.000000,4.000000,4.000000,45.000000,0.000000,0.071056,-0.348145,0.812500,0.462158,0.501472,-0.614267,0.589364,12.225261,-47.120850,56.355335,,,,,,,,,,,,,,,,,,,,,,,,,
1577742732.008582,91.000000,0.000000,4261.025879,4296.410156,4110.256348,4119.487305,4204.615234,16199.000000,4.000000,,,,0.000000,4.000000,4.000000,4.000000,4.000000,4.000000,,,,,,,,,,,,,20.459595,39.747391,10.761938,4.752023,4.251878,2.598022,5.638591,1.606697,1.941683,3.669719,8.361073,14.371268,5.653864,3.262164,3.661762,12.536356,36.155746,10.058270,4.783261,4.823107,34.336437,45.497635,11.984781,4.964828,4.419499
1577742732.016378,92.000000,0.000000,4213.333496,4267.179688,4067.692383,4060.000000,4156.410156,450.000000,4.000000,,,,0.000000,4.000000,4.000000,4.000000,4.000000,4.000000,46.000000,0.000000,0.072626,-0.348145,0.812500,0.461914,0.507820,-0.609384,0.594247,11.899965,-47.014545,54.906876,,,,,,,,,,,,,,,,,,,,,,,,,
1577742732.024074,93.000000,0.000000,4208.717773,4298.461426,4071.794922,4049.230713,4148.205078,450.000000,4.000000,,,,0.000000,4.000000,4.000000,4.000000,4.000000,4.000000,,,,,,,,,,,,,,,,,,,,,,,,,,,,,,,,,,,,,
1577742732.031871,94.000000,0.000000,4296.410156,4342.051270,4154.358887,4152.820313,4238.974121,450.000000,4.000000,,,,0.000000,4.000000,4.000000,4.000000,4.000000,4.000000,47.000000,0.000000,0.071056,-0.348145,0.812500,0.462158,0.501472,-0.614267,0.589364,14.478336,-47.038506,55.636986,,,,,,,,,,,,,,,,,,,,,,,,,
1577742732.039567,95.000000,0.000000,4326.153809,4326.153809,4180.000000,4201.025879,4275.897461,16199.000000,4.000000,,,,0.000000,4.000000,4.000000,4.000000,4.000000,4.000000,,,,,,,,,,,,,,,,,,,,,,,,,,,,,,,,,,,,,
1577742732.047263,96.000000,0.000000,4244.615234,4286.666504,4105.641113,4114.358887,4192.307617,450.000000,4.000000,,,,0.000000,4.000000,4.000000,4.000000,4.000000,4.000000,48.000000,0.000000,0.071056,-0.348145,0.812500,0.462158,0.504891,-0.635752,0.596201,13.927733,-46.940437,54.260365,,,,,,,,,,,,,,,,,,,,,,,,,
1577742732.055060,97.000000,0.000000,4220.512695,4301.538574,4078.461426,4070.256348,4157.948730,450.000000,4.000000,,,,0.000000,4.000000,4.000000,4.000000,4.000000,4.000000,,,,,,,,,,,,,,,,,,,,,,,,,,,,,,,,,,,,,
1577742732.062756,98.000000,0.000000,4267.692383,4326.666504,4113.333496,4111.282227,4203.077148,450.000000,4.000000,,,,0.000000,4.000000,4.000000,4.000000,4.000000,4.000000,49.000000,0.000000,0.071056,-0.348145,0.812500,0.462158,0.509773,-0.634287,0.588388,11.637730,-46.971809,54.875679,,,,,,,,,,,,,,,,,,,,,,,,,
1577742732.070552,99.000000,0.000000,4233.333496,4288.717773,4089.743652,4087.179443,4174.871582,16199.000000,4.000000,,,,0.000000,4.000000,4.000000,4.000000,4.000000,4.000000,,,,,,,,,,,,,,,,,,,,,,,,,,,,,,,,,,,,,
1577742732.078249,100.000000,0.000000,4185.641113,4270.256348,4062.564209,4044.102539,4130.769043,450.000000,4.000000,,,,0.000000,4.000000,4.000000,4.000000,4.000000,4.000000,50.000000,0.000000,0.071056,-0.348145,0.812500,0.462158,0.497078,-0.621103,0.585458,9.516911,-47.059856,55.489277,,,,,,,,,,,,,,,,,,,,,,,,,
1577742732.086045,101.000000,0.000000,4232.307617,4310.769043,4113.333496,4096.410156,4187.692383,450.000000,4.000000,,,,0.000000,4.000000,4.000000,4.000000,4.000000,4.000000,,,,,,,,,,,,,,,,,,,,,,,,,,,,,,,,,,,,,
1577742732.093841,102.000000,0.000000,4237.436035,4301.538574,4134.871582,4123.077148,4207.692383,450.000000,4.000000,,,,0.000000,4.000000,4.000000,4.000000,4.000000,4.000000,51.000000,0.000000,0.071056,-0.348145,0.812500,0.462158,0.512215,-0.625986,0.600107,9.462450,-47.019470,55.981701,,,,,,,,,,,,,,,,,,,,,,,,,
1577742732.101538,103.000000,0.000000,4181.025879,4275.384766,4099.487305,4075.897461,4149.743652,16199.000000,4.000000,,,,0.000000,4.000000,4.000000,4.000000,4.000000,4.000000,,,,,,,,,,,,,,,,,,,,,,,,,,,,,,,,,,,,,
1577742732.109234,104.000000,0.000000,4210.769043,4317.948730,4106.153809,4085.128174,4166.153809,450.000000,4.000000,,,,0.000000,4.000000,4.000000,4.000000,4.000000,4.000000,52.000000,0.000000,0.071056,-0.348145,0.812500,0.462158,0.502449,-0.634287,0.614755,9.353621,-46.923306,56.484699,,,,,,,,,,,,,,,,,,,,,,,,,
1577742732.117030,105.000000,0.000000,4260.512695,4334.871582,4127.179688,4123.077148,4214.871582,450.000000,4.000000,,,,0.000000,4.000000,4.000000,4.000000,4.000000,4.000000,,,,,,,,,,,,,,,,,,,,,,,,,,,,,,,,,,,,,
1577742732.124727,106.000000,0.000000,4244.615234,4302.563965,4116.410156,4116.922852,4199.487305,450.000000,4.000000,,,,0.000000,4.000000,4.000000,4.000000,4.000000,4.000000,53.000000,0.000000,0.071056,-0.348145,0.812500,0.462158,0.507332,-0.627939,0.592782,9.315489,-47.016205,55.083122,,,,,,,,,,,,,,,,,,,,,,,,,
1577742732.132523,107.000000,0.000000,4260.000000,4316.410156,4126.666504,4127.692383,4200.512695,16199.000000,4.000000,,,,0.000000,4.000000,4.000000,4.000000,4.000000,4.000000,,,,,,,,,,,,,18.294943,38.609608,7.355321,5.629267,4.390057,2.431423,6.167918,1.274705,2.515026,3.846462,7.642848,14.058964,4.156117,3.970341,3.845282,10.278058,35.941086,7.080372,5.600821,4.922550,29.724760,46.587299,8.042692,6.038699,4.441372
1577742732.140219,108.000000,0.000000,4286.666504,4337.948730,4138.974121,4141.025879,4221.538574,450.000000,4.000000,,,,0.000000,4.000000,4.000000,4.000000,4.000000,4.000000,54.000000,0.000000,0.071056,-0.348145,0.812500,0.462158,0.514168,-0.620615,0.597665,5.452987,-47.039997,55.735790,,,,,,,,,,,,,,,,,,,,,,,,,
1577742732.148016,109.000000,0.000000,4244.102539,4309.743652,4110.256348,4103.077148,4189.743652,450.000000,4.000000,,,,0.000000,4.000000,4.000000,4.000000,4.000000,4.000000,,,,,,,,,,,,,,,,,,,,,,,,,,,,,,,,,,,,,
1577742732.155712,110.000000,0.000000,4211.282227,4296.410156,4090.256348,4078.974365,4156.410156,450.000000,4.000000,,,,0.000000,4.000000,4.000000,4.000000,4.000000,4.000000,55.000000,0.000000,0.071056,-0.348145,0.812500,0.462158,0.506355,-0.616220,0.593759,2.096366,-47.001598,56.383011,,,,,,,,,,,,,,,,,,,,,,,,,
1577742732.163508,111.000000,0.000000,4230.769043,4307.179688,4102.563965,4091.281982,4162.051270,16199.000000,4.000000,,,,0.000000,4.000000,4.000000,4.000000,4.000000,4.000000,,,,,,,,,,,,,,,,,,,,,,,,,,,,,,,,,,,,,
1577742732.171205,112.000000,0.000000,4240.512695,4314.358887,4121.025879,4099.487305,4172.307617,450.000000,4.000000,,,,0.000000,4.000000,4.000000,4.000000,4.000000,4.000000,56.000000,0.000000,0.071056,-0.348145,0.812500,0.462158,0.513191,-0.633799,0.599130,2.724145,-46.967037,57.025322,,,,,,,,,,,,,,,,,,,,,,,,,
1577742732.179001,113.000000,0.000000,4223.077148,4309.230957,4120.512695,4098.974121,4163.077148,450.000000,4.000000,,,,0.000000,4.000000,4.000000,4.000000,4.000000,4.000000,,,,,,,,,,,,,,,,,,,,,,,,,,,,,,,,,,,,,
1577742732.186698,114.000000,0.000000,4197.948730,4282.051270,4097.948730,4081.025635,4135.384766,450.000000,4.000000,,,,0.000000,4.000000,4.000000,4.000000,4.000000,4.000000,57.000000,0.000000,0.071056,-0.348145,0.812500,0.462158,0.515633,-0.616709,0.582040,3.408776,-46.995747,57.423958,,,,,,,,,,,,,,,,,,,,,,,,,
1577742732.194494,115.000000,0.000000,4185.128418,4278.974121,4081.538574,4056.923096,4115.897461,16199.000000,4.000000,,,,0.000000,4.000000,4.000000,4.000000,4.000000,4.000000,,,,,,,,,,,,,,,,,,,,,,,,,,,,,,,,,,,,,
1577742732.202190,116.000000,0.000000,4166.153809,4295.384766,4074.358887,4041.538574,4100.000000,450.000000,4.000000,,,,0.000000,4.000000,4.000000,4.000000,4.000000,4.000000,58.000000,0.000000,0.071056,-0.348145,0.812500,0.462158,0.510262,-0.618173,0.573739,4.144575,-47.021587,57.782730,,,,,,,,,,,,,,,,,,,,,,,,,
1577742732.209986,117.000000,0.000000,4140.512695,4280.512695,4064.102539,4033.846191,4084.102539,450.000000,4.000000,,,,0.000000,4.000000,4.000000,4.000000,4.000000,4.000000,,,,,,,,,,,,,,,,,,,,,,,,,,,,,,,,,,,,,
1577742732.217683,118.000000,0.000000,4158.461426,4283.077148,4085.641113,4062.564209,4105.128418,450.000000,4.000000,,,,0.000000,4.000000,4.000000,4.000000,4.000000,4.000000,59.000000,0.000000,0.071056,-0.348145,0.812500,0.462158,0.505379,-0.623545,0.598642,4.687163,-46.865395,57.926178,,,,,,,,,,,,,,,,,,,,,,,,,
1577742732.225379,119.000000,0.000000,4215.384766,4324.615234,4135.384766,4120.512695,4158.461426,16199.000000,4.000000,,,,0.000000,4.000000,4.000000,4.000000,4.000000,4.000000,,,,,,,,,,,,,,,,,,,,,,,,,,,,,,,,,,,,,
1577742732.233176,120.000000,0.000000,4251.282227,4340.000000,4161.025879,4154.871582,4192.307617,450.000000,4.000000,,,,0.000000,4.000000,4.000000,4.000000,4.000000,4.000000,60.000000,0.000000,0.072626,-0.348145,0.812500,0.461914,0.513191,-0.623545,0.580575,5.115677,-46.784637,58.294544,,,,,,,,,,,,,,,,,,,,,,,,,
1577742732.240872,121.000000,0.000000,4240.000000,4322.563965,4154.358887,4146.153809,4182.563965,450.000000,4.000000,,,,0.000000,4.000000,4.000000,4.000000,4.000000,4.000000,,,,,,,,,,,,,,,,,,,,,,,,,,,,,,,,,,,,,
1577742732.248668,122.000000,0.000000,4208.717773,4313.846191,4132.820313,4121.538574,4154.871582,450.000000,4.000000,,,,0.000000,4.000000,4.000000,4.000000,4.000000,4.000000,61.000000,0.000000,0.072626,-0.348145,0.812500,0.461914,0.526864,-0.611337,0.588876,1.732972,-46.891403,58.326996,,,,,,,,,,,,,,,,,,,,,,,,,
1577742732.256365,123.000000,0.000000,4202.051270,4315.384766,4121.025879,4112.820313,4150.769043,16199.000000,4.000000,,,,0.000000,4.000000,4.000000,4.000000,4.000000,4.000000,,,,,,,,,,,,,14.593949,35.271236,4.923368,6.717817,4.676773,2.143513,6.261921,1.021034,3.167470,3.979878,6.625360,13.004611,3.064102,4.883146,4.141697,7.754353,33.812061,4.932294,6.753603,5.250520,23.678738,44.299046,5.568110,7.358797,4.669029
1577742732.264161,124.000000,0.000000,4204.615234,4315.384766,4119.487305,4107.179688,4156.410156,450.000000,4.000000,,,,0.000000,4.000000,4.000000,4.000000,4.000000,4.000000,62.000000,0.000000,0.071446,-0.348389,0.812500,0.461914,0.514656,-0.614755,0.593271,4.430812,-46.808048,58.655277,,,,,,,,,,,,,,,,,,,,,,,,,
1577742732.271857,125.000000,0.000000,4182.051270,4297.436035,4106.666504,4085.128174,4139.487305,450.000000,4.000000,,,,0.000000,4.000000,4.000000,4.000000,4.000000,4.000000,,,,,,,,,,,,,,,,,,,,,,,,,,,,,,,,,,,,,
1577742732.279654,126.000000,0.000000,4144.615234,4270.256348,4075.897461,4053.333252,4103.077148,450.000000,4.000000,,,,0.000000,4.000000,4.000000,4.000000,4.000000,4.000000,63.000000,0.000000,0.071446,-0.348389,0.812500,0.461914,0.510262,-0.619150,0.601083,4.884962,-46.733025,58.950733,,,,,,,,,,,,,,,,,,,,,,,,,
1577742732.287350,127.000000,0.000000,4124.102539,4272.820313,4053.846191,4026.153809,4081.538574,235.000000,4.000000,,,,0.000000,4.000000,4.000000,4.000000,4.000000,4.000000,,,,,,,,,,,,,,,,,,,,,,,,,,,,,,,,,,,,,
1577742732.295146,0.000000,0.000000,4162.563965,4301.538574,4084.615479,4054.358887,4122.563965,450.000000,4.000000,,,,0.000000,4.000000,4.000000,4.000000,4.000000,4.000000,0.000000,0.000000,0.071437,-0.348145,0.812744,0.461670,0.507332,-0.613291,0.593271,5.413327,-46.904766,59.156826,,,,,,,,,,,,,,,,,,,,,,,,,
1577742732.302843,1.000000,0.000000,4232.307617,4324.615234,4142.563965,4130.769043,4194.358887,450.000000,4.000000,,,,0.000000,4.000000,4.000000,4.000000,4.000000,4.000000,,,,,,,,,,,,,,,,,,,,,,,,,,,,,,,,,,,,,
1577742732.310639,2.000000,0.000000,4269.230957,4348.205078,4177.436035,4185.128418,4232.307617,16209.000000,4.000000,,,,0.000000,4.000000,4.000000,4.000000,4.000000,4.000000,1.000000,0.000000,0.071437,-0.348145,0.812744,0.461670,0.512215,-0.634287,0.589364,5.829040,-46.640629,59.282497,,,,,,,,,,,,,,,,,,,,,,,,,
1577742732.318335,3.000000,0.000000,4266.666504,4346.153809,4164.102539,4169.743652,4226.666504,450.000000,4.000000,,,,0.000000,4.000000,4.000000,4.000000,4.000000,4.000000,,,,,,,,,,,,,,,,,,,,,,,,,,,,,,,,,,,,,
1577742732.326132,4.000000,0.000000,4227.692383,4303.077148,4132.307617,4119.487305,4194.358887,16228.000000,4.000000,,,,0.000000,4.000000,4.000000,4.000000,4.000000,4.000000,2.000000,0.000000,0.071437,-0.348145,0.812744,0.461670,0.504891,-0.611337,0.596201,6.023736,-46.582348,59.575043,,,,,,,,,,,,,,,,,,,,,,,,,
1577742732.333828,5.000000,0.000000,4191.794922,4292.820313,4133.846191,4110.256348,4173.333496,450.000000,4.000000,,,,0.000000,4.000000,4.000000,4.000000,4.000000,4.000000,,,,,,,,,,,,,,,,,,,,,,,,,,,,,,,,,,,,,
1577742732.341624,6.000000,0.000000,4209.743652,4315.897461,4155.384766,4138.974121,4187.179688,16136.000000,4.000000,,,,0.000000,4.000000,4.000000,4.000000,4.000000,4.000000,3.000000,0.000000,0.071437,-0.348145,0.812744,0.461670,0.506355,-0.622080,0.594247,2.490409,-46.589710,59.599075,,,,,,,,,,,,,,,,,,,,,,,,,
1577742732.349321,7.000000,0.000000,4222.051270,4296.410156,4136.410156,4119.487305,4179.487305,450.000000,4.000000,,,,0.000000,4.000000,4.000000,4.000000,4.000000,4.000000,,,,,,,,,,,,,,,,,,,,,,,,,,,,,,,,,,,,,
1577742732.357117,8.000000,0.000000,4165.128418,4274.871582,4082.051270,4051.794922,4113.333496,450.000000,4.000000,,,,0.000000,4.000000,4.000000,4.000000,4.000000,4.000000,4.000000,0.000000,0.072617,-0.347900,0.812744,0.461670,0.520027,-0.613291,0.590341,5.112506,-46.536522,59.620705,,,,,,,,,,,,,,,,,,,,,,,,,
1577742732.364813,9.000000,0.000000,4150.256348,4306.153809,4073.333252,4041.025635,4090.769287,16204.000000,4.000000,,,,0.000000,4.000000,4.000000,4.000000,4.000000,4.000000,,,,,,,,,,,,,,,,,,,,,,,,,,,,,,,,,,,,,
1577742732.372510,10.000000,0.000000,4210.769043,4335.897461,4114.871582,4086.153809,4140.000000,450.000000,4.000000,,,,0.000000,4.000000,4.000000,4.000000,4.000000,4.000000,5.000000,0.000000,0.072617,-0.347900,0.812744,0.461670,0.523934,-0.608896,0.591806,1.670302,-46.608284,59.879433,,,,,,,,,,,,,,,,,,,,,,,,,
1577742732.380306,11.000000,0.000000,4232.820313,4324.615234,4134.871582,4105.128418,4164.615234,16209.000000,4.000000,,,,0.000000,4.000000,4.000000,4.000000,4.000000,4.000000,,,,,,,,,,,,,10.387089,30.703861,3.626586,7.640556,5.098520,1.847810,5.913757,0.827532,3.706175,4.065859,5.264937,11.446031,2.457472,5.760536,4.529366,5.503138,30.396185,3.743249,7.917904,5.802477,17.411251,39.635120,4.547888,8.533759,5.106402
1577742732.388002,12.000000,0.000000,4210.769043,4309.743652,4117.948730,4090.769287,4149.230957,450.000000,4.000000,,,,0.000000,4.000000,4.000000,4.000000,4.000000,4.000000,6.000000,0.000000,0.072617,-0.347900,0.812744,0.461670,0.514168,-0.631357,0.600595,2.400503,-46.672871,59.992657,,,,,,,,,,,,,,,,,,,,,,,,,
1577742732.395799,13.000000,0.000000,4192.820313,4302.563965,4089.230713,4064.102539,4127.692383,450.000000,4.000000,,,,0.000000,4.000000,4.000000,4.000000,4.000000,4.000000,,,,,,,,,,,,,,,,,,,,,,,,,,,,,,,,,,,,,
1577742732.403495,14.000000,0.000000,4160.000000,4294.358887,4058.974365,4024.615479,4089.743652,450.000000,4.000000,,,,0.000000,4.000000,4.000000,4.000000,4.000000,4.000000,7.000000,0.000000,0.072617,-0.347900,0.812744,0.461670,0.500496,-0.625986,0.597177,5.869005,-46.671181,59.915112,,,,,,,,,,,,,,,,,,,,,,,,,
1577742732.411291,15.000000,0.000000,4149.230957,4295.897461,4063.589844,4020.512939,4076.923096,16209.000000,4.000000,,,,0.000000,4.000000,4.000000,4.000000,4.000000,4.000000,,,,,,,,,,,,,,,,,,,,,,,,,,,,,,,,,,,,,
1577742732.418988,16.000000,0.000000,4188.717773,4306.153809,4111.794922,4067.692383,4118.461426,0.000000,4.000000,,,,0.000000,4.000000,4.000000,4.000000,4.000000,4.000000,8.000000,0.000000,0.071036,-0.347656,0.812988,0.461670,0.505867,-0.630381,0.590829,2.351152,-46.669662,58.050861,,,,,,,,,,,,,,,,,,,,,,,,,
1577742732.426784,17.000000,0.000000,4205.128418,4310.769043,4136.922852,4089.743652,4147.179688,0.000000,4.000000,,,,0.000000,4.000000,4.000000,4.000000,4.000000,4.000000,,,,,,,,,,,,,,,,,,,,,,,,,,,,,,,,,,,,,
1577742732.434480,18.000000,0.000000,4200.000000,4309.743652,4130.769043,4087.179443,4149.230957,0.000000,4.000000,,,,0.000000,4.000000,4.000000,4.000000,4.000000,4.000000,9.000000,0.000000,0.071036,-0.347656,0.812988,0.461670,0.489754,-0.635264,0.597665,5.884405,-46.608479,58.287128,,,,,,,,,,,,,,,,,,,,,,,,,
1577742732.442277,19.000000,0.000000,4205.641113,4299.487305,4130.256348,4094.358887,4151.794922,0.000000,4.000000,,,,0.000000,4.000000,4.000000,4.000000,4.000000,4.000000,,,,,,,,,,,,,,,,,,,,,,,,,,,,,,,,,,,,,
1577742732.450073,20.000000,0.000000,4202.051270,4298.974121,4133.333496,4091.281982,4148.205078,0.000000,4.000000,,,,0.000000,4.000000,4.000000,4.000000,4.000000,4.000000,10.000000,0.000000,0.072617,-0.347900,0.812744,0.461670,0.500496,-0.625986,0.597177,9.004517,-46.613232,58.380135,,,,,,,,,,,,,,,,,,,,,,,,,
1577742732.457769,21.000000,0.000000,4201.538574,4314.358887,4139.487305,4090.256348,4149.743652,0.000000,4.000000,,,,0.000000,4.000000,4.000000,4.000000,4.000000,4.000000,,,,,,,,,,,,,,,,,,,,,,,,,,,,,,,,,,,,,
1577742732.465466,22.000000,0.000000,4197.948730,4317.948730,4137.948730,4091.794922,4149.743652,0.000000,4.000000,,,,0.000000,4.000000,4.000000,4.000000,4.000000,4.000000,11.000000,0.000000,0.071036,-0.347656,0.812988,0.461670,0.489754,-0.635264,0.597665,11.872433,-46.557690,58.583473,,,,,,,,,,,,,,,,,,,,,,,,,
1577742732.473262,23.000000,0.000000,4164.102539,4295.897461,4117.436035,4062.051270,4119.487305,0.000000,4.000000,,,,0.000000,4.000000,4.000000,4.000000,4.000000,4.000000,,,,,,,,,,,,,,,,,,,,,,,,,,,,,,,,,,,,,
1577742732.480959,24.000000,0.000000,4154.871582,4299.487305,4114.871582,4049.743652,4107.179688,0.000000,4.000000,,,,0.000000,4.000000,4.000000,4.000000,4.000000,4.000000,12.000000,0.000000,0.072605,-0.347656,0.812988,0.461426,0.515633,-0.623056,0.589364,13.556328,-46.746967,58.886108,,,,,,,,,,,,,,,,,,,,,,,,,
1577742732.488755,25.000000,0.000000,4191.794922,4329.743652,4140.512695,4089.230713,4140.512695,0.000000,4.000000,,,,0.000000,4.000000,4.000000,4.000000,4.000000,4.000000,,,,,,,,,,,,,,,,,,,,,,,,,,,,,,,,,,,,,
1577742732.496551,26.000000,0.000000,4195.897461,4325.128418,4138.461426,4096.922852,4144.615234,0.000000,4.000000,,,,0.000000,4.000000,4.000000,4.000000,4.000000,4.000000,13.000000,0.000000,0.072605,-0.347656,0.812988,0.461426,0.515633,-0.597177,0.596689,15.131647,-46.737869,59.098667,,,,,,,,,,,,,,,,,,,,,,,,,
1577742732.504247,27.000000,0.000000,4184.102539,4308.717773,4120.000000,4073.333252,4132.820313,0.000000,4.000000,,,,0.000000,4.000000,4.000000,4.000000,4.000000,4.000000,,,,,,,,,,,,,6.700498,25.988247,3.211949,8.067422,5.627823,1.584312,5.272517,0.743120,3.948086,4.104661,3.877078,9.765999,2.393263,6.340804,4.960267,3.822216,26.490520,3.418826,8.730804,6.516632,12.126992,33.911789,4.482199,9.173434,5.708459
1577742732.511944,28.000000,0.000000,4207.179688,4312.820313,4124.102539,4082.564209,4154.871582,0.000000,4.000000,,,,0.000000,4.000000,4.000000,4.000000,4.000000,4.000000,14.000000,0.000000,0.072605,-0.347656,0.812988,0.461426,0.506844,-0.610849,0.594736,14.515714,-46.729679,59.469414,,,,,,,,,,,,,,,,,,,,,,,,,
1577742732.519740,29.000000,0.000000,4206.666504,4311.794922,4118.974121,4085.128174,4155.384766,0.000000,4.000000,,,,0.000000,4.000000,4.000000,4.000000,4.000000,4.000000,,,,,,,,,,,,,,,,,,,,,,,,,,,,,,,,,,,,,
1577742732.527437,30.000000,0.000000,4181.025879,4311.794922,4105.641113,4069.743652,4137.436035,0.000000,4.000000,,,,0.000000,4.000000,4.000000,4.000000,4.000000,4.000000,15.000000,0.000000,0.069830,-0.347900,0.812988,0.461670,0.523445,-0.610849,0.581064,13.961372,-46.662495,59.623638,,,,,,,,,,,,,,,,,,,,,,,,,
1577742732.535133,31.000000,0.000000,4197.436035,4323.077148,4113.846191,4089.743652,4160.000000,0.000000,4.000000,,,,0.000000,4.000000,4.000000,4.000000,4.000000,4.000000,,,,,,,,,,,,,,,,,,,,,,,,,,,,,,,,,,,,,
1577742732.542929,32.000000,0.000000,4206.153809,4301.538574,4103.589844,4097.436035,4165.641113,0.000000,4.000000,,,,0.000000,4.000000,4.000000,4.000000,4.000000,4.000000,16.000000,0.000000,0.071036,-0.347656,0.812988,0.461670,0.508797,-0.613779,0.583017,15.496188,-46.661842,59.762444,,,,,,,,,,,,,,,,,,,,,,,,,
1577742732.550626,33.000000,0.000000,4178.461426,4276.410156,4077.948730,4070.256348,4131.794922,0.000000,4.000000,,,,0.000000,4.000000,4.000000,4.000000,4.000000,4.000000,,,,,,,,,,,,,,,,,,,,,,,,,,,,,,,,,,,,,
1577742732.558422,34.000000,0.000000,4196.922852,4313.846191,4109.230957,4092.820557,4146.153809,0.000000,4.000000,,,,0.000000,4.000000,4.000000,4.000000,4.000000,4.000000,17.000000,0.000000,0.069430,-0.347656,0.812988,0.461914,0.500496,-0.624033,0.592782,14.903615,-46.721073,59.767735,,,,,,,,,,,,,,,,,,,,,,,,,
1577742732.566118,35.000000,0.000000,4236.410156,4338.461426,4151.282227,4138.974121,4189.230957,0.000000,4.000000,,,,0.000000,4.000000,4.000000,4.000000,4.000000,4.000000,,,,,,,,,,,,,,,,,,,,,,,,,,,,,,,,,,,,,
1577742732.573915,36.000000,0.000000,4221.538574,4314.871582,4133.846191,4122.563965,4183.589844,0.000000,4.000000,,,,0.000000,4.000000,4.000000,4.000000,4.000000,4.000000,18.000000,0.000000,0.069430,-0.347656,0.812988,0.461914,0.514656,-0.619150,0.585458,10.601932,-46.774380,59.951942,,,,,,,,,,,,,,,,,,,,,,,,,
1577742732.581711,37.000000,0.000000,4186.153809,4301.025879,4102.051270,4080.512939,4149.230957,0.000000,4.000000,,,,0.000000,4.000000,4.000000,4.000000,4.000000,4.000000,,,,,,,,,,,,,,,,,,,,,,,,,,,,,,,,,,,,,
1577742732.589407,38.000000,0.000000,4161.538574,4301.538574,4083.076904,4052.820557,4121.538574,0.000000,4.000000,,,,0.000000,4.000000,4.000000,4.000000,4.000000,4.000000,19.000000,0.000000,0.069430,-0.347656,0.812988,0.461914,0.533211,-0.628916,0.587900,13.190475,-47.001801,58.024193,,,,,,,,,,,,,,,,,,,,,,,,,
1577742732.597204,39.000000,0.000000,4140.000000,4286.666504,4068.718018,4030.769287,4102.051270,0.000000,4.000000,,,,0.000000,4.000000,4.000000,4.000000,4.000000,4.000000,,,,,,,,,,,,,,,,,,,,,,,,,,,,,,,,,,,,,
1577742732.604900,40.000000,0.000000,4156.410156,4290.256348,4088.205078,4047.692383,4114.871582,0.000000,4.000000,,,,0.000000,4.000000,4.000000,4.000000,4.000000,4.000000,20.000000,0.000000,0.070642,-0.347412,0.812988,0.461914,0.509773,-0.632334,0.604013,12.828474,-47.027035,58.203312,,,,,,,,,,,,,,,,,,,,,,,,,
1577742732.612696,41.000000,0.000000,4210.769043,4329.230957,4132.307617,4101.025879,4157.948730,0.000000,4.000000,,,,0.000000,4.000000,4.000000,4.000000,4.000000,4.000000,,,,,,,,,,,,,,,,,,,,,,,,,,,,,,,,,,,,,
1577742732.620393,42.000000,0.000000,4219.487305,4331.794922,4136.410156,4108.205078,4160.000000,0.000000,4.000000,,,,0.000000,4.000000,4.000000,4.000000,4.000000,4.000000,21.000000,0.000000,0.070642,-0.347412,0.812988,0.461914,0.488777,-0.635264,0.594736,12.502672,-47.049747,58.424332,,,,,,,,,,,,,,,,,,,,,,,,,
1577742732.628089,43.000000,0.000000,4184.102539,4289.743652,4112.307617,4072.307617,4129.743652,0.000000,4.000000,,,,0.000000,4.000000,4.000000,4.000000,4.000000,4.000000,,,,,,,,,,,,,4.174305,22.118235,3.674548,7.899095,6.182413,1.374866,4.603541,0.924233,3.813118,4.091800,2.660888,8.492977,3.013537,6.491275,5.347862,2.799629,23.068617,4.067647,8.991595,7.246432,8.583759,28.582014,5.130107,9.114080,6.353588
1577742732.635885,44.000000,0.000000,4187.179688,4287.179688,4116.922852,4078.461426,4142.563965,0.000000,4.000000,,,,0.000000,4.000000,4.000000,4.000000,4.000000,4.000000,22.000000,0.000000,0.070642,-0.347412,0.812988,0.461914,0.510750,-0.624521,0.601083,8.560714,-47.249630,58.623249,,,,,,,,,,,,,,,,,,,,,,,,,
1577742732.643582,45.000000,0.000000,4221.538574,4318.461426,4137.436035,4115.384766,4181.538574,0.000000,4.000000,,,,0.000000,4.000000,4.000000,4.000000,4.000000,4.000000,,,,,,,,,,,,,,,,,,,,,,,,,,,,,,,,,,,,,
1577742732.651378,46.000000,0.000000,4218.974121,4308.205078,4130.769043,4109.743652,4173.333496,0.000000,4.000000,,,,0.000000,4.000000,4.000000,4.000000,4.000000,4.000000,23.000000,0.000000,0.069430,-0.347656,0.812988,0.461914,0.510262,-0.630869,0.585946,8.661688,-47.130451,58.802277,,,,,,,,,,,,,,,,,,,,,,,,,
1577742732.659074,47.000000,0.000000,4201.538574,4291.282227,4110.256348,4085.641113,4149.230957,0.000000,4.000000,,,,0.000000,4.000000,4.000000,4.000000,4.000000,4.000000,,,,,,,,,,,,,,,,,,,,,,,,,,,,,,,,,,,,,
1577742732.666871,48.000000,0.000000,4205.641113,4315.384766,4107.692383,4084.102539,4151.794922,0.000000,4.000000,,,,0.000000,4.000000,4.000000,4.000000,4.000000,4.000000,24.000000,0.000000,0.071036,-0.347656,0.812988,0.461670,0.505867,-0.629892,0.590829,7.675889,-47.083004,59.023216,,,,,,,,,,,,,,,,,,,,,,,,,
1577742732.674567,49.000000,0.000000,4195.897461,4318.974121,4111.282227,4075.897461,4137.948730,0.000000,4.000000,,,,0.000000,4.000000,4.000000,4.000000,4.000000,4.000000,,,,,,,,,,,,,,,,,,,,,,,,,,,,,,,,,,,,,
1577742732.682363,50.000000,0.000000,4193.846191,4290.256348,4117.436035,4074.871826,4130.256348,0.000000,4.000000,,,,0.000000,4.000000,4.000000,4.000000,4.000000,4.000000,25.000000,0.000000,0.071036,-0.347656,0.812988,0.461670,0.520516,-0.618662,0.582040,9.839252,-47.100117,59.222061,,,,,,,,,,,,,,,,,,,,,,,,,
1577742732.690060,51.000000,0.000000,4220.512695,4297.948730,4127.179688,4099.487305,4157.436035,0.000000,4.000000,,,,0.000000,4.000000,4.000000,4.000000,4.000000,4.000000,,,,,,,,,,,,,,,,,,,,,,,,,,,,,,,,,,,,,
1577742732.697856,52.000000,0.000000,4220.000000,4329.743652,4124.615234,4097.948730,4164.102539,0.000000,4.000000,,,,0.000000,4.000000,4.000000,4.000000,4.000000,4.000000,26.000000,0.000000,0.071036,-0.347656,0.812988,0.461670,0.505867,-0.624033,0.592294,12.504065,-47.055706,59.401024,,,,,,,,,,,,,,,,,,,,,,,,,
1577742732.705552,53.000000,0.000000,4212.307617,4329.743652,4127.692383,4088.205078,4163.589844,0.000000,4.000000,,,,0.000000,4.000000,4.000000,4.000000,4.000000,4.000000,,,,,,,,,,,,,,,,,,,,,,,,,,,,,,,,,,,,,
1577742732.713349,54.000000,0.000000,4233.333496,4308.205078,4145.128418,4106.153809,4185.641113,0.000000,4.000000,,,,0.000000,4.000000,4.000000,4.000000,4.000000,4.000000,27.000000,0.000000,0.069830,-0.347900,0.812988,0.461670,0.518074,-0.610849,0.590341,12.210704,-46.955917,59.502274,,,,,,,,,,,,,,,,,,,,,,,,,
1577742732.721045,55.000000,0.000000,4231.794922,4310.256348,4141.538574,4105.641113,4188.717773,0.000000,4.000000,,,,0.000000,4.000000,4.000000,4.000000,4.000000,4.000000,,,,,,,,,,,,,,,,,,,,,,,,,,,,,,,,,,,,,
1577742732.728841,56.000000,0.000000,4214.358887,4331.794922,4122.051270,4086.666748,4184.102539,0.000000,4.000000,,,,0.000000,4.000000,4.000000,4.000000,4.000000,4.000000,28.000000,0.000000,0.069830,-0.347900,0.812988,0.461670,0.510262,-0.625986,0.609384,11.886864,-46.806293,57.918568,,,,,,,,,,,,,,,,,,,,,,,,,
1577742732.736538,57.000000,0.000000,4220.512695,4325.128418,4120.512695,4086.666748,4190.769043,0.000000,4.000000,,,,0.000000,4.000000,4.000000,4.000000,4.000000,4.000000,,,,,,,,,,,,,,,,,,,,,,,,,,,,,,,,,,,,,
1577742732.744334,58.000000,0.000000,4221.538574,4295.897461,4127.179688,4084.102539,4180.512695,0.000000,4.000000,,,,0.000000,4.000000,4.000000,4.000000,4.000000,4.000000,29.000000,0.000000,0.069830,-0.347900,0.812988,0.461670,0.506355,-0.621592,0.583017,14.346915,-46.851078,56.134342,,,,,,,,,,,,,,,,,,,,,,,,,
1577742732.752030,59.000000,0.000000,4234.871582,4304.102539,4146.666504,4097.436035,4191.794922,0.000000,4.000000,,,,0.000000,4.000000,4.000000,4.000000,4.000000,4.000000,,,,,,,,,,,,,3.056814,19.756742,5.330750,7.265410,6.638266,1.228288,4.161093,1.517121,3.355247,4.014186,2.006643,8.108337,4.472098,6.236702,5.593221,2.447060,20.999773,5.984597,8.715074,7.802712,7.190749,24.762442,6.638803,8.449072,6.875019
1577742732.759827,60.000000,0.000000,4248.717773,4314.871582,4156.410156,4114.358887,4209.230957,0.000000,4.000000,,,,0.000000,4.000000,4.000000,4.000000,4.000000,4.000000,30.000000,0.000000,0.069830,-0.347900,0.812988,0.461670,0.509285,-0.625010,0.590829,13.929085,-46.951199,56.502441,,,,,,,,,,,,,,,,,,,,,,,,,
1577742732.767523,61.000000,0.000000,4212.307617,4303.077148,4128.205078,4083.589844,4170.769043,0.000000,4.000000,,,,0.000000,4.000000,4.000000,4.000000,4.000000,4.000000,,,,,,,,,,,,,,,,,,,,,,,,,,,,,,,,,,,,,
1577742732.775319,62.000000,0.000000,4208.205078,4321.538574,4130.256348,4086.153809,4165.128418,0.000000,4.000000,,,,0.000000,4.000000,4.000000,4.000000,4.000000,4.000000,31.000000,0.000000,0.069830,-0.347900,0.812988,0.461670,0.505867,-0.629404,0.599130,13.493222,-46.981495,56.893551,,,,,,,,,,,,,,,,,,,,,,,,,
1577742732.783016,63.000000,0.000000,4237.436035,4329.230957,4154.871582,4119.487305,4198.461426,0.000000,4.000000,,,,0.000000,4.000000,4.000000,4.000000,4.000000,4.000000,,,,,,,,,,,,,,,,,,,,,,,,,,,,,,,,,,,,,
1577742732.790812,64.000000,0.000000,4212.820313,4283.589844,4140.512695,4095.384521,4176.922852,450.000000,4.000000,,,,0.000000,4.000000,4.000000,4.000000,4.000000,4.000000,32.000000,0.000000,0.069830,-0.347900,0.812988,0.461670,0.520027,-0.615732,0.596201,13.100945,-47.008759,57.305363,,,,,,,,,,,,,,,,,,,,,,,,,
1577742732.798508,65.000000,0.000000,4197.436035,4278.461426,4130.256348,4075.897461,4157.948730,450.000000,4.000000,,,,0.000000,4.000000,4.000000,4.000000,4.000000,4.000000,,,,,,,,,,,,,,,,,,,,,,,,,,,,,,,,,,,,,
1577742732.806205,66.000000,0.000000,4237.436035,4315.897461,4154.358887,4106.666504,4196.922852,16213.000000,4.000000,,,,0.000000,4.000000,4.000000,4.000000,4.000000,4.000000,33.000000,0.000000,0.071426,-0.347900,0.812988,0.461426,0.505379,-0.614267,0.586923,12.747897,-47.033295,55.761902,,,,,,,,,,,,,,,,,,,,,,,,,
1577742732.814001,67.000000,0.000000,4249.230957,4307.179688,4154.871582,4107.692383,4215.897461,450.000000,4.000000,,,,0.000000,4.000000,4.000000,4.000000,4.000000,4.000000,,,,,,,,,,,,,,,,,,,,,,,,,,,,,,,,,,,,,
1577742732.821698,68.000000,0.000000,4237.948730,4289.743652,4135.384766,4091.794922,4205.128418,16234.000000,4.000000,,,,0.000000,4.000000,4.000000,4.000000,4.000000,4.000000,34.000000,0.000000,0.071426,-0.347900,0.812988,0.461426,0.500008,-0.619638,0.589364,8.542154,-46.995564,56.346695,,,,,,,,,,,,,,,,,,,,,,,,,
1577742732.829494,69.000000,0.000000,4245.641113,4300.512695,4135.384766,4111.282227,4207.692383,450.000000,4.000000,,,,0.000000,4.000000,4.000000,4.000000,4.000000,4.000000,,,,,,,,,,,,,,,,,,,,,,,,,,,,,,,,,,,,,
1577742732.837190,70.000000,0.000000,4205.641113,4282.051270,4102.563965,4084.615479,4168.717773,16142.000000,4.000000,,,,0.000000,4.000000,4.000000,4.000000,4.000000,4.000000,35.000000,0.000000,0.071426,-0.347900,0.812988,0.461426,0.515633,-0.609873,0.597177,8.644985,-47.021423,56.813194,,,,,,,,,,,,,,,,,,,,,,,,,
1577742732.844986,71.000000,0.000000,4161.025879,4265.128418,4068.718018,4037.948730,4128.717773,450.000000,4.000000,,,,0.000000,4.000000,4.000000,4.000000,4.000000,4.000000,,,,,,,,,,,,,,,,,,,,,,,,,,,,,,,,,,,,,
1577742732.852683,72.000000,0.000000,4207.179688,4305.128418,4115.384766,4091.281982,4178.974121,450.000000,4.000000,,,,0.000000,4.000000,4.000000,4.000000,4.000000,4.000000,36.000000,0.000000,0.072985,-0.347900,0.812988,0.461182,0.495613,-0.612802,0.593759,8.797348,-47.044693,57.233040,,,,,,,,,,,,,,,,,,,,,,,,,
1577742732.860479,73.000000,0.000000,4251.794922,4324.102539,4157.436035,4153.333496,4228.717773,16209.000000,4.000000,,,,0.000000,4.000000,4.000000,4.000000,4.000000,4.000000,,,,,,,,,,,,,,,,,,,,,,,,,,,,,,,,,,,,,
1577742732.868176,74.000000,0.000000,4208.205078,4279.487305,4113.846191,4106.153809,4188.205078,450.000000,4.000000,,,,0.000000,4.000000,4.000000,4.000000,4.000000,4.000000,37.000000,0.000000,0.071812,-0.348145,0.812988,0.461182,0.521981,-0.620127,0.591318,8.934474,-47.065639,55.696812,,,,,,,,,,,,,,,,,,,,,,,,,
1577742732.875972,75.000000,0.000000,4148.205078,4252.820313,4064.102539,4038.461426,4125.641113,16221.000000,4.000000,,,,0.000000,4.000000,4.000000,4.000000,4.000000,4.000000,,,,,,,,,,,,,3.096493,18.909273,8.391226,6.450097,6.870602,1.141107,4.050875,2.524326,2.742429,3.859802,2.151949,8.720303,6.731903,5.729888,5.620841,2.903497,20.614988,9.290734,8.089176,8.025912,7.941341,22.762020,9.181941,7.459511,7.119219
1577742732.883668,76.000000,0.000000,4138.461426,4265.641113,4067.179443,4040.000000,4118.974121,450.000000,4.000000,,,,0.000000,4.000000,4.000000,4.000000,4.000000,4.000000,38.000000,0.000000,0.071812,-0.348145,0.812988,0.461182,0.519539,-0.622568,0.595224,11.809395,-47.024673,54.314205,,,,,,,,,,,,,,,,,,,,,,,,,
1577742732.891465,77.000000,0.000000,4139.487305,4262.051270,4070.256348,4048.718018,4124.102539,450.000000,4.000000,,,,0.000000,4.000000,4.000000,4.000000,4.000000,4.000000,,,,,,,,,,,,,,,,,,,,,,,,,,,,,,,,,,,,,
1577742732.899161,78.000000,0.000000,4103.077148,4233.333496,4046.153809,4011.281982,4085.641113,450.000000,4.000000,,,,0.000000,4.000000,4.000000,4.000000,4.000000,4.000000,39.000000,0.000000,0.072985,-0.347900,0.812988,0.461182,0.495613,-0.612802,0.593759,11.705132,-47.107437,55.043770,,,,,,,,,,,,,,,,,,,,,,,,,
1577742732.906957,79.000000,0.000000,4069.743652,4223.077148,4028.718018,3980.512939,4049.230713,16221.000000,4.000000,,,,0.000000,4.000000,4.000000,4.000000,4.000000,4.000000,,,,,,,,,,,,,,,,,,,,,,,,,,,,,,,,,,,,,
1577742732.914654,80.000000,0.000000,4092.307617,4236.922852,4040.000000,4001.025635,4067.179443,450.000000,4.000000,,,,0.000000,4.000000,4.000000,4.000000,4.000000,4.000000,40.000000,0.000000,0.071812,-0.348145,0.812988,0.461182,0.519539,-0.622568,0.595224,14.302987,-47.062290,53.726467,,,,,,,,,,,,,,,,,,,,,,,,,
1577742732.922450,81.000000,0.000000,4113.333496,4251.282227,4048.718018,4024.615479,4086.666748,450.000000,4.000000,,,,0.000000,4.000000,4.000000,4.000000,4.000000,4.000000,,,,,,,,,,,,,,,,,,,,,,,,,,,,,,,,,,,,,
1577742732.930146,82.000000,0.000000,4080.512939,4244.615234,4020.512939,3994.871826,4052.820557,450.000000,4.000000,,,,0.000000,4.000000,4.000000,4.000000,4.000000,4.000000,41.000000,0.000000,0.071812,-0.348145,0.812988,0.461182,0.522957,-0.635752,0.585458,13.949365,-47.141289,54.514805,,,,,,,,,,,,,,,,,,,,,,,,,
1577742732.937843,83.000000,0.000000,4068.205078,4227.179688,4003.076904,3969.743652,4035.897461,16221.000000,4.000000,,,,0.000000,4.000000,4.000000,4.000000,4.000000,4.000000,,,,,,,,,,,,,,,,,,,,,,,,,,,,,,,,,,,,,
1577742732.945639,84.000000,0.000000,4101.025879,4240.000000,4030.769287,3998.461426,4072.307617,450.000000,4.000000,,,,0.000000,4.000000,4.000000,4.000000,4.000000,4.000000,42.000000,0.000000,0.071812,-0.348145,0.812988,0.461182,0.513680,-0.624521,0.593271,12.494613,-47.092758,55.164490,,,,,,,,,,,,,,,,,,,,,,,,,
1577742732.953335,85.000000,0.000000,4123.077148,4264.102539,4057.948730,4030.256348,4102.563965,450.000000,4.000000,,,,0.000000,4.000000,4.000000,4.000000,4.000000,4.000000,,,,,,,,,,,,,,,,,,,,,,,,,,,,,,,,,,,,,
1577742732.961132,86.000000,0.000000,4135.897461,4259.487305,4063.589844,4038.974365,4106.666504,450.000000,4.000000,,,,0.000000,4.000000,4.000000,4.000000,4.000000,4.000000,43.000000,0.000000,0.071812,-0.348145,0.812988,0.461182,0.520027,-0.611337,0.593759,8.314198,-47.108898,55.868839,,,,,,,,,,,,,,,,,,,,,,,,,
1577742732.968828,87.000000,0.000000,4134.358887,4250.769043,4064.615479,4027.692383,4093.846191,16221.000000,4.000000,,,,0.000000,4.000000,4.000000,4.000000,4.000000,4.000000,,,,,,,,,,,,,,,,,,,,,,,,,,,,,,,,,,,,,
1577742732.976624,88.000000,0.000000,4111.794922,4259.487305,4064.102539,4008.718018,4077.435791,450.000000,4.000000,,,,0.000000,4.000000,4.000000,4.000000,4.000000,4.000000,44.000000,0.000000,0.071812,-0.348145,0.812988,0.461182,0.514168,-0.601083,0.587411,4.551826,-47.183239,56.323307,,,,,,,,,,,,,,,,,,,,,,,,,
1577742732.984321,89.000000,0.000000,4106.153809,4258.974121,4055.897461,4009.743652,4073.846191,450.000000,4.000000,,,,0.000000,4.000000,4.000000,4.000000,4.000000,4.000000,,,,,,,,,,,,,,,,,,,,,,,,,,,,,,,,,,,,,
1577742732.992117,90.000000,0.000000,4103.077148,4244.615234,4044.615479,4006.666748,4060.000000,450.000000,4.000000,,,,0.000000,4.000000,4.000000,4.000000,4.000000,4.000000,45.000000,0.000000,0.070618,-0.348389,0.812988,0.461182,0.506844,-0.605478,0.581552,3.977012,-47.130512,56.792145,,,,,,,,,,,,,,,,,,,,,,,,,
1577742732.999913,91.000000,0.000000,4092.820557,4254.871582,4049.230713,3996.923096,4045.641113,16221.000000,4.000000,,,,0.000000,4.000000,4.000000,4.000000,4.000000,4.000000,,,,,,,,,,,,,3.651036,18.933201,12.382831,5.773897,6.803105,1.095948,4.167307,3.747266,2.191927,3.634233,3.020135,9.941682,9.382394,5.192718,5.405846,3.907905,21.410236,13.422580,7.387118,7.846478,9.913076,22.072889,12.395622,6.501087,7.004187
1577742733.007610,92.000000,0.000000,4113.846191,4268.205078,4073.846191,4018.974365,4070.256348,450.000000,4.000000,,,,0.000000,4.000000,4.000000,4.000000,4.000000,4.000000,46.000000,0.000000,0.071823,-0.348389,0.812744,0.461426,0.514656,-0.623056,0.599130,4.536357,-47.202690,57.214096,,,,,,,,,,,,,,,,,,,,,,,,,
1577742733.015406,93.000000,0.000000,4139.487305,4266.666504,4094.358887,4053.333252,4100.000000,450.000000,4.000000,,,,0.000000,4.000000,4.000000,4.000000,4.000000,4.000000,,,,,,,,,,,,,,,,,,,,,,,,,,,,,,,,,,,,,
1577742733.023102,94.000000,0.000000,4133.846191,4270.256348,4094.358887,4053.333252,4094.358887,450.000000,4.000000,,,,0.000000,4.000000,4.000000,4.000000,4.000000,4.000000,47.000000,0.000000,0.071823,-0.348389,0.812744,0.461426,0.518074,-0.624521,0.593271,4.979952,-47.148018,57.593853,,,,,,,,,,,,,,,,,,,,,,,,,
1577742733.030899,95.000000,0.000000,4129.743652,4270.256348,4087.692383,4042.051270,4085.128174,16221.000000,4.000000,,,,0.000000,4.000000,4.000000,4.000000,4.000000,4.000000,,,,,,,,,,,,,,,,,,,,,,,,,,,,,,,,,,,,,
1577742733.038595,96.000000,0.000000,4126.666504,4256.922852,4075.897461,4033.846191,4081.025635,450.000000,4.000000,,,,0.000000,4.000000,4.000000,4.000000,4.000000,4.000000,48.000000,0.000000,0.071823,-0.348389,0.812744,0.461426,0.505379,-0.615244,0.606455,1.610819,-47.218449,57.935635,,,,,,,,,,,,,,,,,,,,,,,,,
1577742733.046291,97.000000,0.000000,4113.333496,4251.794922,4066.153809,4018.974365,4066.666748,450.000000,4.000000,,,,0.000000,4.000000,4.000000,4.000000,4.000000,4.000000,,,,,,,,,,,,,,,,,,,,,,,,,,,,,,,,,,,,,
1577742733.054088,98.000000,0.000000,4135.897461,4271.794922,4083.589844,4034.358887,4083.589844,450.000000,4.000000,,,,0.000000,4.000000,4.000000,4.000000,4.000000,4.000000,49.000000,0.000000,0.071823,-0.348389,0.812744,0.461426,0.504891,-0.623056,0.593759,4.380690,-47.222015,56.329147,,,,,,,,,,,,,,,,,,,,,,,,,
1577742733.061784,99.000000,0.000000,4174.358887,4277.948730,4106.153809,4068.205078,4120.000000,16221.000000,4.000000,,,,0.000000,4.000000,4.000000,4.000000,4.000000,4.000000,,,,,,,,,,,,,,,,,,,,,,,,,,,,,,,,,,,,,
1577742733.069580,100.000000,0.000000,4182.563965,4274.358887,4115.384766,4081.538574,4136.410156,450.000000,4.000000,,,,0.000000,4.000000,4.000000,4.000000,4.000000,4.000000,50.000000,0.000000,0.070237,-0.348389,0.812744,0.461670,0.520516,-0.625986,0.588876,7.710989,-47.225227,54.823494,,,,,,,,,,,,,,,,,,,,,,,,,
1577742733.077277,101.000000,0.000000,4188.205078,4289.230957,4127.692383,4087.692383,4144.102539,450.000000,4.000000,,,,0.000000,4.000000,4.000000,4.000000,4.000000,4.000000,,,,,,,,,,,,,,,,,,,,,,,,,,,,,,,,,,,,,
1577742733.085073,102.000000,0.000000,4182.051270,4280.000000,4116.922852,4069.743652,4131.282227,450.000000,4.000000,,,,0.000000,4.000000,4.000000,4.000000,4.000000,4.000000,51.000000,0.000000,0.071823,-0.348389,0.812744,0.461426,0.496590,-0.628428,0.588388,7.777306,-47.347752,55.442310,,,,,,,,,,,,,,,,,,,,,,,,,
1577742733.092769,103.000000,0.000000,4159.487305,4252.307617,4086.666748,4037.435791,4107.179688,16221.000000,4.000000,,,,0.000000,4.000000,4.000000,4.000000,4.000000,4.000000,,,,,,,,,,,,,,,,,,,,,,,,,,,,,,,,,,,,,
1577742733.100466,104.000000,0.000000,4184.615234,4281.025879,4111.282227,4067.179443,4137.436035,450.000000,4.000000,,,,0.000000,4.000000,4.000000,4.000000,4.000000,4.000000,52.000000,0.000000,0.071823,-0.348389,0.812744,0.461426,0.509285,-0.623056,0.604013,7.896805,-47.218758,55.939434,,,,,,,,,,,,,,,,,,,,,,,,,
1577742733.108262,105.000000,0.000000,4230.769043,4325.128418,4159.487305,4121.025879,4189.230957,450.000000,4.000000,,,,0.000000,4.000000,4.000000,4.000000,4.000000,4.000000,,,,,,,,,,,,,,,,,,,,,,,,,,,,,,,,,,,,,
1577742733.116058,106.000000,0.000000,4206.666504,4293.846191,4138.974121,4097.436035,4165.641113,450.000000,4.000000,,,,0.000000,4.000000,4.000000,4.000000,4.000000,4.000000,53.000000,0.000000,0.071823,-0.348389,0.812744,0.461426,0.517098,-0.605478,0.599130,4.235987,-47.222298,56.327026,,,,,,,,,,,,,,,,,,,,,,,,,
1577742733.123755,107.000000,0.000000,4164.102539,4260.000000,4101.025879,4048.718018,4117.948730,16221.000000,4.000000,,,,0.000000,4.000000,4.000000,4.000000,4.000000,4.000000,,,,,,,,,,,,,4.339170,18.824812,16.287374,5.423458,6.447918,1.098868,4.253706,4.841100,1.872939,3.374145,4.331946,11.022121,11.732334,4.807890,4.993360,5.295737,22.216389,17.275169,6.806149,7.325861,12.276926,21.724424,15.489879,5.829450,6.563606
1577742733.131551,108.000000,0.000000,4158.461426,4272.307617,4101.538574,4042.051270,4112.307617,450.000000,4.000000,,,,0.000000,4.000000,4.000000,4.000000,4.000000,4.000000,54.000000,0.000000,0.071823,-0.348389,0.812744,0.461426,0.513191,-0.621592,0.603037,3.632942,-47.105850,56.795490,,,,,,,,,,,,,,,,,,,,,,,,,
1577742733.139247,109.000000,0.000000,4149.230957,4269.743652,4096.922852,4041.025635,4107.692383,450.000000,4.000000,,,,0.000000,4.000000,4.000000,4.000000,4.000000,4.000000,,,,,,,,,,,,,,,,,,,,,,,,,,,,,,,,,,,,,
1577742733.147044,110.000000,0.000000,4142.051270,4260.000000,4089.230713,4032.820557,4107.692383,450.000000,4.000000,,,,0.000000,4.000000,4.000000,4.000000,4.000000,4.000000,55.000000,0.000000,0.071823,-0.348389,0.812744,0.461426,0.514656,-0.617197,0.587411,6.200601,-47.060863,57.217110,,,,,,,,,,,,,,,,,,,,,,,,,
1577742733.154740,111.000000,0.000000,4177.436035,4278.974121,4123.589844,4063.076904,4152.820313,16221.000000,4.000000,,,,0.000000,4.000000,4.000000,4.000000,4.000000,4.000000,,,,,,,,,,,,,,,,,,,,,,,,,,,,,,,,,,,,,
1577742733.162536,112.000000,0.000000,4214.358887,4296.410156,4148.717773,4100.512695,4191.794922,450.000000,4.000000,,,,0.000000,4.000000,4.000000,4.000000,4.000000,4.000000,56.000000,0.000000,0.071823,-0.348389,0.812744,0.461426,0.512703,-0.633310,0.594247,5.520726,-47.319454,57.656380,,,,,,,,,,,,,,,,,,,,,,,,,
1577742733.170233,113.000000,0.000000,4193.846191,4292.820313,4111.282227,4074.871826,4163.589844,450.000000,4.000000,,,,0.000000,4.000000,4.000000,4.000000,4.000000,4.000000,,,,,,,,,,,,,,,,,,,,,,,,,,,,,,,,,,,,,
1577742733.178029,114.000000,0.000000,4174.871582,4289.743652,4093.846191,4052.307617,4143.077148,450.000000,4.000000,,,,0.000000,4.000000,4.000000,4.000000,4.000000,4.000000,57.000000,0.000000,0.071823,-0.348389,0.812744,0.461426,0.503426,-0.631846,0.595224,1.977885,-47.312920,57.991909,,,,,,,,,,,,,,,,,,,,,,,,,
1577742733.185725,115.000000,0.000000,4213.846191,4296.922852,4135.384766,4100.512695,4181.538574,16221.000000,4.000000,,,,0.000000,4.000000,4.000000,4.000000,4.000000,4.000000,,,,,,,,,,,,,,,,,,,,,,,,,,,,,,,,,,,,,
1577742733.193522,116.000000,0.000000,4234.871582,4289.743652,4145.641113,4124.615234,4191.794922,450.000000,4.000000,,,,0.000000,4.000000,4.000000,4.000000,4.000000,4.000000,58.000000,0.000000,0.071823,-0.348389,0.812744,0.461426,0.520516,-0.616709,0.587900,2.617512,-47.426674,58.293884,,,,,,,,,,,,,,,,,,,,,,,,,
1577742733.201218,117.000000,0.000000,4201.025879,4278.974121,4110.769043,4083.589844,4157.436035,450.000000,4.000000,,,,0.000000,4.000000,4.000000,4.000000,4.000000,4.000000,,,,,,,,,,,,,,,,,,,,,,,,,,,,,,,,,,,,,
1577742733.208915,118.000000,0.000000,4184.615234,4292.307617,4106.153809,4074.358887,4151.282227,450.000000,4.000000,,,,0.000000,4.000000,4.000000,4.000000,4.000000,4.000000,59.000000,0.000000,0.071823,-0.348389,0.812744,0.461426,0.512215,-0.621592,0.588876,6.124128,-47.289791,56.651573,,,,,,,,,,,,,,,,,,,,,,,,,
1577742733.216711,119.000000,0.000000,4194.871582,4291.794922,4117.436035,4089.743652,4161.538574,16221.000000,4.000000,,,,0.000000,4.000000,4.000000,4.000000,4.000000,4.000000,,,,,,,,,,,,,,,,,,,,,,,,,,,,,,,,,,,,,
1577742733.224407,120.000000,0.000000,4204.615234,4277.948730,4122.563965,4084.615479,4171.282227,450.000000,4.000000,,,,0.000000,4.000000,4.000000,4.000000,4.000000,4.000000,60.000000,0.000000,0.071823,-0.348389,0.812744,0.461426,0.504402,-0.627451,0.586923,6.408946,-47.226410,55.293121,,,,,,,,,,,,,,,,,,,,,,,,,
1577742733.232204,121.000000,0.000000,4231.794922,4300.000000,4145.128418,4106.153809,4202.563965,450.000000,4.000000,,,,0.000000,4.000000,4.000000,4.000000,4.000000,4.000000,,,,,,,,,,,,,,,,,,,,,,,,,,,,,,,,,,,,,
1577742733.239900,122.000000,0.000000,4240.512695,4318.461426,4144.102539,4121.025879,4207.692383,450.000000,4.000000,,,,0.000000,4.000000,4.000000,4.000000,4.000000,4.000000,61.000000,0.000000,0.071823,-0.348389,0.812744,0.461426,0.509773,-0.606455,0.597665,9.536420,-47.229183,55.984608,,,,,,,,,,,,,,,,,,,,,,,,,
1577742733.247696,123.000000,0.000000,4205.641113,4283.077148,4098.974121,4080.000000,4162.563965,16221.000000,4.000000,,,,0.000000,4.000000,4.000000,4.000000,4.000000,4.000000,,,,,,,,,,,,,5.229040,17.749418,18.863947,5.391513,5.894319,1.180311,4.072512,5.444171,1.821918,3.129847,5.714830,11.234119,13.067468,4.637422,4.472600,6.627670,21.835491,19.674240,6.407780,6.619356,14.157873,20.791069,17.495441,5.506243,5.925929
1577742733.255393,124.000000,0.000000,4194.871582,4252.820313,4074.358887,4051.281982,4146.153809,450.000000,4.000000,,,,0.000000,4.000000,4.000000,4.000000,4.000000,4.000000,62.000000,0.000000,0.071823,-0.348389,0.812744,0.461426,0.511238,-0.618662,0.599130,11.453915,-47.351307,56.427498,,,,,,,,,,,,,,,,,,,,,,,,,
1577742733.263189,125.000000,0.000000,4281.025879,4295.384766,4123.589844,4104.615234,4221.025879,450.000000,4.000000,,,,0.000000,4.000000,4.000000,4.000000,4.000000,4.000000,,,,,,,,,,,,,,,,,,,,,,,,,,,,,,,,,,,,,
1577742733.270885,126.000000,0.000000,4382.563965,4341.025879,4177.948730,4162.563965,4298.974121,450.000000,4.000000,,,,0.000000,4.000000,4.000000,4.000000,4.000000,4.000000,63.000000,0.000000,0.071823,-0.348389,0.812744,0.461426,0.513680,-0.622568,0.595224,11.145939,-47.341591,56.885918,,,,,,,,,,,,,,,,,,,,,,,,,
1577742733.278682,127.000000,0.000000,4387.179688,4307.692383,4149.230957,4130.769043,4286.666504,235.000000,4.000000,,,,0.000000,4.000000,4.000000,4.000000,4.000000,4.000000,,,,,,,,,,,,,,,,,,,,,,,,,,,,,,,,,,,,,
1577742733.286378,0.000000,0.000000,4371.282227,4260.000000,4093.333252,4072.307617,4248.205078,450.000000,4.000000,,,,0.000000,4.000000,4.000000,4.000000,4.000000,4.000000,0.000000,0.000000,0.071823,-0.348389,0.812744,0.461426,0.518074,-0.631846,0.600107,10.988391,-47.452477,57.418121,,,,,,,,,,,,,,,,,,,,,,,,,
1577742733.294174,1.000000,0.000000,4410.769043,4270.256348,4090.769287,4059.487061,4257.436035,450.000000,4.000000,,,,0.000000,4.000000,4.000000,4.000000,4.000000,4.000000,,,,,,,,,,,,,,,,,,,,,,,,,,,,,,,,,,,,,
1577742733.301871,2.000000,0.000000,4485.128418,4309.743652,4136.410156,4105.128418,4322.563965,16214.000000,4.000000,,,,0.000000,4.000000,4.000000,4.000000,4.000000,4.000000,1.000000,0.000000,0.073374,-0.348389,0.812744,0.461182,0.511238,-0.633310,0.596201,13.478474,-47.372829,57.717663,,,,,,,,,,,,,,,,,,,,,,,,,
1577742733.309667,3.000000,0.000000,4561.538574,4325.128418,4172.820313,4162.563965,4393.846191,450.000000,4.000000,,,,0.000000,4.000000,4.000000,4.000000,4.000000,4.000000,,,,,,,,,,,,,,,,,,,,,,,,,,,,,,,,,,,,,
1577742733.317363,4.000000,0.000000,4574.358887,4300.000000,4146.153809,4140.000000,4381.538574,16243.000000,4.000000,,,,0.000000,4.000000,4.000000,4.000000,4.000000,4.000000,2.000000,0.000000,0.073374,-0.348389,0.812744,0.461182,0.506844,-0.616220,0.589364,13.087672,-47.301144,58.047062,,,,,,,,,,,,,,,,,,,,,,,,,
1577742733.325160,5.000000,0.000000,4514.871582,4262.563965,4092.820557,4062.051270,4309.743652,450.000000,4.000000,,,,0.000000,4.000000,4.000000,4.000000,4.000000,4.000000,,,,,,,,,,,,,,,,,,,,,,,,,,,,,,,,,,,,,
1577742733.332856,6.000000,0.000000,4509.230957,4271.794922,4107.179688,4066.666748,4309.230957,16144.000000,4.000000,,,,0.000000,4.000000,4.000000,4.000000,4.000000,4.000000,3.000000,0.000000,0.071823,-0.348389,0.812744,0.461426,0.518074,-0.631846,0.600107,12.676135,-47.296444,58.343525,,,,,,,,,,,,,,,,,,,,,,,,,
1577742733.340652,7.000000,0.000000,4571.282227,4312.307617,4165.641113,4144.615234,4371.794922,450.000000,4.000000,,,,0.000000,4.000000,4.000000,4.000000,4.000000,4.000000,,,,,,,,,,,,,,,,,,,,,,,,,,,,,,,,,,,,,
1577742733.348349,8.000000,0.000000,4555.897461,4312.307617,4165.128418,4151.794922,4367.692383,450.000000,4.000000,,,,0.000000,4.000000,4.000000,4.000000,4.000000,4.000000,4.000000,0.000000,0.073374,-0.348389,0.812744,0.461182,0.506844,-0.616220,0.589364,12.365567,-47.232399,58.610340,,,,,,,,,,,,,,,,,,,,,,,,,
1577742733.356045,9.000000,0.000000,4469.230957,4294.358887,4125.641113,4098.461426,4308.205078,16211.000000,4.000000,,,,0.000000,4.000000,4.000000,4.000000,4.000000,4.000000,,,,,,,,,,,,,,,,,,,,,,,,,,,,,,,,,,,,,
1577742733.363841,10.000000,0.000000,4440.000000,4307.179688,4132.307617,4105.641113,4296.922852,450.000000,4.000000,,,,0.000000,4.000000,4.000000,4.000000,4.000000,4.000000,5.000000,0.000000,0.070618,-0.348389,0.812988,0.461182,0.500008,-0.616709,0.593759,8.257874,-47.294388,58.790657,,,,,,,,,,,,,,,,,,,,,,,,,
1577742733.371638,11.000000,0.000000,4455.384766,4323.589844,4162.051270,4152.307617,4315.384766,16220.000000,4.000000,,,,0.000000,4.000000,4.000000,4.000000,4.000000,4.000000,,,,,,,,,,,,,6.781024,15.520524,19.235559,5.538363,5.254418,1.390111,3.559376,5.362584,1.957224,2.934605,7.020195,10.264203,12.963187,4.639032,3.935956,8.036126,19.651297,19.878981,6.158113,5.892449,15.482547,18.798315,17.716789,5.451828,5.240503
1577742733.379334,12.000000,0.000000,4399.487305,4301.025879,4135.384766,4122.563965,4264.615234,450.000000,4.000000,,,,0.000000,4.000000,4.000000,4.000000,4.000000,4.000000,6.000000,0.000000,0.070618,-0.348389,0.812988,0.461182,0.510750,-0.625010,0.595224,10.303224,-47.290363,59.072575,,,,,,,,,,,,,,,,,,,,,,,,,
1577742733.387030,13.000000,0.000000,4318.974121,4273.846191,4091.794922,4058.974365,4194.871582,450.000000,4.000000,,,,0.000000,4.000000,4.000000,4.000000,4.000000,4.000000,,,,,,,,,,,,,,,,,,,,,,,,,,,,,,,,,,,,,
1577742733.394827,14.000000,0.000000,4308.717773,4268.205078,4095.897461,4064.615479,4198.461426,450.000000,4.000000,,,,0.000000,4.000000,4.000000,4.000000,4.000000,4.000000,7.000000,0.000000,0.073374,-0.348389,0.812744,0.461182,0.506355,-0.610849,0.591318,13.041269,-47.286739,59.386116,,,,,,,,,,,,,,,,,,,,,,,,,
1577742733.402523,15.000000,0.000000,4325.641113,4273.333496,4120.000000,4098.974121,4228.717773,16220.000000,4.000000,,,,0.000000,4.000000,4.000000,4.000000,4.000000,4.000000,,,,,,,,,,,,,,,,,,,,,,,,,,,,,,,,,,,,,
1577742733.410319,16.000000,0.000000,4307.179688,4287.692383,4117.436035,4092.307617,4216.410156,0.000000,4.000000,,,,0.000000,4.000000,4.000000,4.000000,4.000000,4.000000,8.000000,0.000000,0.073374,-0.348389,0.812744,0.461182,0.502449,-0.617685,0.589853,12.634373,-47.283482,59.369225,,,,,,,,,,,,,,,,,,,,,,,,,
1577742733.418016,17.000000,0.000000,4265.128418,4290.256348,4094.871826,4064.102539,4175.897461,0.000000,4.000000,,,,0.000000,4.000000,4.000000,4.000000,4.000000,4.000000,,,,,,,,,,,,,,,,,,,,,,,,,,,,,,,,,,,,,
1577742733.425812,18.000000,0.000000,4268.717773,4293.846191,4110.256348,4081.025635,4181.538574,0.000000,4.000000,,,,0.000000,4.000000,4.000000,4.000000,4.000000,4.000000,9.000000,0.000000,0.073374,-0.348389,0.812744,0.461182,0.514656,-0.611337,0.585458,8.380167,-47.400177,57.499748,,,,,,,,,,,,,,,,,,,,,,,,,
1577742733.433508,19.000000,0.000000,4324.102539,4328.205078,4171.794922,4145.641113,4243.077148,0.000000,4.000000,,,,0.000000,4.000000,4.000000,4.000000,4.000000,4.000000,,,,,,,,,,,,,,,,,,,,,,,,,,,,,,,,,,,,,
1577742733.441305,20.000000,0.000000,4337.948730,4341.025879,4197.436035,4173.846191,4263.077148,0.000000,4.000000,,,,0.000000,4.000000,4.000000,4.000000,4.000000,4.000000,10.000000,0.000000,0.073374,-0.348389,0.812744,0.461182,0.513191,-0.627939,0.593271,4.551382,-47.325756,55.877033,,,,,,,,,,,,,,,,,,,,,,,,,
1577742733.449101,21.000000,0.000000,4277.436035,4301.025879,4150.256348,4126.153809,4199.487305,0.000000,4.000000,,,,0.000000,4.000000,4.000000,4.000000,4.000000,4.000000,,,,,,,,,,,,,,,,,,,,,,,,,,,,,,,,,,,,,
1577742733.456797,22.000000,0.000000,4234.358887,4290.256348,4122.563965,4083.076904,4155.384766,0.000000,4.000000,,,,0.000000,4.000000,4.000000,4.000000,4.000000,4.000000,11.000000,0.000000,0.070618,-0.348389,0.812988,0.461182,0.500984,-0.615732,0.595224,6.967381,-47.258781,54.476406,,,,,,,,,,,,,,,,,,,,,,,,,
1577742733.464494,23.000000,0.000000,4258.974121,4325.128418,4158.974121,4109.743652,4187.692383,0.000000,4.000000,,,,0.000000,4.000000,4.000000,4.000000,4.000000,4.000000,,,,,,,,,,,,,,,,,,,,,,,,,,,,,,,,,,,,,
1577742733.472290,24.000000,0.000000,4270.256348,4311.282227,4175.384766,4135.897461,4204.615234,0.000000,4.000000,,,,0.000000,4.000000,4.000000,4.000000,4.000000,4.000000,12.000000,0.000000,0.071812,-0.348145,0.812988,0.461182,0.507820,-0.612802,0.584482,7.287505,-47.377945,55.129932,,,,,,,,,,,,,,,,,,,,,,,,,
1577742733.479986,25.000000,0.000000,4228.205078,4269.743652,4139.487305,4103.589844,4159.487305,0.000000,4.000000,,,,0.000000,4.000000,4.000000,4.000000,4.000000,4.000000,,,,,,,,,,,,,,,,,,,,,,,,,,,,,,,,,,,,,
1577742733.487783,26.000000,0.000000,4210.256348,4291.282227,4124.615234,4088.718018,4138.974121,0.000000,4.000000,,,,0.000000,4.000000,4.000000,4.000000,4.000000,4.000000,13.000000,0.000000,0.072997,-0.348145,0.812744,0.461426,0.502937,-0.617685,0.582528,7.455985,-47.365566,55.658291,,,,,,,,,,,,,,,,,,,,,,,,,
1577742733.495479,27.000000,0.000000,4232.307617,4311.282227,4132.307617,4116.922852,4162.563965,0.000000,4.000000,,,,0.000000,4.000000,4.000000,4.000000,4.000000,4.000000,,,,,,,,,,,,,10.054090,13.043739,17.346365,5.745470,4.649955,1.709343,2.876232,4.683643,2.147924,2.797068,8.054440,8.368335,11.493229,4.748149,3.474709,9.368515,16.066833,17.948858,6.037727,5.284304,16.453274,16.228054,16.177811,5.601527,4.645279
1577742733.503176,28.000000,0.000000,4205.128418,4268.205078,4100.000000,4100.000000,4144.102539,0.000000,4.000000,,,,0.000000,4.000000,4.000000,4.000000,4.000000,4.000000,14.000000,0.000000,0.072997,-0.348145,0.812744,0.461426,0.512703,-0.628916,0.595712,3.839249,-47.174976,56.253445,,,,,,,,,,,,,,,,,,,,,,,,,
1577742733.510972,29.000000,0.000000,4167.692383,4267.692383,4082.564209,4067.179443,4114.871582,0.000000,4.000000,,,,0.000000,4.000000,4.000000,4.000000,4.000000,4.000000,,,,,,,,,,,,,,,,,,,,,,,,,,,,,,,,,,,,,
1577742733.518768,30.000000,0.000000,4206.153809,4323.077148,4135.384766,4109.743652,4161.538574,0.000000,4.000000,,,,0.000000,4.000000,4.000000,4.000000,4.000000,4.000000,15.000000,0.000000,0.072997,-0.348145,0.812744,0.461426,0.508797,-0.619638,0.599619,7.104061,-47.242710,54.755360,,,,,,,,,,,,,,,,,,,,,,,,,
1577742733.526465,31.000000,0.000000,4243.077148,4323.589844,4169.230957,4153.846191,4205.641113,0.000000,4.000000,,,,0.000000,4.000000,4.000000,4.000000,4.000000,4.000000,,,,,,,,,,,,,,,,,,,,,,,,,,,,,,,,,,,,,
1577742733.534161,32.000000,0.000000,4216.922852,4291.282227,4146.666504,4129.230957,4176.922852,0.000000,4.000000,,,,0.000000,4.000000,4.000000,4.000000,4.000000,4.000000,16.000000,0.000000,0.072997,-0.348145,0.812744,0.461426,0.511727,-0.615732,0.590829,5.556240,-47.363483,53.586529,,,,,,,,,,,,,,,,,,,,,,,,,
1577742733.541957,33.000000,0.000000,4192.307617,4297.948730,4131.794922,4100.000000,4150.769043,0.000000,4.000000,,,,0.000000,4.000000,4.000000,4.000000,4.000000,4.000000,,,,,,,,,,,,,,,,,,,,,,,,,,,,,,,,,,,,,
1577742733.549654,34.000000,0.000000,4193.333496,4306.153809,4134.358887,4098.461426,4166.666504,0.000000,4.000000,,,,0.000000,4.000000,4.000000,4.000000,4.000000,4.000000,17.000000,0.000000,0.072997,-0.348145,0.812744,0.461426,0.506844,-0.633310,0.588388,8.709168,-47.352547,52.414951,,,,,,,,,,,,,,,,,,,,,,,,,
1577742733.557450,35.000000,0.000000,4207.692383,4300.000000,4147.179688,4107.179688,4196.410156,0.000000,4.000000,,,,0.000000,4.000000,4.000000,4.000000,4.000000,4.000000,,,,,,,,,,,,,,,,,,,,,,,,,,,,,,,,,,,,,
1577742733.565246,36.000000,0.000000,4209.743652,4293.333496,4154.871582,4110.256348,4211.794922,0.000000,4.000000,,,,0.000000,4.000000,4.000000,4.000000,4.000000,4.000000,18.000000,0.000000,0.072997,-0.348145,0.812744,0.461426,0.509285,-0.621592,0.591318,4.967114,-47.223076,53.214809,,,,,,,,,,,,,,,,,,,,,,,,,
1577742733.572943,37.000000,0.000000,4170.769043,4271.282227,4126.666504,4085.128174,4193.846191,0.000000,4.000000,,,,0.000000,4.000000,4.000000,4.000000,4.000000,4.000000,,,,,,,,,,,,,,,,,,,,,,,,,,,,,,,,,,,,,
1577742733.580739,38.000000,0.000000,4170.256348,4281.538574,4127.692383,4091.281982,4207.692383,0.000000,4.000000,,,,0.000000,4.000000,4.000000,4.000000,4.000000,4.000000,19.000000,0.000000,0.072997,-0.348145,0.812744,0.461426,0.507332,-0.626474,0.584970,5.427449,-47.106552,53.994495,,,,,,,,,,,,,,,,,,,,,,,,,
1577742733.588435,39.000000,0.000000,4243.077148,4325.128418,4185.128418,4160.512695,4280.512695,0.000000,4.000000,,,,0.000000,4.000000,4.000000,4.000000,4.000000,4.000000,,,,,,,,,,,,,,,,,,,,,,,,,,,,,,,,,,,,,
1577742733.596132,40.000000,0.000000,4262.563965,4326.153809,4196.410156,4179.487305,4305.128418,0.000000,4.000000,,,,0.000000,4.000000,4.000000,4.000000,4.000000,4.000000,20.000000,0.000000,0.072997,-0.348145,0.812744,0.461426,0.503914,-0.616709,0.583993,5.781934,-47.181126,54.815845,,,,,,,,,,,,,,,,,,,,,,,,,
1577742733.603928,41.000000,0.000000,4217.436035,4307.179688,4158.461426,4132.307617,4267.179688,0.000000,4.000000,,,,0.000000,4.000000,4.000000,4.000000,4.000000,4.000000,,,,,,,,,,,,,,,,,,,,,,,,,,,,,,,,,,,,,
1577742733.611724,42.000000,0.000000,4204.102539,4305.641113,4145.641113,4112.820313,4248.205078,0.000000,4.000000,,,,0.000000,4.000000,4.000000,4.000000,4.000000,4.000000,21.000000,0.000000,0.072617,-0.347900,0.812744,0.461670,0.506844,-0.612314,0.583505,8.134694,-47.188427,55.614872,,,,,,,,,,,,,,,,,,,,,,,,,
1577742733.619421,43.000000,0.000000,4207.692383,4300.512695,4141.025879,4108.205078,4239.487305,0.000000,4.000000,,,,0.000000,4.000000,4.000000,4.000000,4.000000,4.000000,,,,,,,,,,,,,18.882875,11.585584,13.872520,6.027112,4.236995,2.091845,2.288880,3.703626,2.302043,2.731055,8.649631,6.207963,9.169879,4.955973,3.196184,10.563441,12.144559,14.612914,6.117476,4.931435,18.454409,13.877045,13.415517,6.000343,4.285685
1577742733.627117,44.000000,0.000000,4206.666504,4309.743652,4145.128418,4105.128418,4230.256348,0.000000,4.000000,,,,0.000000,4.000000,4.000000,4.000000,4.000000,4.000000,22.000000,0.000000,0.072617,-0.347900,0.812744,0.461670,0.518074,-0.603525,0.595224,7.201593,-47.195000,56.274185,,,,,,,,,,,,,,,,,,,,,,,,,
1577742733.634913,45.000000,0.000000,4201.538574,4316.410156,4153.333496,4109.743652,4228.205078,0.000000,4.000000,,,,0.000000,4.000000,4.000000,4.000000,4.000000,4.000000,,,,,,,,,,,,,,,,,,,,,,,,,,,,,,,,,,,,,
1577742733.642610,46.000000,0.000000,4182.051270,4284.102539,4131.282227,4095.897461,4214.871582,0.000000,4.000000,,,,0.000000,4.000000,4.000000,4.000000,4.000000,4.000000,23.000000,0.000000,0.071437,-0.348145,0.812744,0.461670,0.523445,-0.617197,0.584482,7.438480,-47.141098,56.747932,,,,,,,,,,,,,,,,,,,,,,,,,
1577742733.650406,47.000000,0.000000,4195.897461,4279.487305,4135.384766,4108.205078,4229.743652,0.000000,4.000000,,,,0.000000,4.000000,4.000000,4.000000,4.000000,4.000000,,,,,,,,,,,,,,,,,,,,,,,,,,,,,,,,,,,,,
1577742733.658102,48.000000,0.000000,4239.487305,4324.102539,4177.436035,4162.051270,4280.000000,0.000000,4.000000,,,,0.000000,4.000000,4.000000,4.000000,4.000000,4.000000,24.000000,0.000000,0.071437,-0.348145,0.812744,0.461670,0.497078,-0.632334,0.594247,7.472232,-47.032772,55.200401,,,,,,,,,,,,,,,,,,,,,,,,,
1577742733.665899,49.000000,0.000000,4239.487305,4328.717773,4178.461426,4171.794922,4288.717773,0.000000,4.000000,,,,0.000000,4.000000,4.000000,4.000000,4.000000,4.000000,,,,,,,,,,,,,,,,,,,,,,,,,,,,,,,,,,,,,
1577742733.673595,50.000000,0.000000,4205.641113,4286.153809,4145.641113,4129.230957,4245.641113,0.000000,4.000000,,,,0.000000,4.000000,4.000000,4.000000,4.000000,4.000000,25.000000,0.000000,0.071437,-0.348145,0.812744,0.461670,0.509285,-0.634287,0.600107,10.493377,-47.114723,55.841343,,,,,,,,,,,,,,,,,,,,,,,,,
1577742733.681391,51.000000,0.000000,4191.282227,4271.282227,4138.461426,4105.128418,4215.384766,0.000000,4.000000,,,,0.000000,4.000000,4.000000,4.000000,4.000000,4.000000,,,,,,,,,,,,,,,,,,,,,,,,,,,,,,,,,,,,,
1577742733.689088,52.000000,0.000000,4196.922852,4292.820313,4154.871582,4116.410156,4217.948730,0.000000,4.000000,,,,0.000000,4.000000,4.000000,4.000000,4.000000,4.000000,26.000000,0.000000,0.072617,-0.347900,0.812744,0.461670,0.505867,-0.637705,0.598154,10.281454,-46.889404,56.238747,,,,,,,,,,,,,,,,,,,,,,,,,
1577742733.696884,53.000000,0.000000,4214.871582,4309.230957,4172.307617,4133.333496,4232.820313,0.000000,4.000000,,,,0.000000,4.000000,4.000000,4.000000,4.000000,4.000000,,,,,,,,,,,,,,,,,,,,,,,,,,,,,,,,,,,,,
1577742733.704580,54.000000,0.000000,4216.922852,4312.307617,4175.897461,4124.102539,4229.230957,0.000000,4.000000,,,,0.000000,4.000000,4.000000,4.000000,4.000000,4.000000,27.000000,0.000000,0.072617,-0.347900,0.812744,0.461670,0.506844,-0.629404,0.598154,10.150539,-46.925877,56.716038,,,,,,,,,,,,,,,,,,,,,,,,,
1577742733.712377,55.000000,0.000000,4206.666504,4319.487305,4170.769043,4114.871582,4218.974121,0.000000,4.000000,,,,0.000000,4.000000,4.000000,4.000000,4.000000,4.000000,,,,,,,,,,,,,,,,,,,,,,,,,,,,,,,,,,,,,
1577742733.720073,56.000000,0.000000,4202.051270,4305.641113,4162.563965,4123.077148,4215.897461,0.000000,4.000000,,,,0.000000,4.000000,4.000000,4.000000,4.000000,4.000000,28.000000,0.000000,0.071426,-0.347900,0.812988,0.461426,0.504402,-0.629404,0.595224,6.383978,-47.018517,57.025970,,,,,,,,,,,,,,,,,,,,,,,,,
1577742733.727869,57.000000,0.000000,4184.102539,4270.256348,4149.230957,4110.769043,4200.512695,0.000000,4.000000,,,,0.000000,4.000000,4.000000,4.000000,4.000000,4.000000,,,,,,,,,,,,,,,,,,,,,,,,,,,,,,,,,,,,,
1577742733.735566,58.000000,0.000000,4193.333496,4282.051270,4161.538574,4115.897461,4208.205078,0.000000,4.000000,,,,0.000000,4.000000,4.000000,4.000000,4.000000,4.000000,29.000000,0.000000,0.071426,-0.347900,0.812988,0.461426,0.508309,-0.620615,0.598154,6.702627,-47.101894,57.424541,,,,,,,,,,,,,,,,,,,,,,,,,
1577742733.743362,59.000000,0.000000,4229.743652,4307.692383,4186.153809,4148.205078,4232.307617,0.000000,4.000000,,,,0.000000,4.000000,4.000000,4.000000,4.000000,4.000000,,,,,,,,,,,,,36.897655,12.192715,9.955178,6.428313,4.178874,2.401160,2.051300,2.799081,2.393771,2.762555,8.799161,4.576558,6.699852,5.286221,3.201996,11.347184,9.041607,10.976311,6.460849,4.953797,22.533854,12.510298,10.331937,6.702249,4.297925
1577742733.751058,60.000000,0.000000,4211.794922,4291.794922,4170.769043,4127.692383,4207.179688,0.000000,4.000000,,,,0.000000,4.000000,4.000000,4.000000,4.000000,4.000000,30.000000,0.000000,0.071426,-0.347900,0.812988,0.461426,0.511727,-0.616220,0.590341,9.023132,-47.057304,57.723438,,,,,,,,,,,,,,,,,,,,,,,,,
1577742733.758855,61.000000,0.000000,4192.820313,4299.487305,4164.615234,4110.769043,4192.307617,0.000000,4.000000,,,,0.000000,4.000000,4.000000,4.000000,4.000000,4.000000,,,,,,,,,,,,,,,,,,,,,,,,,,,,,,,,,,,,,
1577742733.766551,62.000000,0.000000,4217.436035,4328.717773,4187.692383,4147.179688,4223.077148,0.000000,4.000000,,,,0.000000,4.000000,4.000000,4.000000,4.000000,4.000000,31.000000,0.000000,0.071426,-0.347900,0.812988,0.461426,0.504402,-0.629404,0.595224,11.889187,-47.017174,58.231709,,,,,,,,,,,,,,,,,,,,,,,,,
1577742733.774247,63.000000,0.000000,4191.794922,4304.615234,4166.666504,4131.794922,4203.077148,0.000000,4.000000,,,,0.000000,4.000000,4.000000,4.000000,4.000000,4.000000,,,,,,,,,,,,,,,,,,,,,,,,,,,,,,,,,,,,,
1577742733.782044,64.000000,0.000000,4149.230957,4284.102539,4143.589844,4086.666748,4163.589844,450.000000,4.000000,,,,0.000000,4.000000,4.000000,4.000000,4.000000,4.000000,32.000000,0.000000,0.071426,-0.347900,0.812988,0.461426,0.511727,-0.616220,0.590341,13.691036,-46.981052,58.449890,,,,,,,,,,,,,,,,,,,,,,,,,
1577742733.789740,65.000000,0.000000,4174.358887,4306.153809,4176.410156,4108.205078,4189.230957,450.000000,4.000000,,,,0.000000,4.000000,4.000000,4.000000,4.000000,4.000000,,,,,,,,,,,,,,,,,,,,,,,,,,,,,,,,,,,,,
1577742733.797536,66.000000,0.000000,4196.922852,4298.974121,4200.512695,4138.974121,4212.307617,16206.000000,4.000000,,,,0.000000,4.000000,4.000000,4.000000,4.000000,4.000000,33.000000,0.000000,0.071426,-0.347900,0.812988,0.461426,0.510750,-0.615732,0.583017,15.193070,-47.008362,56.791977,,,,,,,,,,,,,,,,,,,,,,,,,
1577742733.805233,67.000000,0.000000,4200.512695,4288.717773,4205.128418,4143.589844,4206.666504,450.000000,4.000000,,,,0.000000,4.000000,4.000000,4.000000,4.000000,4.000000,,,,,,,,,,,,,,,,,,,,,,,,,,,,,,,,,,,,,
1577742733.813029,68.000000,0.000000,4210.256348,4305.128418,4209.743652,4140.000000,4201.025879,16235.000000,4.000000,,,,0.000000,4.000000,4.000000,4.000000,4.000000,4.000000,34.000000,0.000000,0.071426,-0.347900,0.812988,0.461426,0.512215,-0.610849,0.577157,14.630809,-46.913311,57.333576,,,,,,,,,,,,,,,,,,,,,,,,,
1577742733.820725,69.000000,0.000000,4200.000000,4303.077148,4201.538574,4128.205078,4187.692383,450.000000,4.000000,,,,0.000000,4.000000,4.000000,4.000000,4.000000,4.000000,,,,,,,,,,,,,,,,,,,,,,,,,,,,,,,,,,,,,
1577742733.828522,70.000000,0.000000,4198.974121,4294.358887,4203.589844,4128.205078,4187.692383,16140.000000,4.000000,,,,0.000000,4.000000,4.000000,4.000000,4.000000,4.000000,35.000000,0.000000,0.069830,-0.347900,0.812988,0.461670,0.510262,-0.619638,0.573251,10.296591,-46.947392,57.761200,,,,,,,,,,,,,,,,,,,,,,,,,
1577742733.836218,71.000000,0.000000,4224.615234,4300.000000,4222.563965,4144.615234,4212.820313,450.000000,4.000000,,,,0.000000,4.000000,4.000000,4.000000,4.000000,4.000000,,,,,,,,,,,,,,,,,,,,,,,,,,,,,,,,,,,,,
1577742733.844014,72.000000,0.000000,4225.128418,4286.666504,4216.922852,4138.974121,4215.384766,450.000000,4.000000,,,,0.000000,4.000000,4.000000,4.000000,4.000000,4.000000,36.000000,0.000000,0.071036,-0.347656,0.812988,0.461670,0.515633,-0.629892,0.595224,12.975485,-47.157513,56.172157,,,,,,,,,,,,,,,,,,,,,,,,,
1577742733.851711,73.000000,0.000000,4205.641113,4281.025879,4197.948730,4114.358887,4196.922852,16204.000000,4.000000,,,,0.000000,4.000000,4.000000,4.000000,4.000000,4.000000,,,,,,,,,,,,,,,,,,,,,,,,,,,,,,,,,,,,,
1577742733.859507,74.000000,0.000000,4220.000000,4307.692383,4211.282227,4123.077148,4211.282227,450.000000,4.000000,,,,0.000000,4.000000,4.000000,4.000000,4.000000,4.000000,37.000000,0.000000,0.071036,-0.347656,0.812988,0.461670,0.510262,-0.628916,0.589853,8.627353,-47.107361,56.715923,,,,,,,,,,,,,,,,,,,,,,,,,
1577742733.867204,75.000000,0.000000,4240.512695,4321.025879,4236.922852,4150.769043,4237.948730,16211.000000,4.000000,,,,0.000000,4.000000,4.000000,4.000000,4.000000,4.000000,,,,,,,,,,,,,64.921844,14.883322,6.720096,6.925035,4.559674,2.530751,2.262045,2.263970,2.443593,2.912364,8.452929,4.005026,4.715579,5.723573,3.530704,11.436783,7.396443,8.135300,7.032201,5.387513,29.154736,12.380715,7.889817,7.646344,4.736741
