title:013, start timestamp:2019-12-31T00:52:55.997109+03:00, stop timestamp:2019-12-31T00:53:39.908214+03:00, headset type:INSIGHT, headset serial:A2D200FB, headset firmware:930, subject name:Qasim, channels:56, sampling rate:eeg_128;mot_64;pow_8, samples:5636      , version:2.0
Timestamp,EEG.Counter,EEG.Interpolated,EEG.AF3,EEG.T7,EEG.Pz,EEG.T8,EEG.AF4,EEG.RawCq,EEG.Battery,MarkerIndex,MarkerType,MarkerValueInt,EEG.MarkerHardware,CQ.AF3,CQ.T7,CQ.Pz,CQ.T8,CQ.AF4,MOT.CounterMems,MOT.InterpolatedMems,MOT.Q0,MOT.Q1,MOT.Q2,MOT.Q3,MOT.AccX,MOT.AccY,MOT.AccZ,MOT.MagX,MOT.MagY,MOT.MagZ,POW.AF3.Theta,POW.AF3.Alpha,POW.AF3.BetaL,POW.AF3.BetaH,POW.AF3.Gamma,POW.T7.Theta,POW.T7.Alpha,POW.T7.BetaL,POW.T7.BetaH,POW.T7.Gamma,POW.Pz.Theta,POW.Pz.Alpha,POW.Pz.BetaL,POW.Pz.BetaH,POW.Pz.Gamma,POW.T8.Theta,POW.T8.Alpha,POW.T8.BetaL,POW.T8.BetaH,POW.T8.Gamma,POW.AF4.Theta,POW.AF4.Alpha,POW.AF4.BetaL,POW.AF4.BetaH,POW.AF4.Gamma
1577742775.997109,98.000000,0.000000,4328.717773,4330.256348,4358.461426,4204.615234,4263.077148,450.000000,4.000000,,,,0.000000,4.000000,4.000000,4.000000,4.000000,4.000000,49.000000,0.000000,0.086044,-0.380615,0.799561,0.456543,0.494636,-0.653330,0.574716,-0.306385,-48.197552,57.641624,,,,,,,,,,,,,,,,,,,,,,,,,
1577742776.004805,99.000000,0.000000,4385.641113,4333.846191,4409.230957,4266.666504,4329.230957,16198.000000,4.000000,,,,0.000000,4.000000,4.000000,4.000000,4.000000,4.000000,,,,,,,,,,,,,,,,,,,,,,,,,,,,,,,,,,,,,
1577742776.012601,100.000000,0.000000,4356.922852,4301.025879,4383.589844,4242.563965,4304.615234,450.000000,4.000000,,,,0.000000,4.000000,4.000000,4.000000,4.000000,4.000000,50.000000,0.000000,0.085063,-0.381348,0.799316,0.456543,0.505379,-0.656260,0.556161,0.621484,-48.342472,57.859001,,,,,,,,,,,,,,,,,,,,,,,,,
1577742776.020298,101.000000,0.000000,4287.179688,4278.461426,4342.051270,4181.025879,4230.256348,450.000000,4.000000,,,,0.000000,4.000000,4.000000,4.000000,4.000000,4.000000,,,,,,,,,,,,,,,,,,,,,,,,,,,,,,,,,,,,,
1577742776.028094,102.000000,0.000000,4279.487305,4270.769043,4358.974121,4185.128418,4227.179688,450.000000,4.000000,,,,0.000000,4.000000,4.000000,4.000000,4.000000,4.000000,51.000000,0.000000,0.085167,-0.381836,0.799072,0.456543,0.478523,-0.651865,0.562509,1.516382,-48.413086,58.114452,,,,,,,,,,,,,,,,,,,,,,,,,
1577742776.035790,103.000000,0.000000,4312.307617,4254.871582,4383.077148,4215.897461,4264.615234,16198.000000,4.000000,,,,0.000000,4.000000,4.000000,4.000000,4.000000,4.000000,,,,,,,,,,,,,,,,,,,,,,,,,,,,,,,,,,,,,
1577742776.043587,104.000000,0.000000,4290.256348,4225.128418,4364.102539,4188.205078,4240.512695,450.000000,4.000000,,,,0.000000,4.000000,4.000000,4.000000,4.000000,4.000000,52.000000,0.000000,0.085266,-0.382324,0.798828,0.456543,0.488777,-0.658701,0.564950,2.501236,-48.416821,58.463989,,,,,,,,,,,,,,,,,,,,,,,,,
1577742776.051283,105.000000,0.000000,4237.436035,4203.589844,4364.615234,4157.436035,4200.000000,450.000000,4.000000,,,,0.000000,4.000000,4.000000,4.000000,4.000000,4.000000,,,,,,,,,,,,,,,,,,,,,,,,,,,,,,,,,,,,,
1577742776.058979,106.000000,0.000000,4244.102539,4201.538574,4386.153809,4168.205078,4207.179688,450.000000,4.000000,,,,0.000000,4.000000,4.000000,4.000000,4.000000,4.000000,53.000000,0.000000,0.084164,-0.382568,0.798828,0.456543,0.478035,-0.643565,0.566903,-0.560210,-48.180923,56.625221,,,,,,,,,,,,,,,,,,,,,,,,,
1577742776.066776,107.000000,0.000000,4252.307617,4192.820313,4356.410156,4146.666504,4192.820313,16198.000000,4.000000,,,,0.000000,4.000000,4.000000,4.000000,4.000000,4.000000,,,,,,,,,,,,,4.873751,6.954696,7.318184,3.490803,5.447495,3.579844,1.719877,2.326104,2.057339,2.409033,9.442997,1.825453,3.965247,3.099669,3.961102,7.667809,6.279734,5.718492,3.989734,5.966184,4.589266,5.202128,6.204473,3.883054,5.461986
1577742776.074472,108.000000,0.000000,4224.615234,4192.307617,4327.179688,4106.666504,4155.897461,450.000000,4.000000,,,,0.000000,4.000000,4.000000,4.000000,4.000000,4.000000,54.000000,0.000000,0.084046,-0.382813,0.798584,0.456787,0.481941,-0.636240,0.572763,-3.195881,-48.207874,54.910511,,,,,,,,,,,,,,,,,,,,,,,,,
1577742776.082268,109.000000,0.000000,4227.692383,4201.538574,4351.282227,4119.487305,4159.487305,450.000000,4.000000,,,,0.000000,4.000000,4.000000,4.000000,4.000000,4.000000,,,,,,,,,,,,,,,,,,,,,,,,,,,,,,,,,,,,,
1577742776.089965,110.000000,0.000000,4236.922852,4191.794922,4346.666504,4132.820313,4165.641113,450.000000,4.000000,,,,0.000000,4.000000,4.000000,4.000000,4.000000,4.000000,55.000000,0.000000,0.083926,-0.383057,0.798340,0.457031,0.478523,-0.629892,0.575692,-3.833338,-48.172318,55.341183,,,,,,,,,,,,,,,,,,,,,,,,,
1577742776.097761,111.000000,0.000000,4198.974121,4177.948730,4306.666504,4107.179688,4137.436035,16198.000000,4.000000,,,,0.000000,4.000000,4.000000,4.000000,4.000000,4.000000,,,,,,,,,,,,,,,,,,,,,,,,,,,,,,,,,,,,,
1577742776.105457,112.000000,0.000000,4164.615234,4187.179688,4297.948730,4086.666748,4114.871582,450.000000,4.000000,,,,0.000000,4.000000,4.000000,4.000000,4.000000,4.000000,56.000000,0.000000,0.083803,-0.383301,0.798096,0.457275,0.478523,-0.636240,0.584970,-6.261327,-48.080498,55.668968,,,,,,,,,,,,,,,,,,,,,,,,,
1577742776.113254,113.000000,0.000000,4156.410156,4186.153809,4290.769043,4072.820557,4109.743652,450.000000,4.000000,,,,0.000000,4.000000,4.000000,4.000000,4.000000,4.000000,,,,,,,,,,,,,,,,,,,,,,,,,,,,,,,,,,,,,
1577742776.120950,114.000000,0.000000,4124.615234,4152.307617,4262.563965,4049.230713,4082.051270,450.000000,4.000000,,,,0.000000,4.000000,4.000000,4.000000,4.000000,4.000000,57.000000,0.000000,0.082460,-0.383301,0.798096,0.457520,0.460456,-0.662120,0.575204,-4.498702,-48.177307,56.023792,,,,,,,,,,,,,,,,,,,,,,,,,
1577742776.128746,115.000000,0.000000,4124.102539,4159.487305,4286.666504,4059.487061,4083.589844,16198.000000,4.000000,,,,0.000000,4.000000,4.000000,4.000000,4.000000,4.000000,,,,,,,,,,,,,,,,,,,,,,,,,,,,,,,,,,,,,
1577742776.136443,116.000000,0.000000,4206.666504,4229.743652,4377.436035,4136.922852,4170.256348,450.000000,4.000000,,,,0.000000,4.000000,4.000000,4.000000,4.000000,4.000000,58.000000,0.000000,0.083587,-0.383057,0.798096,0.457520,0.480964,-0.679698,0.577157,-1.117879,-48.204624,56.283321,,,,,,,,,,,,,,,,,,,,,,,,,
1577742776.144239,117.000000,0.000000,4248.717773,4256.922852,4417.948730,4189.230957,4216.922852,450.000000,4.000000,,,,0.000000,4.000000,4.000000,4.000000,4.000000,4.000000,,,,,,,,,,,,,,,,,,,,,,,,,,,,,,,,,,,,,
1577742776.151936,118.000000,0.000000,4206.666504,4215.384766,4382.563965,4155.897461,4173.333496,450.000000,4.000000,,,,0.000000,4.000000,4.000000,4.000000,4.000000,4.000000,59.000000,0.000000,0.082585,-0.383057,0.798340,0.457275,0.474128,-0.687510,0.579599,-1.903322,-48.169388,56.636524,,,,,,,,,,,,,,,,,,,,,,,,,
1577742776.159632,119.000000,0.000000,4180.512695,4187.692383,4358.461426,4118.974121,4145.641113,16198.000000,4.000000,,,,0.000000,4.000000,4.000000,4.000000,4.000000,4.000000,,,,,,,,,,,,,,,,,,,,,,,,,,,,,,,,,,,,,
1577742776.167429,120.000000,0.000000,4184.102539,4203.589844,4353.333496,4121.025879,4154.358887,450.000000,4.000000,,,,0.000000,4.000000,4.000000,4.000000,4.000000,4.000000,60.000000,0.000000,0.082585,-0.383057,0.798340,0.457275,0.453620,-0.673838,0.579110,-0.636313,-48.317127,56.774963,,,,,,,,,,,,,,,,,,,,,,,,,
1577742776.175225,121.000000,0.000000,4184.615234,4228.205078,4347.692383,4125.641113,4160.512695,450.000000,4.000000,,,,0.000000,4.000000,4.000000,4.000000,4.000000,4.000000,,,,,,,,,,,,,,,,,,,,,,,,,,,,,,,,,,,,,
1577742776.183022,122.000000,0.000000,4193.846191,4235.384766,4353.846191,4126.153809,4167.692383,450.000000,4.000000,,,,0.000000,4.000000,4.000000,4.000000,4.000000,4.000000,61.000000,0.000000,0.082460,-0.383301,0.798096,0.457520,0.481941,-0.643565,0.580575,0.384364,-48.151012,56.959373,,,,,,,,,,,,,,,,,,,,,,,,,
1577742776.190718,123.000000,0.000000,4214.871582,4238.974121,4368.717773,4139.487305,4183.077148,16198.000000,4.000000,,,,0.000000,4.000000,4.000000,4.000000,4.000000,4.000000,,,,,,,,,,,,,4.892438,6.225189,9.228491,4.188121,5.996668,5.635321,1.930857,3.155534,2.210776,2.684930,9.664572,2.084750,4.884517,3.827056,4.281435,8.528279,7.430189,7.005820,4.941561,6.827631,4.486066,5.041167,8.092775,4.420095,6.133945
1577742776.198415,124.000000,0.000000,4211.794922,4247.179688,4364.615234,4142.563965,4178.974121,450.000000,4.000000,,,,0.000000,4.000000,4.000000,4.000000,4.000000,4.000000,62.000000,0.000000,0.083461,-0.383301,0.797852,0.457764,0.478035,-0.628428,0.576669,3.217065,-48.180954,57.125340,,,,,,,,,,,,,,,,,,,,,,,,,
1577742776.206211,125.000000,0.000000,4186.666504,4241.538574,4340.512695,4119.487305,4156.410156,450.000000,4.000000,,,,0.000000,4.000000,4.000000,4.000000,4.000000,4.000000,,,,,,,,,,,,,,,,,,,,,,,,,,,,,,,,,,,,,
1577742776.214008,126.000000,0.000000,4160.000000,4221.538574,4314.358887,4083.589844,4127.692383,450.000000,4.000000,,,,0.000000,4.000000,4.000000,4.000000,4.000000,4.000000,63.000000,0.000000,0.080604,-0.383545,0.797607,0.458496,0.475593,-0.635752,0.556161,3.852405,-48.207905,57.394344,,,,,,,,,,,,,,,,,,,,,,,,,
1577742776.221704,127.000000,0.000000,4133.846191,4206.153809,4296.410156,4049.743652,4095.897461,235.000000,4.000000,,,,0.000000,4.000000,4.000000,4.000000,4.000000,4.000000,,,,,,,,,,,,,,,,,,,,,,,,,,,,,,,,,,,,,
1577742776.229401,0.000000,0.000000,4148.717773,4217.948730,4315.384766,4065.128174,4107.179688,450.000000,4.000000,,,,0.000000,4.000000,4.000000,4.000000,4.000000,4.000000,0.000000,0.000000,0.081398,-0.383301,0.797363,0.458984,0.466804,-0.662608,0.557137,4.424210,-48.172344,55.602722,,,,,,,,,,,,,,,,,,,,,,,,,
1577742776.237197,1.000000,0.000000,4214.358887,4244.102539,4371.282227,4133.846191,4175.897461,450.000000,4.000000,,,,0.000000,4.000000,4.000000,4.000000,4.000000,4.000000,,,,,,,,,,,,,,,,,,,,,,,,,,,,,,,,,,,,,
1577742776.244894,2.000000,0.000000,4260.512695,4238.461426,4404.102539,4177.436035,4231.282227,16213.000000,4.000000,,,,0.000000,4.000000,4.000000,4.000000,4.000000,4.000000,1.000000,0.000000,0.081170,-0.383057,0.797363,0.459229,0.480476,-0.683604,0.576181,1.170467,-48.319786,55.964172,,,,,,,,,,,,,,,,,,,,,,,,,
1577742776.252691,3.000000,0.000000,4253.846191,4211.794922,4396.922852,4168.205078,4230.256348,450.000000,4.000000,,,,0.000000,4.000000,4.000000,4.000000,4.000000,4.000000,,,,,,,,,,,,,,,,,,,,,,,,,,,,,,,,,,,,,
1577742776.260387,4.000000,0.000000,4246.666504,4218.461426,4396.410156,4161.538574,4219.487305,16235.000000,4.000000,,,,0.000000,4.000000,4.000000,4.000000,4.000000,4.000000,2.000000,0.000000,0.082086,-0.382568,0.797363,0.459473,0.483894,-0.687510,0.564462,1.890835,-48.213219,54.255753,,,,,,,,,,,,,,,,,,,,,,,,,
1577742776.268184,5.000000,0.000000,4258.974121,4235.384766,4409.743652,4170.256348,4231.794922,450.000000,4.000000,,,,0.000000,4.000000,4.000000,4.000000,4.000000,4.000000,,,,,,,,,,,,,,,,,,,,,,,,,,,,,,,,,,,,,
1577742776.275880,6.000000,0.000000,4247.692383,4216.410156,4403.077148,4155.384766,4229.743652,16153.000000,4.000000,,,,0.000000,4.000000,4.000000,4.000000,4.000000,4.000000,3.000000,0.000000,0.080708,-0.382568,0.797363,0.459717,0.476081,-0.676280,0.555673,4.692520,-48.296757,52.777992,,,,,,,,,,,,,,,,,,,,,,,,,
1577742776.283677,7.000000,0.000000,4201.538574,4188.205078,4371.282227,4114.871582,4188.205078,450.000000,4.000000,,,,0.000000,4.000000,4.000000,4.000000,4.000000,4.000000,,,,,,,,,,,,,,,,,,,,,,,,,,,,,,,,,,,,,
1577742776.291473,8.000000,0.000000,4185.641113,4200.512695,4354.871582,4103.077148,4168.205078,450.000000,4.000000,,,,0.000000,4.000000,4.000000,4.000000,4.000000,4.000000,4.000000,0.000000,0.081722,-0.382568,0.797119,0.459961,0.505379,-0.659190,0.554208,5.120499,-48.252312,51.507824,,,,,,,,,,,,,,,,,,,,,,,,,
1577742776.299170,9.000000,0.000000,4217.948730,4237.436035,4372.307617,4131.282227,4195.384766,16204.000000,4.000000,,,,0.000000,4.000000,4.000000,4.000000,4.000000,4.000000,,,,,,,,,,,,,,,,,,,,,,,,,,,,,,,,,,,,,
1577742776.306866,10.000000,0.000000,4211.794922,4236.922852,4366.666504,4117.948730,4182.051270,450.000000,4.000000,,,,0.000000,4.000000,4.000000,4.000000,4.000000,4.000000,5.000000,0.000000,0.082086,-0.382568,0.797363,0.459473,0.483894,-0.687510,0.564462,5.445864,-48.152493,50.245041,,,,,,,,,,,,,,,,,,,,,,,,,
1577742776.314663,11.000000,0.000000,4189.230957,4230.256348,4352.820313,4095.897461,4156.410156,16213.000000,4.000000,,,,0.000000,4.000000,4.000000,4.000000,4.000000,4.000000,,,,,,,,,,,,,5.900472,6.756702,11.681090,5.161547,6.690514,8.084516,2.247041,4.134925,2.530947,2.985583,10.086868,2.743319,5.985388,4.747998,4.667877,8.595371,8.668223,8.455569,6.113250,7.775850,4.852119,6.221041,10.836622,5.294838,6.926340
1577742776.322360,12.000000,0.000000,4190.256348,4241.025879,4350.256348,4097.948730,4158.974121,450.000000,4.000000,,,,0.000000,4.000000,4.000000,4.000000,4.000000,4.000000,6.000000,0.000000,0.081722,-0.382568,0.797119,0.459961,0.505379,-0.659190,0.554208,5.798508,-48.122475,49.228165,,,,,,,,,,,,,,,,,,,,,,,,,
1577742776.330156,13.000000,0.000000,4148.717773,4223.077148,4311.794922,4048.205078,4111.282227,450.000000,4.000000,,,,0.000000,4.000000,4.000000,4.000000,4.000000,4.000000,,,,,,,,,,,,,,,,,,,,,,,,,,,,,,,,,,,,,
1577742776.337853,14.000000,0.000000,4137.948730,4225.128418,4318.974121,4040.512939,4097.948730,450.000000,4.000000,,,,0.000000,4.000000,4.000000,4.000000,4.000000,4.000000,7.000000,0.000000,0.080196,-0.382813,0.796875,0.460449,0.478523,-0.651865,0.551278,6.355149,-48.095455,50.227070,,,,,,,,,,,,,,,,,,,,,,,,,
1577742776.345649,15.000000,0.000000,4228.205078,4273.333496,4409.230957,4147.692383,4205.128418,16213.000000,4.000000,,,,0.000000,4.000000,4.000000,4.000000,4.000000,4.000000,,,,,,,,,,,,,,,,,,,,,,,,,,,,,,,,,,,,,
1577742776.353346,16.000000,0.000000,4263.077148,4276.410156,4426.666504,4189.230957,4249.230957,0.000000,4.000000,,,,0.000000,4.000000,4.000000,4.000000,4.000000,4.000000,8.000000,0.000000,0.078635,-0.383057,0.796631,0.460938,0.476081,-0.658701,0.543465,3.027943,-48.071140,51.126083,,,,,,,,,,,,,,,,,,,,,,,,,
1577742776.361142,17.000000,0.000000,4210.769043,4237.948730,4365.128418,4134.358887,4184.102539,0.000000,4.000000,,,,0.000000,4.000000,4.000000,4.000000,4.000000,4.000000,,,,,,,,,,,,,,,,,,,,,,,,,,,,,,,,,,,,,
1577742776.368838,18.000000,0.000000,4231.794922,4247.692383,4378.461426,4149.743652,4205.641113,0.000000,4.000000,,,,0.000000,4.000000,4.000000,4.000000,4.000000,4.000000,9.000000,0.000000,0.079429,-0.382813,0.796387,0.461426,0.468757,-0.662608,0.553231,3.921456,-47.989441,51.815567,,,,,,,,,,,,,,,,,,,,,,,,,
1577742776.376535,19.000000,0.000000,4286.153809,4270.769043,4428.205078,4198.461426,4272.307617,0.000000,4.000000,,,,0.000000,4.000000,4.000000,4.000000,4.000000,4.000000,,,,,,,,,,,,,,,,,,,,,,,,,,,,,,,,,,,,,
1577742776.384332,20.000000,0.000000,4233.333496,4236.922852,4398.974121,4156.922852,4220.512695,0.000000,4.000000,,,,0.000000,4.000000,4.000000,4.000000,4.000000,4.000000,10.000000,0.000000,0.079187,-0.382568,0.796387,0.461670,0.468269,-0.692393,0.557137,0.717988,-48.095356,52.495914,,,,,,,,,,,,,,,,,,,,,,,,,
1577742776.392128,21.000000,0.000000,4181.538574,4212.307617,4357.436035,4107.179688,4166.666504,0.000000,4.000000,,,,0.000000,4.000000,4.000000,4.000000,4.000000,4.000000,,,,,,,,,,,,,,,,,,,,,,,,,,,,,,,,,,,,,
1577742776.399824,22.000000,0.000000,4229.743652,4240.512695,4370.769043,4125.128418,4204.102539,0.000000,4.000000,,,,0.000000,4.000000,4.000000,4.000000,4.000000,4.000000,11.000000,0.000000,0.078942,-0.382324,0.796387,0.461914,0.478523,-0.696788,0.562997,-1.985687,-48.250496,53.108231,,,,,,,,,,,,,,,,,,,,,,,,,
1577742776.407621,23.000000,0.000000,4273.333496,4261.025879,4381.538574,4134.871582,4233.333496,0.000000,4.000000,,,,0.000000,4.000000,4.000000,4.000000,4.000000,4.000000,,,,,,,,,,,,,,,,,,,,,,,,,,,,,,,,,,,,,
1577742776.415317,24.000000,0.000000,4281.025879,4247.692383,4367.179688,4109.743652,4232.820313,0.000000,4.000000,,,,0.000000,4.000000,4.000000,4.000000,4.000000,4.000000,12.000000,0.000000,0.078942,-0.382324,0.796387,0.461914,0.492683,-0.689952,0.543954,-0.650626,-48.390121,53.778942,,,,,,,,,,,,,,,,,,,,,,,,,
1577742776.423113,25.000000,0.000000,4320.000000,4252.820313,4361.025879,4096.410156,4252.820313,0.000000,4.000000,,,,0.000000,4.000000,4.000000,4.000000,4.000000,4.000000,,,,,,,,,,,,,,,,,,,,,,,,,,,,,,,,,,,,,
1577742776.430810,26.000000,0.000000,4393.846191,4292.307617,4387.692383,4117.948730,4309.230957,0.000000,4.000000,,,,0.000000,4.000000,4.000000,4.000000,4.000000,4.000000,13.000000,0.000000,0.077500,-0.382324,0.796387,0.462158,0.482429,-0.676280,0.560067,0.550928,-48.455971,54.203140,,,,,,,,,,,,,,,,,,,,,,,,,
1577742776.438606,27.000000,0.000000,4448.205078,4311.794922,4411.282227,4138.461426,4358.461426,0.000000,4.000000,,,,0.000000,4.000000,4.000000,4.000000,4.000000,4.000000,,,,,,,,,,,,,7.512228,8.722925,14.367734,6.434507,7.372721,10.776353,2.703461,5.004759,2.972777,3.241159,10.161830,4.231858,7.159653,5.871141,5.044479,8.059316,10.317237,9.879433,7.561689,8.617754,5.774304,9.240015,14.056304,6.570904,7.663550
1577742776.446302,28.000000,0.000000,4455.384766,4314.871582,4388.205078,4112.307617,4357.948730,0.000000,4.000000,,,,0.000000,4.000000,4.000000,4.000000,4.000000,4.000000,14.000000,0.000000,0.078942,-0.382324,0.796387,0.461914,0.475105,-0.669444,0.575692,1.632327,-48.455418,54.644730,,,,,,,,,,,,,,,,,,,,,,,,,
1577742776.453999,29.000000,0.000000,4456.410156,4329.743652,4364.615234,4074.871826,4343.077148,0.000000,4.000000,,,,0.000000,4.000000,4.000000,4.000000,4.000000,4.000000,,,,,,,,,,,,,,,,,,,,,,,,,,,,,,,,,,,,,
1577742776.461796,30.000000,0.000000,4480.512695,4344.102539,4385.641113,4083.076904,4360.000000,0.000000,4.000000,,,,0.000000,4.000000,4.000000,4.000000,4.000000,4.000000,15.000000,0.000000,0.078942,-0.382324,0.796387,0.461914,0.473152,-0.679698,0.572274,-1.282412,-48.574551,55.101978,,,,,,,,,,,,,,,,,,,,,,,,,
1577742776.469492,31.000000,0.000000,4491.794922,4355.897461,4412.820313,4111.794922,4384.102539,0.000000,4.000000,,,,0.000000,4.000000,4.000000,4.000000,4.000000,4.000000,,,,,,,,,,,,,,,,,,,,,,,,,,,,,,,,,,,,,
1577742776.477289,32.000000,0.000000,4476.922852,4368.717773,4415.384766,4121.025879,4378.974121,0.000000,4.000000,,,,0.000000,4.000000,4.000000,4.000000,4.000000,4.000000,16.000000,0.000000,0.080115,-0.382080,0.796387,0.461914,0.479011,-0.682139,0.582528,-4.025309,-48.681770,55.513504,,,,,,,,,,,,,,,,,,,,,,,,,
1577742776.484985,33.000000,0.000000,4439.487305,4350.256348,4393.846191,4101.025879,4341.025879,0.000000,4.000000,,,,0.000000,4.000000,4.000000,4.000000,4.000000,4.000000,,,,,,,,,,,,,,,,,,,,,,,,,,,,,,,,,,,,,
1577742776.492682,34.000000,0.000000,4396.922852,4326.153809,4371.794922,4078.461426,4304.615234,0.000000,4.000000,,,,0.000000,4.000000,4.000000,4.000000,4.000000,4.000000,17.000000,0.000000,0.080259,-0.381836,0.796631,0.461670,0.470222,-0.673838,0.561044,-2.486286,-48.658638,55.824059,,,,,,,,,,,,,,,,,,,,,,,,,
1577742776.500479,35.000000,0.000000,4395.897461,4346.666504,4384.615234,4100.000000,4310.769043,0.000000,4.000000,,,,0.000000,4.000000,4.000000,4.000000,4.000000,4.000000,,,,,,,,,,,,,,,,,,,,,,,,,,,,,,,,,,,,,
1577742776.508275,36.000000,0.000000,4404.102539,4362.563965,4403.589844,4128.717773,4321.025879,0.000000,4.000000,,,,0.000000,4.000000,4.000000,4.000000,4.000000,4.000000,18.000000,0.000000,0.078986,-0.381592,0.796875,0.461670,0.475105,-0.682628,0.565438,-1.101165,-48.637817,55.983929,,,,,,,,,,,,,,,,,,,,,,,,,
1577742776.515972,37.000000,0.000000,4358.461426,4343.077148,4388.205078,4114.871582,4292.820313,0.000000,4.000000,,,,0.000000,4.000000,4.000000,4.000000,4.000000,4.000000,,,,,,,,,,,,,,,,,,,,,,,,,,,,,,,,,,,,,
1577742776.523768,38.000000,0.000000,4317.436035,4333.846191,4375.897461,4104.615234,4271.282227,0.000000,4.000000,,,,0.000000,4.000000,4.000000,4.000000,4.000000,4.000000,19.000000,0.000000,0.080157,-0.381348,0.796875,0.461670,0.487800,-0.677256,0.540536,1.939904,-48.619083,56.426888,,,,,,,,,,,,,,,,,,,,,,,,,
1577742776.531465,39.000000,0.000000,4336.410156,4352.307617,4395.384766,4137.948730,4295.897461,0.000000,4.000000,,,,0.000000,4.000000,4.000000,4.000000,4.000000,4.000000,,,,,,,,,,,,,,,,,,,,,,,,,,,,,,,,,,,,,
1577742776.539261,40.000000,0.000000,4327.179688,4367.179688,4396.410156,4148.205078,4302.051270,0.000000,4.000000,,,,0.000000,4.000000,4.000000,4.000000,4.000000,4.000000,20.000000,0.000000,0.082579,-0.380615,0.797119,0.461426,0.495613,-0.663584,0.542977,2.822590,-48.602219,56.646103,,,,,,,,,,,,,,,,,,,,,,,,,
1577742776.546958,41.000000,0.000000,4273.846191,4360.512695,4367.692383,4112.820313,4262.563965,0.000000,4.000000,,,,0.000000,4.000000,4.000000,4.000000,4.000000,4.000000,,,,,,,,,,,,,,,,,,,,,,,,,,,,,,,,,,,,,
1577742776.554754,42.000000,0.000000,4258.461426,4354.358887,4355.897461,4105.641113,4240.512695,0.000000,4.000000,,,,0.000000,4.000000,4.000000,4.000000,4.000000,4.000000,21.000000,0.000000,0.082601,-0.379883,0.797607,0.461182,0.502449,-0.667979,0.540047,5.590915,-48.527225,55.048939,,,,,,,,,,,,,,,,,,,,,,,,,
1577742776.562450,43.000000,0.000000,4242.563965,4353.846191,4347.692383,4108.717773,4227.692383,0.000000,4.000000,,,,0.000000,4.000000,4.000000,4.000000,4.000000,4.000000,,,,,,,,,,,,,9.357519,12.275331,16.620909,8.040375,7.881064,13.624774,3.257307,5.503570,3.479884,3.399154,9.928292,7.049645,8.193672,7.194037,5.336391,7.642479,13.015830,10.938568,9.340016,9.173770,7.677225,14.385742,16.877890,8.271315,8.188152
1577742776.570247,44.000000,0.000000,4195.897461,4360.512695,4332.307617,4087.179443,4201.025879,0.000000,4.000000,,,,0.000000,4.000000,4.000000,4.000000,4.000000,4.000000,22.000000,0.000000,0.082613,-0.379150,0.798096,0.460938,0.526375,-0.687510,0.533211,7.962777,-48.579365,55.286320,,,,,,,,,,,,,,,,,,,,,,,,,
1577742776.577943,45.000000,0.000000,4208.717773,4384.615234,4355.897461,4112.307617,4217.948730,0.000000,4.000000,,,,0.000000,4.000000,4.000000,4.000000,4.000000,4.000000,,,,,,,,,,,,,,,,,,,,,,,,,,,,,,,,,,,,,
1577742776.585739,46.000000,0.000000,4257.948730,4393.846191,4394.358887,4171.794922,4262.051270,0.000000,4.000000,,,,0.000000,4.000000,4.000000,4.000000,4.000000,4.000000,23.000000,0.000000,0.082856,-0.378662,0.798584,0.460449,0.503426,-0.685069,0.540047,8.243176,-48.686104,55.619595,,,,,,,,,,,,,,,,,,,,,,,,,
1577742776.593436,47.000000,0.000000,4245.128418,4373.333496,4382.051270,4164.615234,4257.948730,0.000000,4.000000,,,,0.000000,4.000000,4.000000,4.000000,4.000000,4.000000,,,,,,,,,,,,,,,,,,,,,,,,,,,,,,,,,,,,,
1577742776.601232,48.000000,0.000000,4205.641113,4375.897461,4356.922852,4123.077148,4230.769043,0.000000,4.000000,,,,0.000000,4.000000,4.000000,4.000000,4.000000,4.000000,24.000000,0.000000,0.081971,-0.378418,0.799072,0.459961,0.515145,-0.685557,0.546395,4.727166,-48.782166,55.919540,,,,,,,,,,,,,,,,,,,,,,,,,
1577742776.608928,49.000000,0.000000,4211.282227,4410.769043,4383.589844,4146.153809,4241.025879,0.000000,4.000000,,,,0.000000,4.000000,4.000000,4.000000,4.000000,4.000000,,,,,,,,,,,,,,,,,,,,,,,,,,,,,,,,,,,,,
1577742776.616625,50.000000,0.000000,4217.948730,4417.436035,4407.179688,4173.846191,4242.563965,0.000000,4.000000,,,,0.000000,4.000000,4.000000,4.000000,4.000000,4.000000,25.000000,0.000000,0.081070,-0.378174,0.799561,0.459473,0.482918,-0.692393,0.563973,5.271311,-48.808811,56.189491,,,,,,,,,,,,,,,,,,,,,,,,,
1577742776.624422,51.000000,0.000000,4163.589844,4393.846191,4367.179688,4124.102539,4183.077148,0.000000,4.000000,,,,0.000000,4.000000,4.000000,4.000000,4.000000,4.000000,,,,,,,,,,,,,,,,,,,,,,,,,,,,,,,,,,,,,
1577742776.632118,52.000000,0.000000,4104.615234,4394.871582,4325.128418,4069.743652,4129.230957,0.000000,4.000000,,,,0.000000,4.000000,4.000000,4.000000,4.000000,4.000000,26.000000,0.000000,0.081538,-0.377930,0.800049,0.458740,0.462898,-0.695323,0.570809,5.761041,-48.653343,56.492264,,,,,,,,,,,,,,,,,,,,,,,,,
1577742776.639915,53.000000,0.000000,4098.974121,4415.897461,4336.922852,4083.076904,4128.205078,0.000000,4.000000,,,,0.000000,4.000000,4.000000,4.000000,4.000000,4.000000,,,,,,,,,,,,,,,,,,,,,,,,,,,,,,,,,,,,,
1577742776.647611,54.000000,0.000000,4095.897461,4416.410156,4351.794922,4098.974121,4127.692383,0.000000,4.000000,,,,0.000000,4.000000,4.000000,4.000000,4.000000,4.000000,27.000000,0.000000,0.083242,-0.377930,0.800293,0.458008,0.457038,-0.708507,0.575204,2.253984,-48.573238,56.704945,,,,,,,,,,,,,,,,,,,,,,,,,
1577742776.655408,55.000000,0.000000,4082.051270,4412.820313,4348.717773,4091.794922,4118.974121,0.000000,4.000000,,,,0.000000,4.000000,4.000000,4.000000,4.000000,4.000000,,,,,,,,,,,,,,,,,,,,,,,,,,,,,,,,,,,,,
1577742776.663105,56.000000,0.000000,4094.871826,4428.717773,4352.820313,4108.717773,4132.307617,0.000000,4.000000,,,,0.000000,4.000000,4.000000,4.000000,4.000000,4.000000,28.000000,0.000000,0.081444,-0.378174,0.800781,0.457275,0.459968,-0.696788,0.571298,-0.782737,-48.441330,57.015987,,,,,,,,,,,,,,,,,,,,,,,,,
1577742776.670901,57.000000,0.000000,4119.487305,4447.692383,4361.538574,4138.461426,4153.333496,0.000000,4.000000,,,,0.000000,4.000000,4.000000,4.000000,4.000000,4.000000,,,,,,,,,,,,,,,,,,,,,,,,,,,,,,,,,,,,,
1577742776.678598,58.000000,0.000000,4127.692383,4446.666504,4354.358887,4143.589844,4159.487305,0.000000,4.000000,,,,0.000000,4.000000,4.000000,4.000000,4.000000,4.000000,29.000000,0.000000,0.083264,-0.378662,0.800781,0.456543,0.465339,-0.663096,0.564950,2.226490,-48.322609,57.236107,,,,,,,,,,,,,,,,,,,,,,,,,
1577742776.686394,59.000000,0.000000,4115.897461,4426.666504,4341.538574,4129.230957,4150.256348,0.000000,4.000000,,,,0.000000,4.000000,4.000000,4.000000,4.000000,4.000000,,,,,,,,,,,,,12.551878,17.149109,17.633732,9.878113,8.118772,16.563677,3.795057,5.471394,3.983081,3.441424,9.429104,11.334411,8.801128,8.603054,5.506073,8.080997,17.093990,11.244408,11.344209,9.350440,11.563627,21.179920,18.273792,10.238807,8.433191
1577742776.694091,60.000000,0.000000,4103.589844,4420.000000,4338.461426,4121.025879,4145.128418,0.000000,4.000000,,,,0.000000,4.000000,4.000000,4.000000,4.000000,4.000000,30.000000,0.000000,0.082705,-0.379150,0.801025,0.455811,0.480964,-0.651377,0.557137,4.874979,-48.275578,57.374405,,,,,,,,,,,,,,,,,,,,,,,,,
1577742776.701887,61.000000,0.000000,4111.282227,4419.487305,4330.769043,4119.487305,4149.743652,0.000000,4.000000,,,,0.000000,4.000000,4.000000,4.000000,4.000000,4.000000,,,,,,,,,,,,,,,,,,,,,,,,,,,,,,,,,,,,,
1577742776.709584,62.000000,0.000000,4119.487305,4407.692383,4317.436035,4115.897461,4153.333496,0.000000,4.000000,,,,0.000000,4.000000,4.000000,4.000000,4.000000,4.000000,31.000000,0.000000,0.083153,-0.379639,0.801025,0.455322,0.495125,-0.642100,0.540536,7.497880,-48.233250,57.379238,,,,,,,,,,,,,,,,,,,,,,,,,
1577742776.717381,63.000000,0.000000,4096.410156,4392.820313,4309.230957,4105.641113,4146.153809,0.000000,4.000000,,,,0.000000,4.000000,4.000000,4.000000,4.000000,4.000000,,,,,,,,,,,,,,,,,,,,,,,,,,,,,,,,,,,,,
1577742776.725077,64.000000,0.000000,4065.641113,4384.615234,4289.743652,4082.051270,4126.666504,450.000000,4.000000,,,,0.000000,4.000000,4.000000,4.000000,4.000000,4.000000,32.000000,0.000000,0.082254,-0.380127,0.801025,0.455078,0.498054,-0.637217,0.559091,7.824769,-48.075523,55.648945,,,,,,,,,,,,,,,,,,,,,,,,,
1577742776.732874,65.000000,0.000000,4076.410156,4400.000000,4281.538574,4084.102539,4129.743652,450.000000,4.000000,,,,0.000000,4.000000,4.000000,4.000000,4.000000,4.000000,,,,,,,,,,,,,,,,,,,,,,,,,,,,,,,,,,,,,
1577742776.740570,66.000000,0.000000,4110.256348,4413.846191,4305.641113,4130.769043,4162.051270,16206.000000,4.000000,,,,0.000000,4.000000,4.000000,4.000000,4.000000,4.000000,33.000000,0.000000,0.082705,-0.379150,0.801025,0.455811,0.480964,-0.651377,0.557137,10.033060,-48.113014,54.151493,,,,,,,,,,,,,,,,,,,,,,,,,
1577742776.748366,67.000000,0.000000,4122.051270,4392.820313,4310.256348,4157.948730,4180.512695,450.000000,4.000000,,,,0.000000,4.000000,4.000000,4.000000,4.000000,4.000000,,,,,,,,,,,,,,,,,,,,,,,,,,,,,,,,,,,,,
1577742776.756063,68.000000,0.000000,4112.820313,4376.922852,4285.641113,4134.358887,4167.692383,16226.000000,4.000000,,,,0.000000,4.000000,4.000000,4.000000,4.000000,4.000000,34.000000,0.000000,0.082254,-0.380127,0.801025,0.455078,0.498054,-0.637217,0.559091,10.106430,-47.967312,52.743973,,,,,,,,,,,,,,,,,,,,,,,,,
1577742776.763859,69.000000,0.000000,4123.077148,4405.641113,4288.717773,4132.307617,4176.410156,450.000000,4.000000,,,,0.000000,4.000000,4.000000,4.000000,4.000000,4.000000,,,,,,,,,,,,,,,,,,,,,,,,,,,,,,,,,,,,,
1577742776.771555,70.000000,0.000000,4143.589844,4417.436035,4298.461426,4159.487305,4204.615234,16142.000000,4.000000,,,,0.000000,4.000000,4.000000,4.000000,4.000000,4.000000,35.000000,0.000000,0.082475,-0.380371,0.801025,0.454834,0.493172,-0.629892,0.565438,6.344281,-47.836178,53.391296,,,,,,,,,,,,,,,,,,,,,,,,,
1577742776.779352,71.000000,0.000000,4126.666504,4374.358887,4271.282227,4140.000000,4186.666504,450.000000,4.000000,,,,0.000000,4.000000,4.000000,4.000000,4.000000,4.000000,,,,,,,,,,,,,,,,,,,,,,,,,,,,,,,,,,,,,
1577742776.787048,72.000000,0.000000,4105.128418,4359.487305,4250.256348,4115.384766,4161.025879,450.000000,4.000000,,,,0.000000,4.000000,4.000000,4.000000,4.000000,4.000000,36.000000,0.000000,0.081443,-0.380371,0.801270,0.454590,0.485359,-0.669444,0.569345,8.580990,-47.897606,52.059799,,,,,,,,,,,,,,,,,,,,,,,,,
1577742776.794845,73.000000,0.000000,4108.205078,4398.974121,4265.641113,4137.436035,4173.333496,16204.000000,4.000000,,,,0.000000,4.000000,4.000000,4.000000,4.000000,4.000000,,,,,,,,,,,,,,,,,,,,,,,,,,,,,,,,,,,,,
1577742776.802542,74.000000,0.000000,4106.153809,4414.871582,4269.230957,4147.179688,4180.512695,450.000000,4.000000,,,,0.000000,4.000000,4.000000,4.000000,4.000000,4.000000,37.000000,0.000000,0.082795,-0.380371,0.801270,0.454346,0.481941,-0.670420,0.572274,8.739752,-48.072521,52.655907,,,,,,,,,,,,,,,,,,,,,,,,,
1577742776.810338,75.000000,0.000000,4107.692383,4390.769043,4262.563965,4140.000000,4178.974121,16212.000000,4.000000,,,,0.000000,4.000000,4.000000,4.000000,4.000000,4.000000,,,,,,,,,,,,,19.760048,22.803179,16.935694,11.662702,8.085221,19.207844,4.292220,4.920537,4.388183,3.382293,8.859653,16.604465,8.735035,9.848053,5.558752,9.641569,22.265991,10.589435,13.256947,9.168817,17.889011,28.579010,17.656927,12.119638,8.427075
1577742776.818035,76.000000,0.000000,4139.487305,4390.769043,4284.102539,4168.205078,4203.589844,450.000000,4.000000,,,,0.000000,4.000000,4.000000,4.000000,4.000000,4.000000,38.000000,0.000000,0.081765,-0.380371,0.801514,0.454102,0.462898,-0.675792,0.582040,10.916361,-47.930866,53.371853,,,,,,,,,,,,,,,,,,,,,,,,,
1577742776.825831,77.000000,0.000000,4144.102539,4400.512695,4292.307617,4175.897461,4207.179688,450.000000,4.000000,,,,0.000000,4.000000,4.000000,4.000000,4.000000,4.000000,,,,,,,,,,,,,,,,,,,,,,,,,,,,,,,,,,,,,
1577742776.833528,78.000000,0.000000,4098.461426,4390.256348,4273.846191,4127.179688,4162.051270,450.000000,4.000000,,,,0.000000,4.000000,4.000000,4.000000,4.000000,4.000000,39.000000,0.000000,0.080720,-0.380371,0.801758,0.453857,0.466316,-0.675792,0.585458,10.841586,-47.982826,53.896576,,,,,,,,,,,,,,,,,,,,,,,,,
1577742776.841324,79.000000,0.000000,4072.820557,4388.717773,4273.333496,4109.230957,4144.615234,16212.000000,4.000000,,,,0.000000,4.000000,4.000000,4.000000,4.000000,4.000000,,,,,,,,,,,,,,,,,,,,,,,,,,,,,,,,,,,,,
1577742776.849121,80.000000,0.000000,4090.256348,4382.051270,4289.230957,4140.512695,4170.769043,450.000000,4.000000,,,,0.000000,4.000000,4.000000,4.000000,4.000000,4.000000,40.000000,0.000000,0.080941,-0.380615,0.801758,0.453613,0.464851,-0.667979,0.588388,6.886290,-47.850140,54.548267,,,,,,,,,,,,,,,,,,,,,,,,,
1577742776.856818,81.000000,0.000000,4098.461426,4358.461426,4282.563965,4149.743652,4178.974121,450.000000,4.000000,,,,0.000000,4.000000,4.000000,4.000000,4.000000,4.000000,,,,,,,,,,,,,,,,,,,,,,,,,,,,,,,,,,,,,
1577742776.864614,82.000000,0.000000,4081.538574,4361.025879,4256.922852,4125.128418,4164.102539,450.000000,4.000000,,,,0.000000,4.000000,4.000000,4.000000,4.000000,4.000000,41.000000,0.000000,0.081257,-0.380615,0.802002,0.453125,0.446784,-0.680674,0.581064,7.214522,-47.910172,53.101070,,,,,,,,,,,,,,,,,,,,,,,,,
1577742776.872311,83.000000,0.000000,4087.692383,4392.307617,4251.794922,4127.179688,4177.436035,16212.000000,4.000000,,,,0.000000,4.000000,4.000000,4.000000,4.000000,4.000000,,,,,,,,,,,,,,,,,,,,,,,,,,,,,,,,,,,,,
1577742776.880007,84.000000,0.000000,4099.487305,4393.846191,4254.871582,4148.717773,4192.820313,450.000000,4.000000,,,,0.000000,4.000000,4.000000,4.000000,4.000000,4.000000,42.000000,0.000000,0.079033,-0.380859,0.802246,0.452881,0.450690,-0.675303,0.592294,7.450116,-47.844570,53.593056,,,,,,,,,,,,,,,,,,,,,,,,,
1577742776.887804,85.000000,0.000000,4080.512939,4374.358887,4244.102539,4147.179688,4178.974121,450.000000,4.000000,,,,0.000000,4.000000,4.000000,4.000000,4.000000,4.000000,,,,,,,,,,,,,,,,,,,,,,,,,,,,,,,,,,,,,
1577742776.895600,86.000000,0.000000,4092.307617,4372.820313,4253.846191,4165.128418,4198.974121,450.000000,4.000000,,,,0.000000,4.000000,4.000000,4.000000,4.000000,4.000000,43.000000,0.000000,0.078170,-0.381104,0.802490,0.452393,0.462898,-0.666026,0.597665,9.755688,-47.785526,54.155472,,,,,,,,,,,,,,,,,,,,,,,,,
1577742776.903297,87.000000,0.000000,4121.025879,4364.615234,4276.410156,4192.307617,4236.922852,16212.000000,4.000000,,,,0.000000,4.000000,4.000000,4.000000,4.000000,4.000000,,,,,,,,,,,,,,,,,,,,,,,,,,,,,,,,,,,,,
1577742776.911193,88.000000,0.000000,4095.384521,4350.256348,4262.563965,4169.230957,4224.102539,450.000000,4.000000,,,,0.000000,4.000000,4.000000,4.000000,4.000000,4.000000,44.000000,0.000000,0.078265,-0.380859,0.802734,0.452148,0.464363,-0.653330,0.598154,11.711072,-47.792202,54.661644,,,,,,,,,,,,,,,,,,,,,,,,,
1577742776.918990,89.000000,0.000000,4084.615479,4357.436035,4254.871582,4160.512695,4208.205078,450.000000,4.000000,,,,0.000000,4.000000,4.000000,4.000000,4.000000,4.000000,,,,,,,,,,,,,,,,,,,,,,,,,,,,,,,,,,,,,
1577742776.926786,90.000000,0.000000,4133.333496,4361.538574,4288.205078,4202.563965,4239.487305,450.000000,4.000000,,,,0.000000,4.000000,4.000000,4.000000,4.000000,4.000000,45.000000,0.000000,0.079754,-0.380615,0.802979,0.451660,0.460456,-0.671885,0.582528,11.556826,-47.798210,53.083481,,,,,,,,,,,,,,,,,,,,,,,,,
1577742776.934583,91.000000,0.000000,4159.487305,4342.051270,4303.077148,4221.538574,4262.051270,16212.000000,4.000000,,,,0.000000,4.000000,4.000000,4.000000,4.000000,4.000000,,,,,,,,,,,,,32.936550,28.372232,14.888522,12.960504,7.845889,21.394472,4.734094,4.046470,4.580733,3.259209,8.483928,21.755564,8.007380,10.602633,5.518871,11.874075,27.464476,9.264342,14.601360,8.728240,26.024794,35.141109,15.424896,13.435637,8.236853
1577742776.942280,92.000000,0.000000,4117.948730,4312.820313,4261.538574,4180.512695,4216.922852,450.000000,4.000000,,,,0.000000,4.000000,4.000000,4.000000,4.000000,4.000000,46.000000,0.000000,0.078670,-0.380615,0.803223,0.451416,0.463386,-0.667491,0.579599,13.511542,-47.803619,53.816483,,,,,,,,,,,,,,,,,,,,,,,,,
1577742776.950076,93.000000,0.000000,4062.564209,4295.897461,4212.307617,4131.282227,4156.410156,450.000000,4.000000,,,,0.000000,4.000000,4.000000,4.000000,4.000000,4.000000,,,,,,,,,,,,,,,,,,,,,,,,,,,,,,,,,,,,,
1577742776.957773,94.000000,0.000000,4031.281982,4288.205078,4194.871582,4108.205078,4133.333496,450.000000,4.000000,,,,0.000000,4.000000,4.000000,4.000000,4.000000,4.000000,47.000000,0.000000,0.077658,-0.380371,0.803711,0.450928,0.480964,-0.676768,0.577646,13.237064,-47.748672,54.296741,,,,,,,,,,,,,,,,,,,,,,,,,
1577742776.965569,95.000000,0.000000,4029.743652,4267.692383,4189.743652,4105.641113,4129.230957,16212.000000,4.000000,,,,0.000000,4.000000,4.000000,4.000000,4.000000,4.000000,,,,,,,,,,,,,,,,,,,,,,,,,,,,,,,,,,,,,
1577742776.973266,96.000000,0.000000,4059.487061,4254.358887,4198.974121,4131.282227,4147.692383,450.000000,4.000000,,,,0.000000,4.000000,4.000000,4.000000,4.000000,4.000000,48.000000,0.000000,0.080523,-0.380127,0.803955,0.450195,0.466316,-0.671885,0.588388,14.844311,-47.759033,54.848602,,,,,,,,,,,,,,,,,,,,,,,,,
1577742776.981062,97.000000,0.000000,4078.974365,4266.666504,4220.512695,4166.666504,4175.384766,450.000000,4.000000,,,,0.000000,4.000000,4.000000,4.000000,4.000000,4.000000,,,,,,,,,,,,,,,,,,,,,,,,,,,,,,,,,,,,,
1577742776.988759,98.000000,0.000000,4064.102539,4261.025879,4217.436035,4167.179688,4171.282227,450.000000,4.000000,,,,0.000000,4.000000,4.000000,4.000000,4.000000,4.000000,49.000000,0.000000,0.080602,-0.379883,0.804199,0.449951,0.481941,-0.655772,0.576181,16.350649,-47.768360,55.225647,,,,,,,,,,,,,,,,,,,,,,,,,
1577742776.996556,99.000000,0.000000,4041.025635,4217.948730,4191.282227,4144.615234,4142.563965,16212.000000,4.000000,,,,0.000000,4.000000,4.000000,4.000000,4.000000,4.000000,,,,,,,,,,,,,,,,,,,,,,,,,,,,,,,,,,,,,
1577742777.004252,100.000000,0.000000,4038.461426,4192.307617,4186.666504,4141.025879,4138.974121,450.000000,4.000000,,,,0.000000,4.000000,4.000000,4.000000,4.000000,4.000000,50.000000,0.000000,0.079521,-0.379883,0.804443,0.449707,0.475593,-0.647471,0.569833,17.586721,-47.716938,55.684620,,,,,,,,,,,,,,,,,,,,,,,,,
1577742777.011949,101.000000,0.000000,4048.205078,4198.461426,4200.000000,4148.717773,4152.820313,450.000000,4.000000,,,,0.000000,4.000000,4.000000,4.000000,4.000000,4.000000,,,,,,,,,,,,,,,,,,,,,,,,,,,,,,,,,,,,,
1577742777.019745,102.000000,0.000000,4015.384521,4161.538574,4171.794922,4117.436035,4114.358887,450.000000,4.000000,,,,0.000000,4.000000,4.000000,4.000000,4.000000,4.000000,51.000000,0.000000,0.078205,-0.379639,0.804688,0.449707,0.485359,-0.614267,0.573251,16.904726,-47.850105,54.063972,,,,,,,,,,,,,,,,,,,,,,,,,
1577742777.027542,103.000000,0.000000,3952.820557,4098.461426,4121.538574,4064.615479,4048.718018,16212.000000,4.000000,,,,0.000000,4.000000,4.000000,4.000000,4.000000,4.000000,,,,,,,,,,,,,,,,,,,,,,,,,,,,,,,,,,,,,
1577742777.035239,104.000000,0.000000,3954.871826,4098.974121,4124.102539,4063.076904,4049.743652,450.000000,4.000000,,,,0.000000,4.000000,4.000000,4.000000,4.000000,4.000000,52.000000,0.000000,0.077986,-0.379395,0.804688,0.449951,0.474617,-0.608896,0.574228,18.264837,-47.790508,54.579296,,,,,,,,,,,,,,,,,,,,,,,,,
1577742777.042935,105.000000,0.000000,3985.128174,4124.615234,4134.358887,4083.589844,4072.307617,450.000000,4.000000,,,,0.000000,4.000000,4.000000,4.000000,4.000000,4.000000,,,,,,,,,,,,,,,,,,,,,,,,,,,,,,,,,,,,,
1577742777.050732,106.000000,0.000000,3954.358887,4115.897461,4085.128174,4048.205078,4040.000000,450.000000,4.000000,,,,0.000000,4.000000,4.000000,4.000000,4.000000,4.000000,53.000000,0.000000,0.077764,-0.379150,0.804688,0.450195,0.481453,-0.626474,0.568856,17.515030,-47.736870,55.222534,,,,,,,,,,,,,,,,,,,,,,,,,
1577742777.058428,107.000000,0.000000,3922.564209,4113.846191,4044.615479,4008.718018,4011.794922,16212.000000,4.000000,,,,0.000000,4.000000,4.000000,4.000000,4.000000,4.000000,,,,,,,,,,,,,51.400425,32.918728,12.597756,13.321902,7.461931,22.493557,5.091479,3.140114,4.461423,3.113015,8.203655,25.398340,6.962487,10.565981,5.385969,13.969619,31.250666,8.027323,14.887260,8.131745,34.447693,39.483345,12.822685,13.738594,7.894375
1577742777.066225,108.000000,0.000000,3930.256348,4113.846191,4050.769287,4017.948730,4020.512939,450.000000,4.000000,,,,0.000000,4.000000,4.000000,4.000000,4.000000,4.000000,54.000000,0.000000,0.078723,-0.378662,0.804688,0.450439,0.480476,-0.648936,0.570809,16.780388,-47.688599,55.622002,,,,,,,,,,,,,,,,,,,,,,,,,
1577742777.073921,109.000000,0.000000,3924.102539,4100.000000,4048.205078,4026.666748,4018.461426,450.000000,4.000000,,,,0.000000,4.000000,4.000000,4.000000,4.000000,4.000000,,,,,,,,,,,,,,,,,,,,,,,,,,,,,,,,,,,,,
1577742777.081718,110.000000,0.000000,3921.025635,4114.358887,4033.846191,4029.743652,4023.076904,450.000000,4.000000,,,,0.000000,4.000000,4.000000,4.000000,4.000000,4.000000,55.000000,0.000000,0.078274,-0.378174,0.804688,0.450928,0.476570,-0.647471,0.575204,18.093117,-47.585335,56.101154,,,,,,,,,,,,,,,,,,,,,,,,,
1577742777.089415,111.000000,0.000000,3958.974365,4155.384766,4053.333252,4063.589844,4061.538574,16212.000000,4.000000,,,,0.000000,4.000000,4.000000,4.000000,4.000000,4.000000,,,,,,,,,,,,,,,,,,,,,,,,,,,,,,,,,,,,,
1577742777.097211,112.000000,0.000000,3973.846191,4155.384766,4089.230713,4089.230713,4081.538574,450.000000,4.000000,,,,0.000000,4.000000,4.000000,4.000000,4.000000,4.000000,56.000000,0.000000,0.076698,-0.377686,0.804932,0.451172,0.467781,-0.657725,0.593759,19.334389,-47.552216,56.472576,,,,,,,,,,,,,,,,,,,,,,,,,
1577742777.104908,113.000000,0.000000,3941.025635,4118.974121,4075.897461,4068.718018,4057.948730,450.000000,4.000000,,,,0.000000,4.000000,4.000000,4.000000,4.000000,4.000000,,,,,,,,,,,,,,,,,,,,,,,,,,,,,,,,,,,,,
1577742777.112704,114.000000,0.000000,3928.718018,4123.077148,4033.333252,4037.948730,4032.820557,450.000000,4.000000,,,,0.000000,4.000000,4.000000,4.000000,4.000000,4.000000,57.000000,0.000000,0.077659,-0.377197,0.804932,0.451416,0.469734,-0.661143,0.597665,18.477627,-47.582226,56.806854,,,,,,,,,,,,,,,,,,,,,,,,,
1577742777.120401,115.000000,0.000000,3968.205078,4167.179688,4047.179443,4058.974365,4050.769287,16212.000000,4.000000,,,,0.000000,4.000000,4.000000,4.000000,4.000000,4.000000,,,,,,,,,,,,,,,,,,,,,,,,,,,,,,,,,,,,,
1577742777.128197,116.000000,0.000000,4004.615479,4176.410156,4090.256348,4102.563965,4082.564209,450.000000,4.000000,,,,0.000000,4.000000,4.000000,4.000000,4.000000,4.000000,58.000000,0.000000,0.078603,-0.376709,0.804932,0.451660,0.466804,-0.674815,0.583505,17.826172,-47.549416,56.988075,,,,,,,,,,,,,,,,,,,,,,,,,
1577742777.135894,117.000000,0.000000,3993.333252,4135.897461,4068.718018,4090.769287,4065.128174,450.000000,4.000000,,,,0.000000,4.000000,4.000000,4.000000,4.000000,4.000000,,,,,,,,,,,,,,,,,,,,,,,,,,,,,,,,,,,,,
1577742777.143691,118.000000,0.000000,3969.743652,4140.512695,4039.487061,4054.871826,4033.846191,450.000000,4.000000,,,,0.000000,4.000000,4.000000,4.000000,4.000000,4.000000,59.000000,0.000000,0.075576,-0.376221,0.805176,0.452148,0.469245,-0.639658,0.587900,17.299677,-47.579704,55.356712,,,,,,,,,,,,,,,,,,,,,,,,,
1577742777.151387,119.000000,0.000000,3960.000000,4186.666504,4057.435791,4052.307617,4034.871826,16212.000000,4.000000,,,,0.000000,4.000000,4.000000,4.000000,4.000000,4.000000,,,,,,,,,,,,,,,,,,,,,,,,,,,,,,,,,,,,,
1577742777.159084,120.000000,0.000000,3942.051270,4175.384766,4058.461426,4046.666748,4028.205078,450.000000,4.000000,,,,0.000000,4.000000,4.000000,4.000000,4.000000,4.000000,60.000000,0.000000,0.077654,-0.375732,0.804932,0.452637,0.463386,-0.652842,0.597665,18.620293,-47.666779,55.742764,,,,,,,,,,,,,,,,,,,,,,,,,
1577742777.166880,121.000000,0.000000,3922.051270,4148.205078,4038.461426,4018.974365,4000.512939,450.000000,4.000000,,,,0.000000,4.000000,4.000000,4.000000,4.000000,4.000000,,,,,,,,,,,,,,,,,,,,,,,,,,,,,,,,,,,,,
1577742777.174577,122.000000,0.000000,3935.897461,4179.487305,4060.000000,4023.076904,4006.153809,450.000000,4.000000,,,,0.000000,4.000000,4.000000,4.000000,4.000000,4.000000,61.000000,0.000000,0.078603,-0.376709,0.804932,0.451660,0.466804,-0.674815,0.583505,15.980664,-47.625515,55.970577,,,,,,,,,,,,,,,,,,,,,,,,,
1577742777.182374,123.000000,0.000000,3949.743652,4203.077148,4082.051270,4041.538574,4025.128174,16212.000000,4.000000,,,,0.000000,4.000000,4.000000,4.000000,4.000000,4.000000,,,,,,,,,,,,,70.888351,35.478397,11.308835,12.553833,6.965581,22.604925,5.284531,2.467630,4.012954,2.967269,7.957173,26.472933,6.092759,9.644628,5.131968,15.092261,32.503731,7.735100,13.903218,7.449496,41.152916,40.628109,11.283343,12.856390,7.389324
1577742777.190070,124.000000,0.000000,3939.487061,4196.922852,4074.358887,4044.615479,4026.153809,450.000000,4.000000,,,,0.000000,4.000000,4.000000,4.000000,4.000000,4.000000,62.000000,0.000000,0.077654,-0.375732,0.804932,0.452637,0.463386,-0.652842,0.597665,17.433182,-47.708008,56.295238,,,,,,,,,,,,,,,,,,,,,,,,,
1577742777.197867,125.000000,0.000000,3944.102539,4221.538574,4086.153809,4050.769287,4038.974365,450.000000,4.000000,,,,0.000000,4.000000,4.000000,4.000000,4.000000,4.000000,,,,,,,,,,,,,,,,,,,,,,,,,,,,,,,,,,,,,
1577742777.205563,126.000000,0.000000,3956.923096,4232.307617,4106.666504,4054.871826,4052.820557,450.000000,4.000000,,,,0.000000,4.000000,4.000000,4.000000,4.000000,4.000000,63.000000,0.000000,0.075719,-0.375244,0.804932,0.453369,0.463874,-0.653819,0.582040,13.057987,-47.722435,56.527622,,,,,,,,,,,,,,,,,,,,,,,,,
1577742777.213360,127.000000,0.000000,3955.897461,4199.487305,4109.743652,4055.384521,4045.128174,235.000000,4.000000,,,,0.000000,4.000000,4.000000,4.000000,4.000000,4.000000,,,,,,,,,,,,,,,,,,,,,,,,,,,,,,,,,,,,,
1577742777.221057,0.000000,0.000000,3969.743652,4210.256348,4134.871582,4077.435791,4056.410156,450.000000,4.000000,,,,0.000000,4.000000,4.000000,4.000000,4.000000,4.000000,0.000000,0.000000,0.075210,-0.374756,0.804932,0.453857,0.456550,-0.669932,0.577157,14.802772,-47.735420,56.617134,,,,,,,,,,,,,,,,,,,,,,,,,
1577742777.228853,1.000000,0.000000,4036.923096,4281.025879,4205.641113,4150.256348,4140.000000,450.000000,4.000000,,,,0.000000,4.000000,4.000000,4.000000,4.000000,4.000000,,,,,,,,,,,,,,,,,,,,,,,,,,,,,,,,,,,,,
1577742777.236550,2.000000,0.000000,4084.102539,4296.922852,4238.974121,4205.641113,4199.487305,16221.000000,4.000000,,,,0.000000,4.000000,4.000000,4.000000,4.000000,4.000000,1.000000,0.000000,0.074691,-0.374268,0.804932,0.454346,0.448737,-0.676768,0.578622,14.339356,-47.687294,56.697697,,,,,,,,,,,,,,,,,,,,,,,,,
1577742777.244346,3.000000,0.000000,4051.281982,4240.000000,4188.205078,4168.717773,4159.487305,450.000000,4.000000,,,,0.000000,4.000000,4.000000,4.000000,4.000000,4.000000,,,,,,,,,,,,,,,,,,,,,,,,,,,,,,,,,,,,,
1577742777.252043,4.000000,0.000000,4013.846191,4232.820313,4138.461426,4120.000000,4113.333496,16237.000000,4.000000,,,,0.000000,4.000000,4.000000,4.000000,4.000000,4.000000,2.000000,0.000000,0.075645,-0.373779,0.804932,0.454590,0.462898,-0.691417,0.576669,10.153913,-47.643978,56.949646,,,,,,,,,,,,,,,,,,,,,,,,,
1577742777.259839,5.000000,0.000000,4013.333252,4273.846191,4127.692383,4113.846191,4105.641113,450.000000,4.000000,,,,0.000000,4.000000,4.000000,4.000000,4.000000,4.000000,,,,,,,,,,,,,,,,,,,,,,,,,,,,,,,,,,,,,
1577742777.267536,6.000000,0.000000,4019.487061,4274.871582,4123.077148,4112.820313,4104.102539,16158.000000,4.000000,,,,0.000000,4.000000,4.000000,4.000000,4.000000,4.000000,3.000000,0.000000,0.075458,-0.373291,0.805176,0.454590,0.462898,-0.694347,0.577646,8.360923,-47.664810,57.236221,,,,,,,,,,,,,,,,,,,,,,,,,
1577742777.275332,7.000000,0.000000,4027.179443,4255.384766,4121.025879,4111.282227,4103.589844,450.000000,4.000000,,,,0.000000,4.000000,4.000000,4.000000,4.000000,4.000000,,,,,,,,,,,,,,,,,,,,,,,,,,,,,,,,,,,,,
1577742777.283029,8.000000,0.000000,4028.718018,4255.897461,4126.153809,4115.384766,4111.282227,450.000000,4.000000,,,,0.000000,4.000000,4.000000,4.000000,4.000000,4.000000,4.000000,0.000000,0.073776,-0.372803,0.805420,0.454834,0.457527,-0.684092,0.564950,8.661323,-47.623741,57.434319,,,,,,,,,,,,,,,,,,,,,,,,,
1577742777.290826,9.000000,0.000000,4008.205078,4258.461426,4114.871582,4101.538574,4103.077148,16205.000000,4.000000,,,,0.000000,4.000000,4.000000,4.000000,4.000000,4.000000,,,,,,,,,,,,,,,,,,,,,,,,,,,,,,,,,,,,,
1577742777.298522,10.000000,0.000000,3998.974365,4246.153809,4092.820557,4088.205078,4084.615479,450.000000,4.000000,,,,0.000000,4.000000,4.000000,4.000000,4.000000,4.000000,5.000000,0.000000,0.076202,-0.372314,0.805420,0.454834,0.467781,-0.681163,0.571298,8.871866,-47.646599,57.433163,,,,,,,,,,,,,,,,,,,,,,,,,
1577742777.306319,11.000000,0.000000,4018.461426,4238.461426,4089.743652,4106.153809,4084.102539,16224.000000,4.000000,,,,0.000000,4.000000,4.000000,4.000000,4.000000,4.000000,,,,,,,,,,,,,86.945076,35.368958,11.500448,10.839789,6.390922,22.451691,5.256670,2.130843,3.314572,2.830937,7.624428,24.828106,5.723281,8.027925,4.745880,14.966483,30.989325,8.654686,11.853927,6.732562,45.144356,38.511082,11.417355,10.985868,6.724379
1577742777.314115,12.000000,0.000000,4040.512939,4268.717773,4123.589844,4131.794922,4110.256348,450.000000,4.000000,,,,0.000000,4.000000,4.000000,4.000000,4.000000,4.000000,6.000000,0.000000,0.071769,-0.372070,0.805664,0.455322,0.472663,-0.680186,0.556649,11.035263,-47.726982,57.551750,,,,,,,,,,,,,,,,,,,,,,,,,
1577742777.321812,13.000000,0.000000,4071.794922,4299.487305,4169.230957,4158.461426,4155.384766,450.000000,4.000000,,,,0.000000,4.000000,4.000000,4.000000,4.000000,4.000000,,,,,,,,,,,,,,,,,,,,,,,,,,,,,,,,,,,,,
1577742777.329708,14.000000,0.000000,4110.769043,4278.974121,4178.461426,4186.666504,4190.769043,450.000000,4.000000,,,,0.000000,4.000000,4.000000,4.000000,4.000000,4.000000,7.000000,0.000000,0.073979,-0.371338,0.805664,0.455566,0.466804,-0.677745,0.568856,11.068229,-47.619881,57.658482,,,,,,,,,,,,,,,,,,,,,,,,,
1577742777.337505,15.000000,0.000000,4104.102539,4238.974121,4149.743652,4184.615234,4178.461426,16224.000000,4.000000,,,,0.000000,4.000000,4.000000,4.000000,4.000000,4.000000,,,,,,,,,,,,,,,,,,,,,,,,,,,,,,,,,,,,,
1577742777.345301,16.000000,0.000000,4045.641113,4213.846191,4117.436035,4140.512695,4126.666504,0.000000,4.000000,,,,0.000000,4.000000,4.000000,4.000000,4.000000,4.000000,8.000000,0.000000,0.072245,-0.370850,0.805908,0.455811,0.438972,-0.697276,0.564950,13.071805,-47.583309,57.874172,,,,,,,,,,,,,,,,,,,,,,,,,
1577742777.352998,17.000000,0.000000,4019.487061,4217.436035,4118.974121,4116.410156,4106.153809,0.000000,4.000000,,,,0.000000,4.000000,4.000000,4.000000,4.000000,4.000000,,,,,,,,,,,,,,,,,,,,,,,,,,,,,,,,,,,,,
1577742777.360795,18.000000,0.000000,4043.076904,4247.179688,4134.871582,4135.897461,4130.769043,0.000000,4.000000,,,,0.000000,4.000000,4.000000,4.000000,4.000000,4.000000,9.000000,0.000000,0.073202,-0.370361,0.805908,0.456055,0.449714,-0.699229,0.573251,10.987025,-47.610207,57.888844,,,,,,,,,,,,,,,,,,,,,,,,,
1577742777.368491,19.000000,0.000000,4066.666748,4262.563965,4140.000000,4157.436035,4156.922852,0.000000,4.000000,,,,0.000000,4.000000,4.000000,4.000000,4.000000,4.000000,,,,,,,,,,,,,,,,,,,,,,,,,,,,,,,,,,,,,
1577742777.376288,20.000000,0.000000,4070.256348,4245.641113,4134.358887,4162.563965,4162.563965,0.000000,4.000000,,,,0.000000,4.000000,4.000000,4.000000,4.000000,4.000000,10.000000,0.000000,0.072983,-0.369873,0.806152,0.456055,0.464851,-0.685557,0.561044,10.964999,-47.634415,58.021683,,,,,,,,,,,,,,,,,,,,,,,,,
1577742777.384084,21.000000,0.000000,4067.179443,4246.666504,4126.153809,4153.846191,4151.794922,0.000000,4.000000,,,,0.000000,4.000000,4.000000,4.000000,4.000000,4.000000,,,,,,,,,,,,,,,,,,,,,,,,,,,,,,,,,,,,,
1577742777.391781,22.000000,0.000000,4082.051270,4267.179688,4135.384766,4163.589844,4163.077148,0.000000,4.000000,,,,0.000000,4.000000,4.000000,4.000000,4.000000,4.000000,11.000000,0.000000,0.073923,-0.369385,0.806152,0.456299,0.453620,-0.691905,0.562997,7.116992,-47.536572,58.081417,,,,,,,,,,,,,,,,,,,,,,,,,
1577742777.399577,23.000000,0.000000,4092.820557,4250.769043,4142.051270,4178.974121,4179.487305,0.000000,4.000000,,,,0.000000,4.000000,4.000000,4.000000,4.000000,4.000000,,,,,,,,,,,,,,,,,,,,,,,,,,,,,,,,,,,,,
1577742777.407274,24.000000,0.000000,4077.435791,4232.820313,4129.743652,4163.077148,4162.051270,0.000000,4.000000,,,,0.000000,4.000000,4.000000,4.000000,4.000000,4.000000,12.000000,0.000000,0.072171,-0.368896,0.806396,0.456543,0.447761,-0.704112,0.550790,7.601600,-47.568146,58.075367,,,,,,,,,,,,,,,,,,,,,,,,,
1577742777.415071,25.000000,0.000000,4069.743652,4254.358887,4124.102539,4150.256348,4143.589844,0.000000,4.000000,,,,0.000000,4.000000,4.000000,4.000000,4.000000,4.000000,,,,,,,,,,,,,,,,,,,,,,,,,,,,,,,,,,,,,
1577742777.422767,26.000000,0.000000,4067.179443,4265.641113,4127.179688,4149.743652,4144.102539,0.000000,4.000000,,,,0.000000,4.000000,4.000000,4.000000,4.000000,4.000000,13.000000,0.000000,0.071936,-0.368408,0.806641,0.456543,0.457527,-0.700206,0.564950,7.918117,-47.596558,58.010105,,,,,,,,,,,,,,,,,,,,,,,,,
1577742777.430464,27.000000,0.000000,4054.871826,4233.846191,4123.589844,4138.461426,4141.538574,0.000000,4.000000,,,,0.000000,4.000000,4.000000,4.000000,4.000000,4.000000,,,,,,,,,,,,,92.555367,32.701283,12.845811,8.710594,5.798509,21.870188,5.048398,2.097951,2.542536,2.729790,7.194818,21.384315,6.013796,6.155884,4.271970,13.879279,27.686596,10.509077,9.344216,6.039559,45.061695,34.192177,12.898159,8.671000,5.964802
1577742777.438260,28.000000,0.000000,4053.333252,4217.948730,4124.615234,4131.794922,4135.384766,0.000000,4.000000,,,,0.000000,4.000000,4.000000,4.000000,4.000000,4.000000,14.000000,0.000000,0.072879,-0.367920,0.806641,0.456787,0.461433,-0.701671,0.554208,8.262797,-47.681950,58.190632,,,,,,,,,,,,,,,,,,,,,,,,,
1577742777.446057,29.000000,0.000000,4080.512939,4262.563965,4146.666504,4162.563965,4156.410156,0.000000,4.000000,,,,0.000000,4.000000,4.000000,4.000000,4.000000,4.000000,,,,,,,,,,,,,,,,,,,,,,,,,,,,,,,,,,,,,
1577742777.453754,30.000000,0.000000,4095.384521,4290.769043,4168.717773,4187.692383,4181.538574,0.000000,4.000000,,,,0.000000,4.000000,4.000000,4.000000,4.000000,4.000000,15.000000,0.000000,0.074101,-0.367676,0.806641,0.456787,0.458503,-0.698741,0.555673,4.744826,-47.698982,58.173660,,,,,,,,,,,,,,,,,,,,,,,,,
1577742777.461450,31.000000,0.000000,4075.384521,4263.077148,4159.487305,4166.153809,4171.794922,0.000000,4.000000,,,,0.000000,4.000000,4.000000,4.000000,4.000000,4.000000,,,,,,,,,,,,,,,,,,,,,,,,,,,,,,,,,,,,,
1577742777.469247,32.000000,0.000000,4057.948730,4247.692383,4132.307617,4137.436035,4148.205078,0.000000,4.000000,,,,0.000000,4.000000,4.000000,4.000000,4.000000,4.000000,16.000000,0.000000,0.073806,-0.367432,0.806641,0.457031,0.450202,-0.683116,0.546395,7.380743,-47.893761,58.397644,,,,,,,,,,,,,,,,,,,,,,,,,
1577742777.476943,33.000000,0.000000,4057.948730,4260.000000,4121.025879,4134.358887,4134.871582,0.000000,4.000000,,,,0.000000,4.000000,4.000000,4.000000,4.000000,4.000000,,,,,,,,,,,,,,,,,,,,,,,,,,,,,,,,,,,,,
1577742777.484740,34.000000,0.000000,4075.384521,4270.769043,4141.025879,4152.307617,4149.743652,0.000000,4.000000,,,,0.000000,4.000000,4.000000,4.000000,4.000000,4.000000,17.000000,0.000000,0.072033,-0.366943,0.806885,0.457275,0.444343,-0.701671,0.565438,9.633436,-47.949429,58.539417,,,,,,,,,,,,,,,,,,,,,,,,,
1577742777.492436,35.000000,0.000000,4105.128418,4282.563965,4165.641113,4181.538574,4189.230957,0.000000,4.000000,,,,0.000000,4.000000,4.000000,4.000000,4.000000,4.000000,,,,,,,,,,,,,,,,,,,,,,,,,,,,,,,,,,,,,
1577742777.500233,36.000000,0.000000,4112.820313,4276.410156,4161.025879,4194.358887,4200.000000,0.000000,4.000000,,,,0.000000,4.000000,4.000000,4.000000,4.000000,4.000000,18.000000,0.000000,0.072963,-0.366455,0.806885,0.457520,0.460945,-0.679698,0.559579,9.806584,-47.879898,58.667011,,,,,,,,,,,,,,,,,,,,,,,,,
1577742777.507930,37.000000,0.000000,4097.948730,4271.282227,4152.307617,4187.179688,4182.051270,0.000000,4.000000,,,,0.000000,4.000000,4.000000,4.000000,4.000000,4.000000,,,,,,,,,,,,,,,,,,,,,,,,,,,,,,,,,,,,,
1577742777.515726,38.000000,0.000000,4091.281982,4282.051270,4149.230957,4181.025879,4176.410156,0.000000,4.000000,,,,0.000000,4.000000,4.000000,4.000000,4.000000,4.000000,19.000000,0.000000,0.071101,-0.366211,0.806885,0.458008,0.458991,-0.689464,0.557137,9.962419,-47.817322,58.722031,,,,,,,,,,,,,,,,,,,,,,,,,
1577742777.523423,39.000000,0.000000,4094.871826,4257.948730,4141.025879,4180.000000,4186.666504,0.000000,4.000000,,,,0.000000,4.000000,4.000000,4.000000,4.000000,4.000000,,,,,,,,,,,,,,,,,,,,,,,,,,,,,,,,,,,,,
1577742777.531219,40.000000,0.000000,4101.538574,4250.769043,4151.282227,4189.743652,4189.743652,0.000000,4.000000,,,,0.000000,4.000000,4.000000,4.000000,4.000000,4.000000,20.000000,0.000000,0.072347,-0.365967,0.806885,0.458008,0.460945,-0.698741,0.553719,12.016760,-47.880634,58.711735,,,,,,,,,,,,,,,,,,,,,,,,,
1577742777.538916,41.000000,0.000000,4098.461426,4295.897461,4159.487305,4191.794922,4173.333496,0.000000,4.000000,,,,0.000000,4.000000,4.000000,4.000000,4.000000,4.000000,,,,,,,,,,,,,,,,,,,,,,,,,,,,,,,,,,,,,
1577742777.546712,42.000000,0.000000,4072.307617,4287.179688,4133.333496,4164.615234,4144.615234,0.000000,4.000000,,,,0.000000,4.000000,4.000000,4.000000,4.000000,4.000000,21.000000,0.000000,0.072035,-0.365723,0.806885,0.458252,0.453132,-0.710948,0.566415,13.985298,-47.758171,56.728561,,,,,,,,,,,,,,,,,,,,,,,,,
1577742777.554409,43.000000,0.000000,4058.461426,4242.563965,4121.538574,4153.333496,4137.436035,0.000000,4.000000,,,,0.000000,4.000000,4.000000,4.000000,4.000000,4.000000,,,,,,,,,,,,,88.043465,28.399687,14.336847,6.806911,5.253472,20.985891,4.725902,2.287715,1.918960,2.711061,7.011284,17.771191,6.812352,4.566072,3.798813,12.655483,24.314680,12.499701,7.107468,5.421967,41.973106,29.386034,14.628469,6.588346,5.224534
1577742777.562206,44.000000,0.000000,4108.205078,4282.051270,4174.871582,4207.179688,4185.128418,0.000000,4.000000,,,,0.000000,4.000000,4.000000,4.000000,4.000000,4.000000,22.000000,0.000000,0.073264,-0.365479,0.806885,0.458252,0.457527,-0.714855,0.568856,9.895077,-47.647953,56.797977,,,,,,,,,,,,,,,,,,,,,,,,,
1577742777.569902,45.000000,0.000000,4152.820313,4336.922852,4217.948730,4253.846191,4221.025879,0.000000,4.000000,,,,0.000000,4.000000,4.000000,4.000000,4.000000,4.000000,,,,,,,,,,,,,,,,,,,,,,,,,,,,,,,,,,,,,
1577742777.577699,46.000000,0.000000,4107.692383,4307.692383,4181.025879,4204.615234,4171.282227,0.000000,4.000000,,,,0.000000,4.000000,4.000000,4.000000,4.000000,4.000000,23.000000,0.000000,0.073008,-0.364990,0.807129,0.458252,0.457527,-0.718273,0.566903,12.075784,-47.548756,57.039902,,,,,,,,,,,,,,,,,,,,,,,,,
1577742777.585395,47.000000,0.000000,4061.538574,4266.666504,4146.153809,4150.769043,4128.205078,0.000000,4.000000,,,,0.000000,4.000000,4.000000,4.000000,4.000000,4.000000,,,,,,,,,,,,,,,,,,,,,,,,,,,,,,,,,,,,,
1577742777.593192,48.000000,0.000000,4103.077148,4275.897461,4184.615234,4195.897461,4172.820313,0.000000,4.000000,,,,0.000000,4.000000,4.000000,4.000000,4.000000,4.000000,24.000000,0.000000,0.073008,-0.364990,0.807129,0.458252,0.458991,-0.708995,0.551766,12.004698,-47.579109,57.257633,,,,,,,,,,,,,,,,,,,,,,,,,
1577742777.600889,49.000000,0.000000,4123.077148,4297.948730,4208.717773,4227.179688,4194.871582,0.000000,4.000000,,,,0.000000,4.000000,4.000000,4.000000,4.000000,4.000000,,,,,,,,,,,,,,,,,,,,,,,,,,,,,,,,,,,,,
1577742777.608585,50.000000,0.000000,4082.564209,4302.563965,4181.025879,4182.051270,4152.307617,0.000000,4.000000,,,,0.000000,4.000000,4.000000,4.000000,4.000000,4.000000,25.000000,0.000000,0.073008,-0.364990,0.807129,0.458252,0.446784,-0.688487,0.564950,8.052721,-47.606426,55.419868,,,,,,,,,,,,,,,,,,,,,,,,,
1577742777.616382,51.000000,0.000000,4076.410156,4285.641113,4176.410156,4166.153809,4141.538574,0.000000,4.000000,,,,0.000000,4.000000,4.000000,4.000000,4.000000,4.000000,,,,,,,,,,,,,,,,,,,,,,,,,,,,,,,,,,,,,
1577742777.624078,52.000000,0.000000,4091.281982,4272.307617,4184.615234,4173.846191,4162.563965,0.000000,4.000000,,,,0.000000,4.000000,4.000000,4.000000,4.000000,4.000000,26.000000,0.000000,0.073008,-0.364990,0.807129,0.458252,0.457527,-0.718273,0.566903,8.443756,-47.571198,55.799603,,,,,,,,,,,,,,,,,,,,,,,,,
1577742777.631875,53.000000,0.000000,4086.153809,4283.589844,4171.282227,4161.538574,4163.589844,0.000000,4.000000,,,,0.000000,4.000000,4.000000,4.000000,4.000000,4.000000,,,,,,,,,,,,,,,,,,,,,,,,,,,,,,,,,,,,,
1577742777.639571,54.000000,0.000000,4083.589844,4285.128418,4157.948730,4153.846191,4152.307617,0.000000,4.000000,,,,0.000000,4.000000,4.000000,4.000000,4.000000,4.000000,27.000000,0.000000,0.073008,-0.364990,0.807129,0.458252,0.446784,-0.688487,0.564950,4.847874,-47.599308,54.107643,,,,,,,,,,,,,,,,,,,,,,,,,
1577742777.647368,55.000000,0.000000,4095.384521,4278.461426,4166.666504,4164.615234,4159.487305,0.000000,4.000000,,,,0.000000,4.000000,4.000000,4.000000,4.000000,4.000000,,,,,,,,,,,,,,,,,,,,,,,,,,,,,,,,,,,,,
1577742777.655065,56.000000,0.000000,4113.846191,4289.743652,4191.282227,4184.615234,4186.153809,0.000000,4.000000,,,,0.000000,4.000000,4.000000,4.000000,4.000000,4.000000,28.000000,0.000000,0.073319,-0.365234,0.807129,0.458008,0.452644,-0.690440,0.559091,5.619209,-47.445160,54.618599,,,,,,,,,,,,,,,,,,,,,,,,,
1577742777.662861,57.000000,0.000000,4114.871582,4294.358887,4185.641113,4182.051270,4187.179688,0.000000,4.000000,,,,0.000000,4.000000,4.000000,4.000000,4.000000,4.000000,,,,,,,,,,,,,,,,,,,,,,,,,,,,,,,,,,,,,
1577742777.670558,58.000000,0.000000,4111.794922,4288.205078,4168.717773,4175.384766,4175.897461,0.000000,4.000000,,,,0.000000,4.000000,4.000000,4.000000,4.000000,4.000000,29.000000,0.000000,0.073319,-0.365234,0.807129,0.458008,0.458503,-0.682139,0.560555,6.193780,-47.485874,55.078461,,,,,,,,,,,,,,,,,,,,,,,,,
1577742777.678354,59.000000,0.000000,4130.256348,4287.692383,4187.179688,4201.025879,4190.256348,0.000000,4.000000,,,,0.000000,4.000000,4.000000,4.000000,4.000000,4.000000,,,,,,,,,,,,,72.750954,23.799887,14.985717,5.644738,4.775797,19.683996,4.356092,2.608425,1.624630,2.810424,7.681046,15.596994,7.681829,3.675887,3.393050,11.911465,22.435507,13.816847,5.708102,4.874490,36.715950,25.646132,15.520709,5.297926,4.587484
1577742777.686051,60.000000,0.000000,4148.205078,4288.205078,4207.179688,4224.615234,4210.256348,0.000000,4.000000,,,,0.000000,4.000000,4.000000,4.000000,4.000000,4.000000,30.000000,0.000000,0.074775,-0.365479,0.806885,0.458008,0.453132,-0.681651,0.555184,2.763080,-47.582333,55.552151,,,,,,,,,,,,,,,,,,,,,,,,,
1577742777.693847,61.000000,0.000000,4135.897461,4278.461426,4185.641113,4201.538574,4202.051270,0.000000,4.000000,,,,0.000000,4.000000,4.000000,4.000000,4.000000,4.000000,,,,,,,,,,,,,,,,,,,,,,,,,,,,,,,,,,,,,
1577742777.701544,62.000000,0.000000,4133.846191,4277.436035,4170.769043,4192.307617,4201.538574,0.000000,4.000000,,,,0.000000,4.000000,4.000000,4.000000,4.000000,4.000000,31.000000,0.000000,0.073571,-0.365723,0.806885,0.458008,0.444831,-0.687022,0.557137,1.649357,-47.549511,55.918655,,,,,,,,,,,,,,,,,,,,,,,,,
1577742777.709341,63.000000,0.000000,4147.179688,4288.205078,4171.794922,4210.256348,4217.436035,0.000000,4.000000,,,,0.000000,4.000000,4.000000,4.000000,4.000000,4.000000,,,,,,,,,,,,,,,,,,,,,,,,,,,,,,,,,,,,,
1577742777.717037,64.000000,0.000000,4119.487305,4280.512695,4144.102539,4188.717773,4191.794922,450.000000,4.000000,,,,0.000000,4.000000,4.000000,4.000000,4.000000,4.000000,32.000000,0.000000,0.072347,-0.365967,0.806885,0.458008,0.453620,-0.680186,0.557626,-1.147455,-47.519974,54.394238,,,,,,,,,,,,,,,,,,,,,,,,,
1577742777.724834,65.000000,0.000000,4080.512939,4263.077148,4117.948730,4155.897461,4151.282227,450.000000,4.000000,,,,0.000000,4.000000,4.000000,4.000000,4.000000,4.000000,,,,,,,,,,,,,,,,,,,,,,,,,,,,,,,,,,,,,
1577742777.732530,66.000000,0.000000,4097.436035,4271.794922,4127.692383,4166.153809,4162.563965,16226.000000,4.000000,,,,0.000000,4.000000,4.000000,4.000000,4.000000,4.000000,33.000000,0.000000,0.073819,-0.366211,0.806641,0.458008,0.460456,-0.690440,0.564950,0.163598,-47.493389,53.082073,,,,,,,,,,,,,,,,,,,,,,,,,
1577742777.740327,67.000000,0.000000,4130.256348,4284.615234,4143.077148,4190.256348,4196.922852,450.000000,4.000000,,,,0.000000,4.000000,4.000000,4.000000,4.000000,4.000000,,,,,,,,,,,,,,,,,,,,,,,,,,,,,,,,,,,,,
1577742777.748024,68.000000,0.000000,4117.948730,4272.820313,4141.538574,4180.000000,4196.410156,16244.000000,4.000000,,,,0.000000,4.000000,4.000000,4.000000,4.000000,4.000000,34.000000,0.000000,0.075261,-0.366455,0.806396,0.458008,0.462898,-0.674815,0.554696,1.223915,-47.589096,53.875034,,,,,,,,,,,,,,,,,,,,,,,,,
1577742777.755720,69.000000,0.000000,4088.205078,4271.794922,4129.230957,4149.230957,4170.256348,450.000000,4.000000,,,,0.000000,4.000000,4.000000,4.000000,4.000000,4.000000,,,,,,,,,,,,,,,,,,,,,,,,,,,,,,,,,,,,,
1577742777.763517,70.000000,0.000000,4104.102539,4297.436035,4135.897461,4163.077148,4184.615234,16172.000000,4.000000,,,,0.000000,4.000000,4.000000,4.000000,4.000000,4.000000,35.000000,0.000000,0.074062,-0.366699,0.806396,0.458008,0.443854,-0.680674,0.575692,-1.590168,-47.495785,54.409252,,,,,,,,,,,,,,,,,,,,,,,,,
1577742777.771213,71.000000,0.000000,4143.077148,4303.589844,4161.025879,4202.563965,4224.615234,450.000000,4.000000,,,,0.000000,4.000000,4.000000,4.000000,4.000000,4.000000,,,,,,,,,,,,,,,,,,,,,,,,,,,,,,,,,,,,,
1577742777.779010,72.000000,0.000000,4151.794922,4288.717773,4173.333496,4195.897461,4230.769043,450.000000,4.000000,,,,0.000000,4.000000,4.000000,4.000000,4.000000,4.000000,36.000000,0.000000,0.072843,-0.366943,0.806396,0.458008,0.445319,-0.690929,0.562020,-4.003212,-47.471622,54.830231,,,,,,,,,,,,,,,,,,,,,,,,,
1577742777.786706,73.000000,0.000000,4170.769043,4300.000000,4179.487305,4176.922852,4237.436035,16216.000000,4.000000,,,,0.000000,4.000000,4.000000,4.000000,4.000000,4.000000,,,,,,,,,,,,,,,,,,,,,,,,,,,,,,,,,,,,,
1577742777.794503,74.000000,0.000000,4228.717773,4320.512695,4193.846191,4193.333496,4281.025879,450.000000,4.000000,,,,0.000000,4.000000,4.000000,4.000000,4.000000,4.000000,37.000000,0.000000,0.071602,-0.367188,0.806396,0.458008,0.452155,-0.686046,0.572274,-0.492492,-47.629318,55.388561,,,,,,,,,,,,,,,,,,,,,,,,,
1577742777.802200,75.000000,0.000000,4288.717773,4308.205078,4198.974121,4198.974121,4312.307617,16218.000000,4.000000,,,,0.000000,4.000000,4.000000,4.000000,4.000000,4.000000,,,,,,,,,,,,,54.365692,20.113098,14.362431,5.410295,4.357608,18.092960,4.021433,2.972071,1.728368,3.033117,9.281284,15.640518,8.196317,3.630747,3.084945,11.781610,22.581711,14.004164,5.332971,4.375064,31.229223,23.700005,15.089389,5.029511,4.097034
1577742777.809996,76.000000,0.000000,4358.461426,4288.205078,4184.102539,4180.000000,4313.333496,450.000000,4.000000,,,,0.000000,4.000000,4.000000,4.000000,4.000000,4.000000,38.000000,0.000000,0.071845,-0.367676,0.806152,0.458008,0.455085,-0.661631,0.570809,2.607341,-47.651615,53.917149,,,,,,,,,,,,,,,,,,,,,,,,,
1577742777.817693,77.000000,0.000000,4410.769043,4287.692383,4162.563965,4167.179688,4320.000000,450.000000,4.000000,,,,0.000000,4.000000,4.000000,4.000000,4.000000,4.000000,,,,,,,,,,,,,,,,,,,,,,,,,,,,,,,,,,,,,
1577742777.825489,78.000000,0.000000,4425.641113,4312.307617,4154.871582,4162.051270,4345.128418,450.000000,4.000000,,,,0.000000,4.000000,4.000000,4.000000,4.000000,4.000000,39.000000,0.000000,0.073319,-0.367920,0.805908,0.458008,0.453132,-0.674327,0.565438,3.423283,-47.611870,54.387341,,,,,,,,,,,,,,,,,,,,,,,,,
1577742777.833286,79.000000,0.000000,4471.794922,4332.307617,4151.794922,4145.128418,4350.769043,16218.000000,4.000000,,,,0.000000,4.000000,4.000000,4.000000,4.000000,4.000000,,,,,,,,,,,,,,,,,,,,,,,,,,,,,,,,,,,,,
1577742777.840982,80.000000,0.000000,4488.717773,4324.102539,4162.051270,4145.128418,4359.487305,450.000000,4.000000,,,,0.000000,4.000000,4.000000,4.000000,4.000000,4.000000,40.000000,0.000000,0.072014,-0.368408,0.805664,0.458252,0.457038,-0.683604,0.577157,4.217447,-47.815357,52.896420,,,,,,,,,,,,,,,,,,,,,,,,,
1577742777.848679,81.000000,0.000000,4337.436035,4330.256348,4198.461426,4174.871582,4394.871582,450.000000,4.000000,,,,0.000000,4.000000,4.000000,4.000000,4.000000,4.000000,,,,,,,,,,,,,,,,,,,,,,,,,,,,,,,,,,,,,
1577742777.856476,82.000000,0.000000,4151.794922,4358.974121,4225.641113,4196.922852,4409.743652,450.000000,4.000000,,,,0.000000,4.000000,4.000000,4.000000,4.000000,4.000000,41.000000,0.000000,0.071941,-0.368652,0.805420,0.458496,0.457038,-0.680674,0.577157,1.104011,-47.938683,53.588314,,,,,,,,,,,,,,,,,,,,,,,,,
1577742777.864172,83.000000,0.000000,4108.205078,4373.333496,4237.948730,4197.948730,4398.974121,16218.000000,4.000000,,,,0.000000,4.000000,4.000000,4.000000,4.000000,4.000000,,,,,,,,,,,,,,,,,,,,,,,,,,,,,,,,,,,,,
1577742777.871969,84.000000,0.000000,4077.948730,4362.563965,4242.051270,4185.128418,4376.410156,450.000000,4.000000,,,,0.000000,4.000000,4.000000,4.000000,4.000000,4.000000,42.000000,0.000000,0.073408,-0.368896,0.805176,0.458496,0.473640,-0.668467,0.577157,0.275825,-47.989857,54.211021,,,,,,,,,,,,,,,,,,,,,,,,,
1577742777.879665,85.000000,0.000000,3987.179443,4364.615234,4230.256348,4172.820313,4352.820313,450.000000,4.000000,,,,0.000000,4.000000,4.000000,4.000000,4.000000,4.000000,,,,,,,,,,,,,,,,,,,,,,,,,,,,,,,,,,,,,
1577742777.887462,86.000000,0.000000,3928.205078,4378.461426,4220.000000,4165.641113,4341.538574,450.000000,4.000000,,,,0.000000,4.000000,4.000000,4.000000,4.000000,4.000000,43.000000,0.000000,0.072170,-0.369141,0.805176,0.458496,0.462409,-0.688975,0.580087,3.358642,-47.856472,54.651825,,,,,,,,,,,,,,,,,,,,,,,,,
1577742777.895159,87.000000,0.000000,3874.871826,4358.461426,4207.179688,4144.615234,4309.743652,16218.000000,4.000000,,,,0.000000,4.000000,4.000000,4.000000,4.000000,4.000000,,,,,,,,,,,,,,,,,,,,,,,,,,,,,,,,,,,,,
1577742777.902955,88.000000,0.000000,3810.256348,4329.230957,4174.871582,4104.102539,4260.000000,450.000000,4.000000,,,,0.000000,4.000000,4.000000,4.000000,4.000000,4.000000,44.000000,0.000000,0.073629,-0.369385,0.804932,0.458496,0.453620,-0.664561,0.578134,0.331086,-47.975685,55.168179,,,,,,,,,,,,,,,,,,,,,,,,,
1577742777.910652,89.000000,0.000000,3785.128174,4350.769043,4175.384766,4104.102539,4261.538574,450.000000,4.000000,,,,0.000000,4.000000,4.000000,4.000000,4.000000,4.000000,,,,,,,,,,,,,,,,,,,,,,,,,,,,,,,,,,,,,
1577742777.918348,90.000000,0.000000,3826.666748,4385.128418,4223.589844,4152.307617,4310.769043,450.000000,4.000000,,,,0.000000,4.000000,4.000000,4.000000,4.000000,4.000000,45.000000,0.000000,0.072394,-0.369629,0.804932,0.458496,0.460456,-0.682628,0.571786,1.494285,-48.023159,55.573082,,,,,,,,,,,,,,,,,,,,,,,,,
1577742777.926145,91.000000,0.000000,3938.974365,4381.538574,4244.615234,4177.436035,4332.307617,16218.000000,4.000000,,,,0.000000,4.000000,4.000000,4.000000,4.000000,4.000000,,,,,,,,,,,,,36.077496,18.120710,12.788396,5.879751,3.993662,15.810281,3.746951,3.264865,2.139731,3.341403,11.225302,17.375191,8.088876,4.258153,2.876580,11.990536,24.090374,13.098193,5.763374,3.936743,25.992687,23.247467,13.612689,5.599879,3.765838
1577742777.933941,92.000000,0.000000,4035.384521,4372.820313,4218.461426,4165.641113,4312.820313,450.000000,4.000000,,,,0.000000,4.000000,4.000000,4.000000,4.000000,4.000000,46.000000,0.000000,0.073846,-0.369873,0.804688,0.458496,0.454597,-0.666514,0.579110,-1.287020,-48.006073,55.997311,,,,,,,,,,,,,,,,,,,,,,,,,
1577742777.941638,93.000000,0.000000,3986.153809,4369.230957,4188.205078,4142.563965,4280.000000,450.000000,4.000000,,,,0.000000,4.000000,4.000000,4.000000,4.000000,4.000000,,,,,,,,,,,,,,,,,,,,,,,,,,,,,,,,,,,,,
1577742777.949435,94.000000,0.000000,3877.435791,4364.615234,4206.153809,4162.563965,4291.282227,450.000000,4.000000,,,,0.000000,4.000000,4.000000,4.000000,4.000000,4.000000,47.000000,0.000000,0.072613,-0.370117,0.804688,0.458496,0.448249,-0.671885,0.581064,1.892266,-48.110325,54.345394,,,,,,,,,,,,,,,,,,,,,,,,,
1577742777.957131,95.000000,0.000000,3841.025635,4373.846191,4248.205078,4203.589844,4330.256348,16218.000000,4.000000,,,,0.000000,4.000000,4.000000,4.000000,4.000000,4.000000,,,,,,,,,,,,,,,,,,,,,,,,,,,,,,,,,,,,,
1577742777.964928,96.000000,0.000000,3821.538574,4381.025879,4250.256348,4205.641113,4332.820313,450.000000,4.000000,,,,0.000000,4.000000,4.000000,4.000000,4.000000,4.000000,48.000000,0.000000,0.072909,-0.370361,0.804688,0.458252,0.461433,-0.681651,0.564950,4.753623,-48.024708,54.832577,,,,,,,,,,,,,,,,,,,,,,,,,
1577742777.972624,97.000000,0.000000,3781.025635,4365.128418,4223.077148,4179.487305,4309.230957,450.000000,4.000000,,,,0.000000,4.000000,4.000000,4.000000,4.000000,4.000000,,,,,,,,,,,,,,,,,,,,,,,,,,,,,,,,,,,,,
1577742777.980421,98.000000,0.000000,3752.307617,4333.333496,4201.538574,4150.256348,4285.641113,450.000000,4.000000,,,,0.000000,4.000000,4.000000,4.000000,4.000000,4.000000,49.000000,0.000000,0.074348,-0.370605,0.804443,0.458252,0.445319,-0.682628,0.580575,5.414752,-48.127098,55.211224,,,,,,,,,,,,,,,,,,,,,,,,,
1577742777.988118,99.000000,0.000000,3758.461426,4344.615234,4197.948730,4153.846191,4285.128418,16218.000000,4.000000,,,,0.000000,4.000000,4.000000,4.000000,4.000000,4.000000,,,,,,,,,,,,,,,,,,,,,,,,,,,,,,,,,,,,,
1577742777.995914,100.000000,0.000000,3791.794922,4387.179688,4201.025879,4185.641113,4302.563965,450.000000,4.000000,,,,0.000000,4.000000,4.000000,4.000000,4.000000,4.000000,50.000000,0.000000,0.073411,-0.371094,0.804443,0.458008,0.475593,-0.674815,0.584482,7.864046,-48.219246,55.492191,,,,,,,,,,,,,,,,,,,,,,,,,
1577742778.003611,101.000000,0.000000,3851.281982,4377.948730,4212.820313,4213.333496,4332.307617,450.000000,4.000000,,,,0.000000,4.000000,4.000000,4.000000,4.000000,4.000000,,,,,,,,,,,,,,,,,,,,,,,,,,,,,,,,,,,,,
1577742778.011407,102.000000,0.000000,3909.230713,4354.358887,4218.974121,4213.846191,4352.820313,450.000000,4.000000,,,,0.000000,4.000000,4.000000,4.000000,4.000000,4.000000,51.000000,0.000000,0.073411,-0.371094,0.804443,0.458008,0.466316,-0.668467,0.572274,10.008594,-48.242367,53.890785,,,,,,,,,,,,,,,,,,,,,,,,,
1577742778.019104,103.000000,0.000000,3906.666748,4363.077148,4177.436035,4179.487305,4311.794922,16218.000000,4.000000,,,,0.000000,4.000000,4.000000,4.000000,4.000000,4.000000,,,,,,,,,,,,,,,,,,,,,,,,,,,,,,,,,,,,,
1577742778.026800,104.000000,0.000000,3901.025635,4354.871582,4142.563965,4163.589844,4271.794922,450.000000,4.000000,,,,0.000000,4.000000,4.000000,4.000000,4.000000,4.000000,52.000000,0.000000,0.072166,-0.371338,0.804443,0.458008,0.450202,-0.665537,0.570321,12.058318,-48.203358,54.483246,,,,,,,,,,,,,,,,,,,,,,,,,
1577742778.034597,105.000000,0.000000,3944.102539,4334.871582,4171.794922,4197.948730,4296.922852,450.000000,4.000000,,,,0.000000,4.000000,4.000000,4.000000,4.000000,4.000000,,,,,,,,,,,,,,,,,,,,,,,,,,,,,,,,,,,,,
1577742778.042294,106.000000,0.000000,4007.692383,4341.538574,4205.641113,4237.436035,4317.948730,450.000000,4.000000,,,,0.000000,4.000000,4.000000,4.000000,4.000000,4.000000,53.000000,0.000000,0.073328,-0.371338,0.804199,0.458252,0.474617,-0.655772,0.569833,13.903070,-48.108437,54.837009,,,,,,,,,,,,,,,,,,,,,,,,,
1577742778.050090,107.000000,0.000000,4048.205078,4323.077148,4169.743652,4211.794922,4265.641113,16218.000000,4.000000,,,,0.000000,4.000000,4.000000,4.000000,4.000000,4.000000,,,,,,,,,,,,,26.329170,19.055056,11.072479,6.666424,3.717138,13.110801,3.525009,3.382374,2.669872,3.649019,13.080902,19.428560,7.337977,5.173378,2.749763,12.152847,25.503633,11.425131,6.544363,3.610315,21.785400,23.371761,11.660933,6.572273,3.582975
1577742778.057787,108.000000,0.000000,4067.692383,4284.615234,4108.717773,4137.436035,4202.051270,450.000000,4.000000,,,,0.000000,4.000000,4.000000,4.000000,4.000000,4.000000,54.000000,0.000000,0.073411,-0.371094,0.804443,0.458008,0.466316,-0.668467,0.572274,13.529624,-48.142639,53.301125,,,,,,,,,,,,,,,,,,,,,,,,,
1577742778.065583,109.000000,0.000000,4116.922852,4307.179688,4112.820313,4111.282227,4208.717773,450.000000,4.000000,,,,0.000000,4.000000,4.000000,4.000000,4.000000,4.000000,,,,,,,,,,,,,,,,,,,,,,,,,,,,,,,,,,,,,
1577742778.073280,110.000000,0.000000,4195.897461,4327.692383,4162.051270,4165.641113,4263.077148,450.000000,4.000000,,,,0.000000,4.000000,4.000000,4.000000,4.000000,4.000000,55.000000,0.000000,0.073328,-0.371338,0.804199,0.458252,0.474617,-0.655772,0.569833,15.227245,-48.053787,53.773102,,,,,,,,,,,,,,,,,,,,,,,,,
1577742778.081076,111.000000,0.000000,4238.461426,4301.025879,4173.846191,4191.794922,4297.436035,16218.000000,4.000000,,,,0.000000,4.000000,4.000000,4.000000,4.000000,4.000000,,,,,,,,,,,,,,,,,,,,,,,,,,,,,,,,,,,,,
1577742778.088773,112.000000,0.000000,4228.205078,4297.436035,4148.205078,4160.512695,4288.717773,450.000000,4.000000,,,,0.000000,4.000000,4.000000,4.000000,4.000000,4.000000,56.000000,0.000000,0.073328,-0.371338,0.804199,0.458252,0.464851,-0.656748,0.574228,10.833384,-48.033638,54.257698,,,,,,,,,,,,,,,,,,,,,,,,,
1577742778.096570,113.000000,0.000000,4212.820313,4321.538574,4142.563965,4162.051270,4269.743652,450.000000,4.000000,,,,0.000000,4.000000,4.000000,4.000000,4.000000,4.000000,,,,,,,,,,,,,,,,,,,,,,,,,,,,,,,,,,,,,
1577742778.104266,114.000000,0.000000,4216.922852,4333.333496,4149.230957,4184.615234,4270.769043,450.000000,4.000000,,,,0.000000,4.000000,4.000000,4.000000,4.000000,4.000000,57.000000,0.000000,0.071871,-0.371094,0.804443,0.458252,0.466316,-0.676280,0.567880,10.766907,-47.836060,54.753651,,,,,,,,,,,,,,,,,,,,,,,,,
1577742778.112063,115.000000,0.000000,4250.769043,4340.000000,4161.025879,4205.128418,4297.948730,16218.000000,4.000000,,,,0.000000,4.000000,4.000000,4.000000,4.000000,4.000000,,,,,,,,,,,,,,,,,,,,,,,,,,,,,,,,,,,,,
1577742778.119759,116.000000,0.000000,4269.230957,4337.436035,4174.358887,4222.563965,4309.743652,450.000000,4.000000,,,,0.000000,4.000000,4.000000,4.000000,4.000000,4.000000,58.000000,0.000000,0.071871,-0.371094,0.804443,0.458252,0.451179,-0.678721,0.568368,12.800614,-47.897495,55.200005,,,,,,,,,,,,,,,,,,,,,,,,,
1577742778.127556,117.000000,0.000000,4256.410156,4326.153809,4175.897461,4224.615234,4286.666504,450.000000,4.000000,,,,0.000000,4.000000,4.000000,4.000000,4.000000,4.000000,,,,,,,,,,,,,,,,,,,,,,,,,,,,,,,,,,,,,
1577742778.135253,118.000000,0.000000,4260.000000,4337.436035,4174.871582,4225.641113,4272.307617,450.000000,4.000000,,,,0.000000,4.000000,4.000000,4.000000,4.000000,4.000000,59.000000,0.000000,0.073120,-0.370850,0.804443,0.458252,0.462409,-0.680674,0.569345,12.657045,-47.773346,55.541912,,,,,,,,,,,,,,,,,,,,,,,,,
1577742778.143049,119.000000,0.000000,4261.025879,4347.692383,4173.333496,4227.179688,4268.205078,16218.000000,4.000000,,,,0.000000,4.000000,4.000000,4.000000,4.000000,4.000000,,,,,,,,,,,,,,,,,,,,,,,,,,,,,,,,,,,,,
1577742778.150746,120.000000,0.000000,4231.282227,4330.256348,4164.615234,4190.769043,4241.025879,450.000000,4.000000,,,,0.000000,4.000000,4.000000,4.000000,4.000000,4.000000,60.000000,0.000000,0.070383,-0.370850,0.804688,0.458252,0.457038,-0.678233,0.567391,14.382109,-47.781239,55.909439,,,,,,,,,,,,,,,,,,,,,,,,,
1577742778.158542,121.000000,0.000000,4202.051270,4310.769043,4143.077148,4130.769043,4205.641113,450.000000,4.000000,,,,0.000000,4.000000,4.000000,4.000000,4.000000,4.000000,,,,,,,,,,,,,,,,,,,,,,,,,,,,,,,,,,,,,
1577742778.166239,122.000000,0.000000,4220.512695,4321.025879,4143.589844,4149.743652,4214.871582,450.000000,4.000000,,,,0.000000,4.000000,4.000000,4.000000,4.000000,4.000000,61.000000,0.000000,0.071657,-0.370605,0.804688,0.458252,0.458991,-0.688975,0.568856,14.080390,-47.907978,56.120586,,,,,,,,,,,,,,,,,,,,,,,,,
1577742778.173935,123.000000,0.000000,4239.487305,4343.077148,4155.384766,4189.743652,4229.230957,16218.000000,4.000000,,,,0.000000,4.000000,4.000000,4.000000,4.000000,4.000000,,,,,,,,,,,,,36.034660,25.756205,9.793215,7.674468,3.609086,10.255836,3.287720,3.281076,3.093551,3.851793,13.815384,20.571835,6.226867,5.957033,2.682942,11.863888,25.425341,9.431168,7.176313,3.451642,19.810266,22.739166,9.679054,7.429195,3.525230
1577742778.181732,124.000000,0.000000,4228.717773,4351.282227,4153.333496,4171.282227,4222.563965,450.000000,4.000000,,,,0.000000,4.000000,4.000000,4.000000,4.000000,4.000000,62.000000,0.000000,0.071657,-0.370605,0.804688,0.458252,0.470710,-0.680186,0.564950,9.980659,-47.902409,56.310619,,,,,,,,,,,,,,,,,,,,,,,,,
1577742778.189429,125.000000,0.000000,4237.436035,4346.153809,4158.974121,4170.769043,4235.897461,450.000000,4.000000,,,,0.000000,4.000000,4.000000,4.000000,4.000000,4.000000,,,,,,,,,,,,,,,,,,,,,,,,,,,,,,,,,,,,,
1577742778.197225,126.000000,0.000000,4250.769043,4318.461426,4160.000000,4198.974121,4249.230957,450.000000,4.000000,,,,0.000000,4.000000,4.000000,4.000000,4.000000,4.000000,63.000000,0.000000,0.072909,-0.370361,0.804688,0.458252,0.458015,-0.667979,0.560067,12.092993,-47.897396,56.541462,,,,,,,,,,,,,,,,,,,,,,,,,
1577742778.204922,127.000000,0.000000,4272.307617,4317.948730,4166.666504,4225.641113,4270.769043,235.000000,4.000000,,,,0.000000,4.000000,4.000000,4.000000,4.000000,4.000000,,,,,,,,,,,,,,,,,,,,,,,,,,,,,,,,,,,,,
1577742778.212718,0.000000,0.000000,4299.487305,4357.436035,4183.077148,4234.358887,4304.615234,450.000000,4.000000,,,,0.000000,4.000000,4.000000,4.000000,4.000000,4.000000,0.000000,0.000000,0.072613,-0.370117,0.804688,0.458496,0.458015,-0.670420,0.567391,8.192002,-47.773254,56.629593,,,,,,,,,,,,,,,,,,,,,,,,,
1577742778.220415,1.000000,0.000000,4280.512695,4366.153809,4172.820313,4208.205078,4288.717773,450.000000,4.000000,,,,0.000000,4.000000,4.000000,4.000000,4.000000,4.000000,,,,,,,,,,,,,,,,,,,,,,,,,,,,,,,,,,,,,
1577742778.228211,2.000000,0.000000,4235.384766,4319.487305,4142.051270,4169.743652,4241.538574,16212.000000,4.000000,,,,0.000000,4.000000,4.000000,4.000000,4.000000,4.000000,1.000000,0.000000,0.071136,-0.369873,0.804932,0.458496,0.450202,-0.681163,0.559091,8.569109,-47.781158,54.974262,,,,,,,,,,,,,,,,,,,,,,,,,
1577742778.235908,3.000000,0.000000,4236.922852,4284.615234,4133.846191,4164.615234,4236.410156,450.000000,4.000000,,,,0.000000,4.000000,4.000000,4.000000,4.000000,4.000000,,,,,,,,,,,,,,,,,,,,,,,,,,,,,,,,,,,,,
1577742778.243705,4.000000,0.000000,4270.769043,4317.436035,4147.692383,4173.846191,4263.589844,16231.000000,4.000000,,,,0.000000,4.000000,4.000000,4.000000,4.000000,4.000000,2.000000,0.000000,0.072093,-0.369385,0.804932,0.458740,0.447761,-0.680186,0.558114,10.882413,-47.608826,55.458374,,,,,,,,,,,,,,,,,,,,,,,,,
1577742778.251401,5.000000,0.000000,4306.666504,4354.871582,4155.897461,4174.871582,4294.871582,450.000000,4.000000,,,,0.000000,4.000000,4.000000,4.000000,4.000000,4.000000,,,,,,,,,,,,,,,,,,,,,,,,,,,,,,,,,,,,,
1577742778.259198,6.000000,0.000000,4356.410156,4329.743652,4153.846191,4180.000000,4331.794922,16144.000000,4.000000,,,,0.000000,4.000000,4.000000,4.000000,4.000000,4.000000,3.000000,0.000000,0.071789,-0.369141,0.804932,0.458984,0.439948,-0.679210,0.562997,7.042665,-47.812618,55.714626,,,,,,,,,,,,,,,,,,,,,,,,,
1577742778.266994,7.000000,0.000000,4390.769043,4299.487305,4151.282227,4173.333496,4357.948730,450.000000,4.000000,,,,0.000000,4.000000,4.000000,4.000000,4.000000,4.000000,,,,,,,,,,,,,,,,,,,,,,,,,,,,,,,,,,,,,
1577742778.274691,8.000000,0.000000,4425.128418,4317.436035,4161.025879,4177.436035,4393.846191,450.000000,4.000000,,,,0.000000,4.000000,4.000000,4.000000,4.000000,4.000000,4.000000,0.000000,0.071482,-0.368896,0.804932,0.459229,0.470710,-0.686534,0.568856,7.534705,-47.936218,56.064884,,,,,,,,,,,,,,,,,,,,,,,,,
1577742778.282388,9.000000,0.000000,4465.641113,4326.666504,4154.358887,4184.615234,4428.205078,16204.000000,4.000000,,,,0.000000,4.000000,4.000000,4.000000,4.000000,4.000000,,,,,,,,,,,,,,,,,,,,,,,,,,,,,,,,,,,,,
1577742778.290184,10.000000,0.000000,4468.717773,4297.948730,4125.641113,4165.641113,4417.436035,450.000000,4.000000,,,,0.000000,4.000000,4.000000,4.000000,4.000000,4.000000,5.000000,0.000000,0.072652,-0.368896,0.804688,0.459473,0.463874,-0.689952,0.560067,5.943820,-48.047455,56.380116,,,,,,,,,,,,,,,,,,,,,,,,,
1577742778.297881,11.000000,0.000000,4474.358887,4314.358887,4137.948730,4173.846191,4424.615234,16204.000000,4.000000,,,,0.000000,4.000000,4.000000,4.000000,4.000000,4.000000,,,,,,,,,,,,,76.297455,42.402115,9.588147,9.071534,3.735873,7.344228,3.041861,3.008538,3.245543,3.873517,13.592633,20.276476,5.173291,6.335886,2.655317,11.089162,23.427860,7.540991,7.338612,3.466499,21.127430,20.604588,7.950846,7.784493,3.556630
1577742778.305677,12.000000,0.000000,4505.641113,4345.128418,4173.846191,4200.512695,4458.974121,450.000000,4.000000,,,,0.000000,4.000000,4.000000,4.000000,4.000000,4.000000,6.000000,0.000000,0.072652,-0.368896,0.804688,0.459473,0.459480,-0.697276,0.557626,8.519652,-47.968124,56.663826,,,,,,,,,,,,,,,,,,,,,,,,,
1577742778.313374,13.000000,0.000000,4504.102539,4326.666504,4171.794922,4191.282227,4452.820313,450.000000,4.000000,,,,0.000000,4.000000,4.000000,4.000000,4.000000,4.000000,,,,,,,,,,,,,,,,,,,,,,,,,,,,,,,,,,,,,
1577742778.321170,14.000000,0.000000,4471.282227,4328.205078,4162.051270,4186.153809,4438.461426,450.000000,4.000000,,,,0.000000,4.000000,4.000000,4.000000,4.000000,4.000000,7.000000,0.000000,0.072652,-0.368896,0.804688,0.459473,0.457038,-0.691905,0.582528,8.863995,-48.016357,56.859348,,,,,,,,,,,,,,,,,,,,,,,,,
1577742778.328967,15.000000,0.000000,4443.077148,4351.794922,4165.128418,4196.410156,4430.769043,16204.000000,4.000000,,,,0.000000,4.000000,4.000000,4.000000,4.000000,4.000000,,,,,,,,,,,,,,,,,,,,,,,,,,,,,,,,,,,,,
1577742778.336763,16.000000,0.000000,4393.846191,4319.487305,4130.769043,4155.897461,4374.871582,0.000000,4.000000,,,,0.000000,4.000000,4.000000,4.000000,4.000000,4.000000,8.000000,0.000000,0.069895,-0.368896,0.804932,0.459473,0.451667,-0.702647,0.560067,5.345719,-47.760689,57.035320,,,,,,,,,,,,,,,,,,,,,,,,,
1577742778.344460,17.000000,0.000000,4363.077148,4299.487305,4111.794922,4131.282227,4337.948730,0.000000,4.000000,,,,0.000000,4.000000,4.000000,4.000000,4.000000,4.000000,,,,,,,,,,,,,,,,,,,,,,,,,,,,,,,,,,,,,
1577742778.352157,18.000000,0.000000,4394.358887,4347.179688,4157.436035,4194.871582,4367.692383,0.000000,4.000000,,,,0.000000,4.000000,4.000000,4.000000,4.000000,4.000000,9.000000,0.000000,0.071171,-0.368652,0.804932,0.459473,0.445319,-0.702159,0.555673,2.239086,-47.710033,57.432957,,,,,,,,,,,,,,,,,,,,,,,,,
1577742778.359953,19.000000,0.000000,4416.410156,4357.948730,4183.589844,4232.820313,4382.563965,0.000000,4.000000,,,,0.000000,4.000000,4.000000,4.000000,4.000000,4.000000,,,,,,,,,,,,,,,,,,,,,,,,,,,,,,,,,,,,,
1577742778.367750,20.000000,0.000000,4375.897461,4318.461426,4150.256348,4194.871582,4350.256348,0.000000,4.000000,,,,0.000000,4.000000,4.000000,4.000000,4.000000,4.000000,10.000000,0.000000,0.071171,-0.368652,0.804932,0.459473,0.452155,-0.690440,0.565438,5.185392,-47.784073,57.491753,,,,,,,,,,,,,,,,,,,,,,,,,
1577742778.375446,21.000000,0.000000,4333.846191,4325.641113,4138.461426,4182.051270,4326.153809,0.000000,4.000000,,,,0.000000,4.000000,4.000000,4.000000,4.000000,4.000000,,,,,,,,,,,,,,,,,,,,,,,,,,,,,,,,,,,,,
1577742778.383243,22.000000,0.000000,4339.487305,4345.641113,4171.794922,4215.384766,4335.897461,0.000000,4.000000,,,,0.000000,4.000000,4.000000,4.000000,4.000000,4.000000,11.000000,0.000000,0.071171,-0.368652,0.804932,0.459473,0.453132,-0.684092,0.555673,5.922976,-47.790897,57.604481,,,,,,,,,,,,,,,,,,,,,,,,,
1577742778.390940,23.000000,0.000000,4333.333496,4318.974121,4177.436035,4214.871582,4331.794922,0.000000,4.000000,,,,0.000000,4.000000,4.000000,4.000000,4.000000,4.000000,,,,,,,,,,,,,,,,,,,,,,,,,,,,,,,,,,,,,
1577742778.398736,24.000000,0.000000,4288.717773,4295.384766,4146.153809,4176.410156,4294.358887,0.000000,4.000000,,,,0.000000,4.000000,4.000000,4.000000,4.000000,4.000000,12.000000,0.000000,0.071171,-0.368652,0.804932,0.459473,0.446784,-0.692393,0.555673,6.347539,-47.797035,57.765755,,,,,,,,,,,,,,,,,,,,,,,,,
1577742778.406433,25.000000,0.000000,4258.974121,4307.692383,4127.179688,4155.897461,4262.051270,0.000000,4.000000,,,,0.000000,4.000000,4.000000,4.000000,4.000000,4.000000,,,,,,,,,,,,,,,,,,,,,,,,,,,,,,,,,,,,,
1577742778.414129,26.000000,0.000000,4264.102539,4310.256348,4140.512695,4169.743652,4262.563965,0.000000,4.000000,,,,0.000000,4.000000,4.000000,4.000000,4.000000,4.000000,13.000000,0.000000,0.071171,-0.368652,0.804932,0.459473,0.443854,-0.682139,0.564950,6.789462,-47.802563,57.910900,,,,,,,,,,,,,,,,,,,,,,,,,
1577742778.421926,27.000000,0.000000,4287.179688,4324.102539,4175.897461,4212.820313,4289.743652,0.000000,4.000000,,,,0.000000,4.000000,4.000000,4.000000,4.000000,4.000000,,,,,,,,,,,,,150.706436,71.073936,10.822178,11.043366,4.107822,5.104828,2.862628,2.671275,3.076458,3.707918,12.031961,18.740833,4.429049,6.265292,2.668602,10.033420,20.292225,6.068266,7.037033,3.625862,26.161823,17.261934,6.559260,7.567062,3.655710
1577742778.429622,28.000000,0.000000,4291.282227,4350.256348,4183.589844,4235.384766,4294.871582,0.000000,4.000000,,,,0.000000,4.000000,4.000000,4.000000,4.000000,4.000000,14.000000,0.000000,0.071171,-0.368652,0.804932,0.459473,0.449226,-0.681163,0.570809,7.366638,-47.807533,57.981716,,,,,,,,,,,,,,,,,,,,,,,,,
1577742778.437419,29.000000,0.000000,4274.358887,4334.871582,4160.000000,4213.846191,4270.256348,0.000000,4.000000,,,,0.000000,4.000000,4.000000,4.000000,4.000000,4.000000,,,,,,,,,,,,,,,,,,,,,,,,,,,,,,,,,,,,,
1577742778.445116,30.000000,0.000000,4276.922852,4310.256348,4160.512695,4209.743652,4276.410156,0.000000,4.000000,,,,0.000000,4.000000,4.000000,4.000000,4.000000,4.000000,15.000000,0.000000,0.072425,-0.368408,0.804932,0.459473,0.458015,-0.689464,0.568856,9.680558,-47.812012,58.045452,,,,,,,,,,,,,,,,,,,,,,,,,
1577742778.452912,31.000000,0.000000,4264.615234,4303.077148,4155.897461,4204.615234,4281.025879,0.000000,4.000000,,,,0.000000,4.000000,4.000000,4.000000,4.000000,4.000000,,,,,,,,,,,,,,,,,,,,,,,,,,,,,,,,,,,,,
1577742778.460709,32.000000,0.000000,4228.717773,4301.538574,4137.436035,4177.948730,4252.820313,0.000000,4.000000,,,,0.000000,4.000000,4.000000,4.000000,4.000000,4.000000,16.000000,0.000000,0.072116,-0.368164,0.804932,0.459717,0.455085,-0.695811,0.568368,7.815272,-47.696407,58.162628,,,,,,,,,,,,,,,,,,,,,,,,,
1577742778.468405,33.000000,0.000000,4250.769043,4325.128418,4161.538574,4203.589844,4264.102539,0.000000,4.000000,,,,0.000000,4.000000,4.000000,4.000000,4.000000,4.000000,,,,,,,,,,,,,,,,,,,,,,,,,,,,,,,,,,,,,
1577742778.476302,34.000000,0.000000,4269.743652,4333.333496,4168.205078,4223.589844,4278.974121,0.000000,4.000000,,,,0.000000,4.000000,4.000000,4.000000,4.000000,4.000000,17.000000,0.000000,0.072116,-0.368164,0.804932,0.459717,0.459968,-0.696788,0.561532,8.050606,-47.711998,58.088638,,,,,,,,,,,,,,,,,,,,,,,,,
1577742778.484098,35.000000,0.000000,4224.102539,4299.487305,4130.256348,4185.128418,4242.563965,0.000000,4.000000,,,,0.000000,4.000000,4.000000,4.000000,4.000000,4.000000,,,,,,,,,,,,,,,,,,,,,,,,,,,,,,,,,,,,,
1577742778.491895,36.000000,0.000000,4213.846191,4288.717773,4135.897461,4186.153809,4235.384766,0.000000,4.000000,,,,0.000000,4.000000,4.000000,4.000000,4.000000,4.000000,18.000000,0.000000,0.072193,-0.367920,0.805176,0.459473,0.455573,-0.679210,0.560067,6.467946,-47.666210,58.201496,,,,,,,,,,,,,,,,,,,,,,,,,
1577742778.499691,37.000000,0.000000,4260.512695,4316.410156,4173.846191,4242.563965,4276.922852,0.000000,4.000000,,,,0.000000,4.000000,4.000000,4.000000,4.000000,4.000000,,,,,,,,,,,,,,,,,,,,,,,,,,,,,,,,,,,,,
1577742778.507388,38.000000,0.000000,4257.948730,4312.307617,4164.615234,4245.128418,4278.974121,0.000000,4.000000,,,,0.000000,4.000000,4.000000,4.000000,4.000000,4.000000,19.000000,0.000000,0.072116,-0.368164,0.804932,0.459717,0.455085,-0.695811,0.568368,6.897828,-47.625004,58.303066,,,,,,,,,,,,,,,,,,,,,,,,,
1577742778.515184,39.000000,0.000000,4224.102539,4296.410156,4141.538574,4208.717773,4259.487305,0.000000,4.000000,,,,0.000000,4.000000,4.000000,4.000000,4.000000,4.000000,,,,,,,,,,,,,,,,,,,,,,,,,,,,,,,,,,,,,
1577742778.522881,40.000000,0.000000,4234.871582,4312.820313,4149.743652,4211.282227,4277.436035,0.000000,4.000000,,,,0.000000,4.000000,4.000000,4.000000,4.000000,4.000000,20.000000,0.000000,0.072193,-0.367920,0.805176,0.459473,0.455573,-0.679210,0.560067,5.430445,-47.587917,58.394482,,,,,,,,,,,,,,,,,,,,,,,,,
1577742778.530678,41.000000,0.000000,4244.615234,4318.461426,4156.922852,4217.948730,4282.051270,0.000000,4.000000,,,,0.000000,4.000000,4.000000,4.000000,4.000000,4.000000,,,,,,,,,,,,,,,,,,,,,,,,,,,,,,,,,,,,,
1577742778.538374,42.000000,0.000000,4216.922852,4293.846191,4138.974121,4194.358887,4252.307617,0.000000,4.000000,,,,0.000000,4.000000,4.000000,4.000000,4.000000,4.000000,21.000000,0.000000,0.073426,-0.367676,0.805176,0.459473,0.450690,-0.681651,0.560067,6.023892,-47.674171,58.357124,,,,,,,,,,,,,,,,,,,,,,,,,
1577742778.546171,43.000000,0.000000,4204.102539,4266.153809,4120.512695,4175.897461,4237.948730,0.000000,4.000000,,,,0.000000,4.000000,4.000000,4.000000,4.000000,4.000000,,,,,,,,,,,,,252.403671,109.087013,13.622414,13.533298,4.651190,3.514879,2.880314,2.397646,2.668158,3.436361,10.033892,16.580147,4.112589,5.879831,2.743392,8.929458,17.433447,5.338454,6.515547,3.884890,35.107605,14.330249,5.692920,7.003134,3.814656
1577742778.553867,44.000000,0.000000,4231.282227,4277.436035,4135.897461,4195.897461,4261.538574,0.000000,4.000000,,,,0.000000,4.000000,4.000000,4.000000,4.000000,4.000000,22.000000,0.000000,0.071881,-0.367676,0.805176,0.459717,0.464363,-0.687510,0.568856,4.703719,-47.632168,58.263687,,,,,,,,,,,,,,,,,,,,,,,,,
1577742778.561664,45.000000,0.000000,4251.794922,4323.077148,4156.922852,4216.410156,4286.666504,0.000000,4.000000,,,,0.000000,4.000000,4.000000,4.000000,4.000000,4.000000,,,,,,,,,,,,,,,,,,,,,,,,,,,,,,,,,,,,,
1577742778.569361,46.000000,0.000000,4214.358887,4315.897461,4126.153809,4183.077148,4253.846191,0.000000,4.000000,,,,0.000000,4.000000,4.000000,4.000000,4.000000,4.000000,23.000000,0.000000,0.073119,-0.367432,0.805176,0.459717,0.463874,-0.686534,0.562020,3.515563,-47.534550,58.359039,,,,,,,,,,,,,,,,,,,,,,,,,
1577742778.577157,47.000000,0.000000,4165.128418,4266.153809,4086.153809,4139.487305,4203.589844,0.000000,4.000000,,,,0.000000,4.000000,4.000000,4.000000,4.000000,4.000000,,,,,,,,,,,,,,,,,,,,,,,,,,,,,,,,,,,,,
1577742778.584854,48.000000,0.000000,4208.205078,4286.666504,4127.692383,4183.077148,4251.282227,0.000000,4.000000,,,,0.000000,4.000000,4.000000,4.000000,4.000000,4.000000,24.000000,0.000000,0.070379,-0.367432,0.805420,0.459717,0.455573,-0.687510,0.570321,6.334221,-47.446693,58.385040,,,,,,,,,,,,,,,,,,,,,,,,,
1577742778.592550,49.000000,0.000000,4285.128418,4345.128418,4188.205078,4255.897461,4333.333496,0.000000,4.000000,,,,0.000000,4.000000,4.000000,4.000000,4.000000,4.000000,,,,,,,,,,,,,,,,,,,,,,,,,,,,,,,,,,,,,
1577742778.600347,50.000000,0.000000,4270.256348,4330.256348,4168.205078,4238.974121,4318.461426,0.000000,4.000000,,,,0.000000,4.000000,4.000000,4.000000,4.000000,4.000000,25.000000,0.000000,0.070057,-0.367188,0.805420,0.459961,0.453132,-0.691905,0.567880,8.691566,-47.427437,58.528072,,,,,,,,,,,,,,,,,,,,,,,,,
1577742778.608043,51.000000,0.000000,4224.102539,4291.282227,4136.922852,4195.897461,4272.820313,0.000000,4.000000,,,,0.000000,4.000000,4.000000,4.000000,4.000000,4.000000,,,,,,,,,,,,,,,,,,,,,,,,,,,,,,,,,,,,,
1577742778.615840,52.000000,0.000000,4241.025879,4296.410156,4146.153809,4207.692383,4285.641113,0.000000,4.000000,,,,0.000000,4.000000,4.000000,4.000000,4.000000,4.000000,26.000000,0.000000,0.071325,-0.366943,0.805420,0.459961,0.463386,-0.685069,0.567391,9.078533,-47.589554,58.656803,,,,,,,,,,,,,,,,,,,,,,,,,
1577742778.623537,53.000000,0.000000,4264.102539,4317.948730,4148.205078,4216.922852,4295.897461,0.000000,4.000000,,,,0.000000,4.000000,4.000000,4.000000,4.000000,4.000000,,,,,,,,,,,,,,,,,,,,,,,,,,,,,,,,,,,,,
1577742778.631333,54.000000,0.000000,4234.871582,4321.025879,4131.282227,4195.897461,4267.692383,0.000000,4.000000,,,,0.000000,4.000000,4.000000,4.000000,4.000000,4.000000,27.000000,0.000000,0.072570,-0.366699,0.805420,0.459961,0.458503,-0.689464,0.554696,9.247356,-47.615826,58.593212,,,,,,,,,,,,,,,,,,,,,,,,,
1577742778.639030,55.000000,0.000000,4224.102539,4308.717773,4138.974121,4194.871582,4265.641113,0.000000,4.000000,,,,0.000000,4.000000,4.000000,4.000000,4.000000,4.000000,,,,,,,,,,,,,,,,,,,,,,,,,,,,,,,,,,,,,
1577742778.646826,56.000000,0.000000,4246.153809,4301.538574,4162.563965,4211.282227,4279.487305,0.000000,4.000000,,,,0.000000,4.000000,4.000000,4.000000,4.000000,4.000000,28.000000,0.000000,0.071005,-0.366699,0.805420,0.460205,0.446296,-0.689952,0.552254,9.578743,-47.818920,58.535984,,,,,,,,,,,,,,,,,,,,,,,,,
1577742778.654523,57.000000,0.000000,4255.897461,4313.846191,4173.846191,4218.974121,4273.846191,0.000000,4.000000,,,,0.000000,4.000000,4.000000,4.000000,4.000000,4.000000,,,,,,,,,,,,,,,,,,,,,,,,,,,,,,,,,,,,,
1577742778.662319,58.000000,0.000000,4259.487305,4333.846191,4171.794922,4223.589844,4272.307617,0.000000,4.000000,,,,0.000000,4.000000,4.000000,4.000000,4.000000,4.000000,29.000000,0.000000,0.072254,-0.366455,0.805420,0.460205,0.445808,-0.686534,0.552254,11.671453,-47.822258,58.663921,,,,,,,,,,,,,,,,,,,,,,,,,
1577742778.670016,59.000000,0.000000,4249.230957,4321.538574,4144.102539,4203.589844,4262.563965,0.000000,4.000000,,,,0.000000,4.000000,4.000000,4.000000,4.000000,4.000000,,,,,,,,,,,,,362.337769,147.387405,17.581797,16.013779,5.204720,2.820115,3.107764,2.259315,2.179943,3.182363,7.914012,14.314904,4.165124,5.391536,2.886835,8.076685,15.833028,5.526514,6.040825,4.187259,47.511623,13.133876,5.527818,6.401668,4.001754
1577742778.677813,60.000000,0.000000,4226.666504,4301.025879,4118.974121,4174.358887,4244.615234,0.000000,4.000000,,,,0.000000,4.000000,4.000000,4.000000,4.000000,4.000000,30.000000,0.000000,0.072254,-0.366455,0.805420,0.460205,0.442878,-0.699229,0.547860,13.614706,-47.825260,58.659435,,,,,,,,,,,,,,,,,,,,,,,,,
1577742778.685509,61.000000,0.000000,4236.922852,4323.589844,4135.384766,4188.205078,4255.897461,0.000000,4.000000,,,,0.000000,4.000000,4.000000,4.000000,4.000000,4.000000,,,,,,,,,,,,,,,,,,,,,,,,,,,,,,,,,,,,,
1577742778.693306,62.000000,0.000000,4253.333496,4334.358887,4152.307617,4201.538574,4259.487305,0.000000,4.000000,,,,0.000000,4.000000,4.000000,4.000000,4.000000,4.000000,31.000000,0.000000,0.070682,-0.366455,0.805420,0.460449,0.462409,-0.701671,0.551278,13.329912,-47.708332,58.595581,,,,,,,,,,,,,,,,,,,,,,,,,
1577742778.701002,63.000000,0.000000,4236.922852,4314.358887,4145.128418,4184.102539,4236.410156,0.000000,4.000000,,,,0.000000,4.000000,4.000000,4.000000,4.000000,4.000000,,,,,,,,,,,,,,,,,,,,,,,,,,,,,,,,,,,,,
1577742778.708899,64.000000,0.000000,4229.230957,4305.128418,4140.000000,4181.025879,4234.871582,450.000000,4.000000,,,,0.000000,4.000000,4.000000,4.000000,4.000000,4.000000,32.000000,0.000000,0.069404,-0.366699,0.805420,0.460449,0.433600,-0.694835,0.557137,13.133413,-47.662914,58.597931,,,,,,,,,,,,,,,,,,,,,,,,,
1577742778.716695,65.000000,0.000000,4225.641113,4294.871582,4118.461426,4166.153809,4233.333496,450.000000,4.000000,,,,0.000000,4.000000,4.000000,4.000000,4.000000,4.000000,,,,,,,,,,,,,,,,,,,,,,,,,,,,,,,,,,,,,
1577742778.724492,66.000000,0.000000,4224.102539,4297.436035,4115.384766,4157.436035,4228.205078,16220.000000,4.000000,,,,0.000000,4.000000,4.000000,4.000000,4.000000,4.000000,33.000000,0.000000,0.072181,-0.366699,0.805176,0.460449,0.457038,-0.686046,0.555184,13.016379,-47.681850,56.685951,,,,,,,,,,,,,,,,,,,,,,,,,
1577742778.732189,67.000000,0.000000,4231.282227,4320.000000,4133.333496,4175.897461,4234.871582,450.000000,4.000000,,,,0.000000,4.000000,4.000000,4.000000,4.000000,4.000000,,,,,,,,,,,,,,,,,,,,,,,,,,,,,,,,,,,,,
1577742778.740085,68.000000,0.000000,4218.461426,4303.589844,4118.461426,4167.179688,4221.025879,16242.000000,4.000000,,,,0.000000,4.000000,4.000000,4.000000,4.000000,4.000000,34.000000,0.000000,0.070930,-0.366943,0.805176,0.460449,0.454597,-0.698741,0.558602,12.851233,-47.639080,56.939075,,,,,,,,,,,,,,,,,,,,,,,,,
1577742778.747881,69.000000,0.000000,4223.077148,4282.051270,4117.948730,4166.153809,4220.512695,450.000000,4.000000,,,,0.000000,4.000000,4.000000,4.000000,4.000000,4.000000,,,,,,,,,,,,,,,,,,,,,,,,,,,,,,,,,,,,,
1577742778.755678,70.000000,0.000000,4263.589844,4310.256348,4152.307617,4201.538574,4250.769043,16165.000000,4.000000,,,,0.000000,4.000000,4.000000,4.000000,4.000000,4.000000,35.000000,0.000000,0.070930,-0.366943,0.805176,0.460449,0.441901,-0.679698,0.545907,14.497063,-47.660400,55.312614,,,,,,,,,,,,,,,,,,,,,,,,,
1577742778.763375,71.000000,0.000000,4272.307617,4328.717773,4158.974121,4208.205078,4253.333496,450.000000,4.000000,,,,0.000000,4.000000,4.000000,4.000000,4.000000,4.000000,,,,,,,,,,,,,,,,,,,,,,,,,,,,,,,,,,,,,
1577742778.771071,72.000000,0.000000,4242.051270,4305.641113,4140.000000,4188.717773,4230.769043,450.000000,4.000000,,,,0.000000,4.000000,4.000000,4.000000,4.000000,4.000000,36.000000,0.000000,0.070852,-0.367188,0.804932,0.460693,0.464363,-0.689464,0.553231,10.295850,-47.679592,55.703075,,,,,,,,,,,,,,,,,,,,,,,,,
1577742778.778868,73.000000,0.000000,4245.128418,4302.563965,4146.153809,4203.589844,4243.077148,16214.000000,4.000000,,,,0.000000,4.000000,4.000000,4.000000,4.000000,4.000000,,,,,,,,,,,,,,,,,,,,,,,,,,,,,,,,,,,,,
1577742778.786564,74.000000,0.000000,4266.153809,4320.512695,4156.922852,4222.563965,4261.538574,450.000000,4.000000,,,,0.000000,4.000000,4.000000,4.000000,4.000000,4.000000,37.000000,0.000000,0.070852,-0.367188,0.804932,0.460693,0.451667,-0.684092,0.564462,12.436479,-47.637047,56.054489,,,,,,,,,,,,,,,,,,,,,,,,,
1577742778.794361,75.000000,0.000000,4251.794922,4316.922852,4145.641113,4198.461426,4248.205078,16224.000000,4.000000,,,,0.000000,4.000000,4.000000,4.000000,4.000000,4.000000,,,,,,,,,,,,,451.396606,173.956100,21.503056,17.708714,5.588336,2.993131,3.431373,2.240395,1.793713,3.051453,6.504730,12.172598,4.367861,4.970292,3.074291,7.389605,15.601582,6.512268,5.779607,4.478349,61.292500,14.037169,5.992485,5.994932,4.166811
1577742778.802058,76.000000,0.000000,4220.512695,4311.794922,4131.282227,4166.666504,4227.692383,450.000000,4.000000,,,,0.000000,4.000000,4.000000,4.000000,4.000000,4.000000,38.000000,0.000000,0.070852,-0.367188,0.804932,0.460693,0.447272,-0.699718,0.560067,8.501140,-47.658569,54.396854,,,,,,,,,,,,,,,,,,,,,,,,,
1577742778.809954,77.000000,0.000000,4193.846191,4315.384766,4107.179688,4147.692383,4195.897461,450.000000,4.000000,,,,0.000000,4.000000,4.000000,4.000000,4.000000,4.000000,,,,,,,,,,,,,,,,,,,,,,,,,,,,,,,,,,,,,
1577742778.817751,78.000000,0.000000,4185.128418,4318.461426,4092.307617,4140.000000,4173.333496,450.000000,4.000000,,,,0.000000,4.000000,4.000000,4.000000,4.000000,4.000000,39.000000,0.000000,0.072028,-0.367188,0.804688,0.460938,0.455573,-0.710460,0.560067,10.641794,-47.677944,52.964798,,,,,,,,,,,,,,,,,,,,,,,,,
1577742778.825547,79.000000,0.000000,4200.000000,4331.282227,4110.769043,4156.922852,4188.717773,16224.000000,4.000000,,,,0.000000,4.000000,4.000000,4.000000,4.000000,4.000000,,,,,,,,,,,,,,,,,,,,,,,,,,,,,,,,,,,,,
1577742778.833244,80.000000,0.000000,4209.743652,4323.589844,4128.205078,4175.897461,4201.025879,450.000000,4.000000,,,,0.000000,4.000000,4.000000,4.000000,4.000000,4.000000,40.000000,0.000000,0.072028,-0.367188,0.804688,0.460938,0.449714,-0.687999,0.571298,10.714107,-47.635563,53.470409,,,,,,,,,,,,,,,,,,,,,,,,,
1577742778.841040,81.000000,0.000000,4210.769043,4307.179688,4131.282227,4175.897461,4197.948730,450.000000,4.000000,,,,0.000000,4.000000,4.000000,4.000000,4.000000,4.000000,,,,,,,,,,,,,,,,,,,,,,,,,,,,,,,,,,,,,
1577742778.848737,82.000000,0.000000,4225.128418,4339.487305,4148.205078,4184.102539,4213.333496,450.000000,4.000000,,,,0.000000,4.000000,4.000000,4.000000,4.000000,4.000000,41.000000,0.000000,0.072028,-0.367188,0.804688,0.460938,0.461433,-0.702159,0.562509,8.984727,-47.657234,54.164719,,,,,,,,,,,,,,,,,,,,,,,,,
1577742778.856533,83.000000,0.000000,4238.461426,4369.230957,4168.205078,4200.512695,4228.717773,16224.000000,4.000000,,,,0.000000,4.000000,4.000000,4.000000,4.000000,4.000000,,,,,,,,,,,,,,,,,,,,,,,,,,,,,,,,,,,,,
1577742778.864230,84.000000,0.000000,4246.153809,4336.922852,4171.282227,4201.538574,4226.666504,450.000000,4.000000,,,,0.000000,4.000000,4.000000,4.000000,4.000000,4.000000,42.000000,0.000000,0.072028,-0.367188,0.804688,0.460938,0.448249,-0.695811,0.563485,11.376100,-47.736557,54.669968,,,,,,,,,,,,,,,,,,,,,,,,,
1577742778.872026,85.000000,0.000000,4254.871582,4317.948730,4172.307617,4191.794922,4223.589844,450.000000,4.000000,,,,0.000000,4.000000,4.000000,4.000000,4.000000,4.000000,,,,,,,,,,,,,,,,,,,,,,,,,,,,,,,,,,,,,
1577742778.879723,86.000000,0.000000,4248.717773,4346.666504,4172.820313,4182.051270,4221.538574,450.000000,4.000000,,,,0.000000,4.000000,4.000000,4.000000,4.000000,4.000000,43.000000,0.000000,0.072028,-0.367188,0.804688,0.460938,0.468269,-0.688487,0.564462,11.434796,-47.688316,55.064877,,,,,,,,,,,,,,,,,,,,,,,,,
1577742778.887520,87.000000,0.000000,4233.846191,4342.563965,4161.538574,4174.871582,4213.333496,16224.000000,4.000000,,,,0.000000,4.000000,4.000000,4.000000,4.000000,4.000000,,,,,,,,,,,,,,,,,,,,,,,,,,,,,,,,,,,,,
1577742778.895216,88.000000,0.000000,4237.948730,4310.256348,4156.922852,4182.563965,4211.282227,450.000000,4.000000,,,,0.000000,4.000000,4.000000,4.000000,4.000000,4.000000,44.000000,0.000000,0.072028,-0.367188,0.804688,0.460938,0.458015,-0.694347,0.551766,13.341901,-47.764526,55.360481,,,,,,,,,,,,,,,,,,,,,,,,,
1577742778.903113,89.000000,0.000000,4247.692383,4325.128418,4164.102539,4193.846191,4214.871582,450.000000,4.000000,,,,0.000000,4.000000,4.000000,4.000000,4.000000,4.000000,,,,,,,,,,,,,,,,,,,,,,,,,,,,,,,,,,,,,
1577742778.910909,90.000000,0.000000,4245.128418,4351.282227,4168.205078,4194.871582,4220.000000,450.000000,4.000000,,,,0.000000,4.000000,4.000000,4.000000,4.000000,4.000000,45.000000,0.000000,0.072028,-0.367188,0.804688,0.460938,0.457527,-0.693858,0.557626,13.323648,-47.713490,55.506893,,,,,,,,,,,,,,,,,,,,,,,,,
1577742778.918806,91.000000,0.000000,4260.512695,4352.307617,4175.384766,4207.692383,4243.589844,16224.000000,4.000000,,,,0.000000,4.000000,4.000000,4.000000,4.000000,4.000000,,,,,,,,,,,,,490.490692,179.326416,23.983467,17.917833,5.694378,3.605956,3.663580,2.270661,1.623664,3.092789,5.769869,10.116069,4.465665,4.686462,3.261549,6.749396,15.939054,7.929618,5.733687,4.717968,72.386955,16.193237,6.817192,5.831935,4.269835
1577742778.926602,92.000000,0.000000,4275.897461,4350.769043,4178.974121,4216.922852,4248.205078,450.000000,4.000000,,,,0.000000,4.000000,4.000000,4.000000,4.000000,4.000000,46.000000,0.000000,0.072028,-0.367188,0.804688,0.460938,0.444343,-0.689952,0.557137,13.067961,-47.488110,55.818108,,,,,,,,,,,,,,,,,,,,,,,,,
1577742778.934399,93.000000,0.000000,4260.512695,4346.666504,4164.615234,4198.461426,4217.948730,450.000000,4.000000,,,,0.000000,4.000000,4.000000,4.000000,4.000000,4.000000,,,,,,,,,,,,,,,,,,,,,,,,,,,,,,,,,,,,,
1577742778.942095,94.000000,0.000000,4243.589844,4331.282227,4141.538574,4179.487305,4204.102539,450.000000,4.000000,,,,0.000000,4.000000,4.000000,4.000000,4.000000,4.000000,47.000000,0.000000,0.072028,-0.367188,0.804688,0.460938,0.458015,-0.694347,0.551766,14.811748,-47.464710,55.918758,,,,,,,,,,,,,,,,,,,,,,,,,
1577742778.949892,95.000000,0.000000,4244.102539,4331.794922,4130.769043,4175.384766,4210.769043,16224.000000,4.000000,,,,0.000000,4.000000,4.000000,4.000000,4.000000,4.000000,,,,,,,,,,,,,,,,,,,,,,,,,,,,,,,,,,,,,
1577742778.957588,96.000000,0.000000,4268.717773,4358.461426,4143.077148,4188.205078,4227.692383,450.000000,4.000000,,,,0.000000,4.000000,4.000000,4.000000,4.000000,4.000000,48.000000,0.000000,0.072028,-0.367188,0.804688,0.460938,0.444343,-0.689952,0.557137,14.407249,-47.264206,56.188789,,,,,,,,,,,,,,,,,,,,,,,,,
1577742778.965385,97.000000,0.000000,4276.410156,4366.153809,4154.358887,4194.358887,4230.256348,450.000000,4.000000,,,,0.000000,4.000000,4.000000,4.000000,4.000000,4.000000,,,,,,,,,,,,,,,,,,,,,,,,,,,,,,,,,,,,,
1577742778.973082,98.000000,0.000000,4263.589844,4351.794922,4168.205078,4190.769043,4219.487305,450.000000,4.000000,,,,0.000000,4.000000,4.000000,4.000000,4.000000,4.000000,49.000000,0.000000,0.070448,-0.367188,0.804688,0.461182,0.453132,-0.691905,0.557137,10.274834,-47.203384,56.491631,,,,,,,,,,,,,,,,,,,,,,,,,
1577742778.980978,99.000000,0.000000,4268.205078,4353.333496,4192.820313,4199.487305,4224.102539,16224.000000,4.000000,,,,0.000000,4.000000,4.000000,4.000000,4.000000,4.000000,,,,,,,,,,,,,,,,,,,,,,,,,,,,,,,,,,,,,
1577742778.988775,100.000000,0.000000,4261.538574,4355.897461,4186.153809,4195.384766,4225.641113,450.000000,4.000000,,,,0.000000,4.000000,4.000000,4.000000,4.000000,4.000000,50.000000,0.000000,0.071708,-0.366943,0.804688,0.461182,0.458503,-0.678233,0.561532,6.615474,-47.148647,56.584743,,,,,,,,,,,,,,,,,,,,,,,,,
1577742778.996571,101.000000,0.000000,4246.666504,4343.589844,4163.589844,4180.000000,4213.846191,450.000000,4.000000,,,,0.000000,4.000000,4.000000,4.000000,4.000000,4.000000,,,,,,,,,,,,,,,,,,,,,,,,,,,,,,,,,,,,,
1577742779.004368,102.000000,0.000000,4272.307617,4354.871582,4181.538574,4197.436035,4227.179688,450.000000,4.000000,,,,0.000000,4.000000,4.000000,4.000000,4.000000,4.000000,51.000000,0.000000,0.071627,-0.367188,0.804443,0.461426,0.458503,-0.698741,0.558602,7.090418,-47.278824,56.847988,,,,,,,,,,,,,,,,,,,,,,,,,
1577742779.012064,103.000000,0.000000,4294.871582,4365.128418,4193.846191,4215.384766,4245.641113,16224.000000,4.000000,,,,0.000000,4.000000,4.000000,4.000000,4.000000,4.000000,,,,,,,,,,,,,,,,,,,,,,,,,,,,,,,,,,,,,
1577742779.019861,104.000000,0.000000,4271.282227,4344.615234,4164.615234,4194.871582,4229.230957,450.000000,4.000000,,,,0.000000,4.000000,4.000000,4.000000,4.000000,4.000000,52.000000,0.000000,0.070036,-0.367188,0.804443,0.461670,0.452644,-0.692393,0.571786,7.517869,-47.216541,57.084911,,,,,,,,,,,,,,,,,,,,,,,,,
1577742779.027557,105.000000,0.000000,4258.974121,4346.153809,4150.769043,4172.820313,4216.410156,450.000000,4.000000,,,,0.000000,4.000000,4.000000,4.000000,4.000000,4.000000,,,,,,,,,,,,,,,,,,,,,,,,,,,,,,,,,,,,,
1577742779.035354,106.000000,0.000000,4267.179688,4367.692383,4156.922852,4167.692383,4222.051270,450.000000,4.000000,,,,0.000000,4.000000,4.000000,4.000000,4.000000,4.000000,53.000000,0.000000,0.070036,-0.367188,0.804443,0.461670,0.462898,-0.695323,0.553231,7.902574,-47.339931,57.238327,,,,,,,,,,,,,,,,,,,,,,,,,
1577742779.043051,107.000000,0.000000,4287.179688,4382.563965,4177.436035,4188.717773,4244.102539,16224.000000,4.000000,,,,0.000000,4.000000,4.000000,4.000000,4.000000,4.000000,,,,,,,,,,,,,469.630798,161.073364,24.074202,16.422821,5.531161,4.436154,3.647415,2.265495,1.674867,3.276232,5.693904,8.118171,4.344960,4.521091,3.400465,6.174879,15.858017,9.291398,5.773844,4.875199,77.642708,18.214020,7.661510,5.790187,4.296447
1577742779.050847,108.000000,0.000000,4307.692383,4386.153809,4196.922852,4220.000000,4266.666504,450.000000,4.000000,,,,0.000000,4.000000,4.000000,4.000000,4.000000,4.000000,54.000000,0.000000,0.071220,-0.367188,0.804199,0.461914,0.466804,-0.685069,0.556649,8.248808,-47.271538,57.436214,,,,,,,,,,,,,,,,,,,,,,,,,
1577742779.058544,109.000000,0.000000,4288.717773,4373.846191,4170.769043,4201.538574,4250.256348,450.000000,4.000000,,,,0.000000,4.000000,4.000000,4.000000,4.000000,4.000000,,,,,,,,,,,,,,,,,,,,,,,,,,,,,,,,,,,,,
1577742779.066340,110.000000,0.000000,4263.077148,4356.922852,4136.922852,4162.051270,4225.641113,450.000000,4.000000,,,,0.000000,4.000000,4.000000,4.000000,4.000000,4.000000,55.000000,0.000000,0.072786,-0.367188,0.804199,0.461670,0.458015,-0.685069,0.566415,4.732236,-47.209984,57.674129,,,,,,,,,,,,,,,,,,,,,,,,,
1577742779.074037,111.000000,0.000000,4275.897461,4360.512695,4147.692383,4166.153809,4239.487305,16224.000000,4.000000,,,,0.000000,4.000000,4.000000,4.000000,4.000000,4.000000,,,,,,,,,,,,,,,,,,,,,,,,,,,,,,,,,,,,,
1577742779.081833,112.000000,0.000000,4308.717773,4385.128418,4177.948730,4201.025879,4278.974121,450.000000,4.000000,,,,0.000000,4.000000,4.000000,4.000000,4.000000,4.000000,56.000000,0.000000,0.072786,-0.367188,0.804199,0.461670,0.455085,-0.691905,0.566415,7.309596,-47.513474,57.828438,,,,,,,,,,,,,,,,,,,,,,,,,
1577742779.089530,113.000000,0.000000,4296.410156,4383.589844,4169.743652,4189.230957,4271.282227,450.000000,4.000000,,,,0.000000,4.000000,4.000000,4.000000,4.000000,4.000000,,,,,,,,,,,,,,,,,,,,,,,,,,,,,,,,,,,,,
1577742779.097327,114.000000,0.000000,4256.410156,4348.717773,4148.205078,4143.589844,4230.256348,450.000000,4.000000,,,,0.000000,4.000000,4.000000,4.000000,4.000000,4.000000,57.000000,0.000000,0.072786,-0.367188,0.804199,0.461670,0.439948,-0.688975,0.562020,9.629220,-47.607170,57.967316,,,,,,,,,,,,,,,,,,,,,,,,,
1577742779.105023,115.000000,0.000000,4261.538574,4334.871582,4157.948730,4146.153809,4233.333496,16224.000000,4.000000,,,,0.000000,4.000000,4.000000,4.000000,4.000000,4.000000,,,,,,,,,,,,,,,,,,,,,,,,,,,,,,,,,,,,,
1577742779.112820,116.000000,0.000000,4290.769043,4360.512695,4180.512695,4174.358887,4263.077148,450.000000,4.000000,,,,0.000000,4.000000,4.000000,4.000000,4.000000,4.000000,58.000000,0.000000,0.068744,-0.367432,0.804443,0.461670,0.462898,-0.696788,0.558114,11.716882,-47.512054,58.032490,,,,,,,,,,,,,,,,,,,,,,,,,
1577742779.120516,117.000000,0.000000,4301.025879,4386.153809,4200.512695,4187.179688,4273.846191,450.000000,4.000000,,,,0.000000,4.000000,4.000000,4.000000,4.000000,4.000000,,,,,,,,,,,,,,,,,,,,,,,,,,,,,,,,,,,,,
1577742779.128313,118.000000,0.000000,4299.487305,4390.769043,4207.692383,4196.922852,4270.256348,450.000000,4.000000,,,,0.000000,4.000000,4.000000,4.000000,4.000000,4.000000,59.000000,0.000000,0.073102,-0.367432,0.804199,0.461426,0.458015,-0.689464,0.556161,9.647964,-47.486263,57.971516,,,,,,,,,,,,,,,,,,,,,,,,,
1577742779.136010,119.000000,0.000000,4298.461426,4385.128418,4198.974121,4201.025879,4272.820313,16224.000000,4.000000,,,,0.000000,4.000000,4.000000,4.000000,4.000000,4.000000,,,,,,,,,,,,,,,,,,,,,,,,,,,,,,,,,,,,,
1577742779.143806,120.000000,0.000000,4287.692383,4376.922852,4185.128418,4190.769043,4267.179688,450.000000,4.000000,,,,0.000000,4.000000,4.000000,4.000000,4.000000,4.000000,60.000000,0.000000,0.071544,-0.367432,0.804199,0.461670,0.456550,-0.669932,0.542489,11.554304,-47.522865,58.036270,,,,,,,,,,,,,,,,,,,,,,,,,
1577742779.151503,121.000000,0.000000,4272.820313,4387.179688,4173.333496,4173.333496,4249.230957,450.000000,4.000000,,,,0.000000,4.000000,4.000000,4.000000,4.000000,4.000000,,,,,,,,,,,,,,,,,,,,,,,,,,,,,,,,,,,,,
1577742779.159399,122.000000,0.000000,4268.717773,4401.025879,4161.538574,4158.461426,4241.025879,450.000000,4.000000,,,,0.000000,4.000000,4.000000,4.000000,4.000000,4.000000,61.000000,0.000000,0.072786,-0.367188,0.804199,0.461670,0.442390,-0.684092,0.564950,13.569088,-47.675438,58.094547,,,,,,,,,,,,,,,,,,,,,,,,,
1577742779.167196,123.000000,0.000000,4260.512695,4381.025879,4143.077148,4148.717773,4233.846191,16224.000000,4.000000,,,,0.000000,4.000000,4.000000,4.000000,4.000000,4.000000,,,,,,,,,,,,,394.170685,125.318123,21.750721,13.598568,5.191600,4.983795,3.351423,2.165161,1.845703,3.511225,5.702995,6.298502,4.037507,4.374303,3.448614,5.702398,14.791082,10.187810,5.712008,4.915562,75.146935,18.887793,8.252873,5.659868,4.242075
1577742779.175092,124.000000,0.000000,4245.128418,4371.282227,4133.846191,4142.051270,4230.769043,450.000000,4.000000,,,,0.000000,4.000000,4.000000,4.000000,4.000000,4.000000,62.000000,0.000000,0.071305,-0.366943,0.804443,0.461670,0.446296,-0.688487,0.557626,15.322578,-47.633308,56.232910,,,,,,,,,,,,,,,,,,,,,,,,,
1577742779.182889,125.000000,0.000000,4263.589844,4408.205078,4165.128418,4162.051270,4261.025879,450.000000,4.000000,,,,0.000000,4.000000,4.000000,4.000000,4.000000,4.000000,,,,,,,,,,,,,,,,,,,,,,,,,,,,,,,,,,,,,
1577742779.190785,126.000000,0.000000,4284.615234,4419.487305,4197.436035,4188.205078,4278.974121,450.000000,4.000000,,,,0.000000,4.000000,4.000000,4.000000,4.000000,4.000000,63.000000,0.000000,0.069705,-0.366943,0.804443,0.461914,0.458503,-0.675792,0.555673,16.840904,-47.595390,56.471523,,,,,,,,,,,,,,,,,,,,,,,,,
1577742779.198582,127.000000,0.000000,4253.846191,4375.897461,4178.974121,4171.282227,4241.025879,235.000000,4.000000,,,,0.000000,4.000000,4.000000,4.000000,4.000000,4.000000,,,,,,,,,,,,,,,,,,,,,,,,,,,,,,,,,,,,,
1577742779.206378,0.000000,0.000000,4244.615234,4371.794922,4181.025879,4169.230957,4230.256348,450.000000,4.000000,,,,0.000000,4.000000,4.000000,4.000000,4.000000,4.000000,0.000000,0.000000,0.070979,-0.366699,0.804443,0.461914,0.470710,-0.693858,0.562020,18.267214,-47.561268,56.686275,,,,,,,,,,,,,,,,,,,,,,,,,
1577742779.214175,1.000000,0.000000,4263.077148,4405.128418,4210.769043,4189.743652,4248.717773,450.000000,4.000000,,,,0.000000,4.000000,4.000000,4.000000,4.000000,4.000000,,,,,,,,,,,,,,,,,,,,,,,,,,,,,,,,,,,,,
1577742779.221871,2.000000,0.000000,4248.717773,4400.000000,4196.410156,4173.333496,4232.820313,16212.000000,4.000000,,,,0.000000,4.000000,4.000000,4.000000,4.000000,4.000000,1.000000,0.000000,0.070979,-0.366699,0.804443,0.461914,0.454109,-0.694347,0.569345,17.636799,-47.769814,56.939369,,,,,,,,,,,,,,,,,,,,,,,,,
1577742779.229668,3.000000,0.000000,4235.384766,4374.871582,4175.897461,4149.743652,4220.512695,450.000000,4.000000,,,,0.000000,4.000000,4.000000,4.000000,4.000000,4.000000,,,,,,,,,,,,,,,,,,,,,,,,,,,,,,,,,,,,,
1577742779.237364,4.000000,0.000000,4255.384766,4375.897461,4194.358887,4161.538574,4243.589844,16240.000000,4.000000,,,,0.000000,4.000000,4.000000,4.000000,4.000000,4.000000,2.000000,0.000000,0.069705,-0.366943,0.804443,0.461914,0.450202,-0.677745,0.562997,18.863888,-47.837879,57.047523,,,,,,,,,,,,,,,,,,,,,,,,,
1577742779.245161,5.000000,0.000000,4277.948730,4397.948730,4216.410156,4182.051270,4265.128418,450.000000,4.000000,,,,0.000000,4.000000,4.000000,4.000000,4.000000,4.000000,,,,,,,,,,,,,,,,,,,,,,,,,,,,,,,,,,,,,
1577742779.252857,6.000000,0.000000,4264.102539,4398.974121,4197.948730,4170.769043,4247.692383,16156.000000,4.000000,,,,0.000000,4.000000,4.000000,4.000000,4.000000,4.000000,3.000000,0.000000,0.069705,-0.366943,0.804443,0.461914,0.459480,-0.685557,0.551766,18.054174,-47.839321,57.204678,,,,,,,,,,,,,,,,,,,,,,,,,
1577742779.260654,7.000000,0.000000,4243.077148,4383.589844,4173.333496,4149.230957,4226.666504,450.000000,4.000000,,,,0.000000,4.000000,4.000000,4.000000,4.000000,4.000000,,,,,,,,,,,,,,,,,,,,,,,,,,,,,,,,,,,,,
1577742779.268451,8.000000,0.000000,4226.666504,4352.307617,4164.615234,4140.512695,4217.948730,450.000000,4.000000,,,,0.000000,4.000000,4.000000,4.000000,4.000000,4.000000,4.000000,0.000000,0.070894,-0.366943,0.804199,0.462158,0.451179,-0.688487,0.562509,17.385250,-47.780800,55.491840,,,,,,,,,,,,,,,,,,,,,,,,,
1577742779.276147,9.000000,0.000000,4221.025879,4334.871582,4168.205078,4152.820313,4222.563965,16205.000000,4.000000,,,,0.000000,4.000000,4.000000,4.000000,4.000000,4.000000,,,,,,,,,,,,,,,,,,,,,,,,,,,,,,,,,,,,,
1577742779.283844,10.000000,0.000000,4245.128418,4367.179688,4185.641113,4173.846191,4250.769043,450.000000,4.000000,,,,0.000000,4.000000,4.000000,4.000000,4.000000,4.000000,5.000000,0.000000,0.072146,-0.366699,0.804199,0.462158,0.439948,-0.685069,0.558114,16.723402,-47.728134,53.890469,,,,,,,,,,,,,,,,,,,,,,,,,
1577742779.291640,11.000000,0.000000,4256.922852,4390.769043,4186.666504,4167.692383,4262.051270,16212.000000,4.000000,,,,0.000000,4.000000,4.000000,4.000000,4.000000,4.000000,,,,,,,,,,,,,293.649078,83.701408,17.689058,10.241232,4.782185,4.867248,2.820814,1.935507,1.997756,3.690077,5.541110,4.992245,3.684981,4.160196,3.382419,5.372591,12.720928,10.291433,5.415410,4.801694,66.509506,17.649092,8.317864,5.299052,4.098436
1577742779.299337,12.000000,0.000000,4234.871582,4356.922852,4169.743652,4146.153809,4237.948730,450.000000,4.000000,,,,0.000000,4.000000,4.000000,4.000000,4.000000,4.000000,6.000000,0.000000,0.070565,-0.366699,0.804199,0.462402,0.452155,-0.693370,0.558602,16.307184,-47.680737,54.363327,,,,,,,,,,,,,,,,,,,,,,,,,
1577742779.307133,13.000000,0.000000,4237.436035,4335.897461,4172.307617,4154.358887,4233.333496,450.000000,4.000000,,,,0.000000,4.000000,4.000000,4.000000,4.000000,4.000000,,,,,,,,,,,,,,,,,,,,,,,,,,,,,,,,,,,,,
1577742779.314830,14.000000,0.000000,4251.794922,4352.820313,4171.282227,4162.051270,4245.641113,450.000000,4.000000,,,,0.000000,4.000000,4.000000,4.000000,4.000000,4.000000,7.000000,0.000000,0.068946,-0.366699,0.804199,0.462646,0.452155,-0.706065,0.552743,15.753142,-47.817524,54.669270,,,,,,,,,,,,,,,,,,,,,,,,,
1577742779.322727,15.000000,0.000000,4201.538574,4331.282227,4131.282227,4110.256348,4199.487305,16212.000000,4.000000,,,,0.000000,4.000000,4.000000,4.000000,4.000000,4.000000,,,,,,,,,,,,,,,,,,,,,,,,,,,,,,,,,,,,,
1577742779.330523,16.000000,0.000000,4183.589844,4328.205078,4136.410156,4098.461426,4177.436035,0.000000,4.000000,,,,0.000000,4.000000,4.000000,4.000000,4.000000,4.000000,8.000000,0.000000,0.070232,-0.366455,0.804199,0.462646,0.438483,-0.710948,0.560067,17.108780,-47.641552,53.269787,,,,,,,,,,,,,,,,,,,,,,,,,
1577742779.338419,17.000000,0.000000,4252.307617,4380.000000,4190.256348,4162.563965,4234.871582,0.000000,4.000000,,,,0.000000,4.000000,4.000000,4.000000,4.000000,4.000000,,,,,,,,,,,,,,,,,,,,,,,,,,,,,,,,,,,,,
