title:014, start timestamp:2019-12-31T00:54:34.425859+03:00, stop timestamp:2019-12-31T00:55:21.386161+03:00, headset type:INSIGHT, headset serial:A2D200FB, headset firmware:930, subject name:Qasim, channels:56, sampling rate:eeg_128;mot_64;pow_8, samples:6020      , version:2.0
Timestamp,EEG.Counter,EEG.Interpolated,EEG.AF3,EEG.T7,EEG.Pz,EEG.T8,EEG.AF4,EEG.RawCq,EEG.Battery,MarkerIndex,MarkerType,MarkerValueInt,EEG.MarkerHardware,CQ.AF3,CQ.T7,CQ.Pz,CQ.T8,CQ.AF4,MOT.CounterMems,MOT.InterpolatedMems,MOT.Q0,MOT.Q1,MOT.Q2,MOT.Q3,MOT.AccX,MOT.AccY,MOT.AccZ,MOT.MagX,MOT.MagY,MOT.MagZ,POW.AF3.Theta,POW.AF3.Alpha,POW.AF3.BetaL,POW.AF3.BetaH,POW.AF3.Gamma,POW.T7.Theta,POW.T7.Alpha,POW.T7.BetaL,POW.T7.BetaH,POW.T7.Gamma,POW.Pz.Theta,POW.Pz.Alpha,POW.Pz.BetaL,POW.Pz.BetaH,POW.Pz.Gamma,POW.T8.Theta,POW.T8.Alpha,POW.T8.BetaL,POW.T8.BetaH,POW.T8.Gamma,POW.AF4.Theta,POW.AF4.Alpha,POW.AF4.BetaL,POW.AF4.BetaH,POW.AF4.Gamma
1577742874.425859,54.000000,0.000000,4228.717773,4262.051270,4143.589844,4137.948730,4210.769043,0.000000,4.000000,,,,0.000000,4.000000,4.000000,4.000000,4.000000,4.000000,27.000000,0.000000,0.121571,-0.407227,0.790283,0.441406,0.552254,-0.591318,0.581552,8.047959,-48.453201,56.778408,,,,,,,,,,,,,,,,,,,,,,,,,
1577742874.433756,55.000000,0.000000,4210.769043,4262.051270,4133.846191,4122.563965,4201.538574,0.000000,4.000000,,,,0.000000,4.000000,4.000000,4.000000,4.000000,4.000000,,,,,,,,,,,,,,,,,,,,,,,,,,,,,,,,,,,,,
1577742874.441552,56.000000,0.000000,4226.666504,4284.615234,4152.307617,4141.538574,4205.641113,0.000000,4.000000,,,,0.000000,4.000000,4.000000,4.000000,4.000000,4.000000,28.000000,0.000000,0.121453,-0.407471,0.790039,0.441650,0.554208,-0.591318,0.587900,4.132764,-48.512741,57.022289,,,,,,,,,,,,,,,,,,,,,,,,,
1577742874.449449,57.000000,0.000000,4221.538574,4269.743652,4148.717773,4133.333496,4184.615234,0.000000,4.000000,,,,0.000000,4.000000,4.000000,4.000000,4.000000,4.000000,,,,,,,,,,,,,,,,,,,,,,,,,,,,,,,,,,,,,
1577742874.457245,58.000000,0.000000,4230.769043,4264.615234,4158.461426,4136.410156,4212.820313,0.000000,4.000000,,,,0.000000,4.000000,4.000000,4.000000,4.000000,4.000000,29.000000,0.000000,0.120562,-0.407471,0.790039,0.441895,0.552254,-0.574716,0.603525,7.248594,-48.506512,57.361412,,,,,,,,,,,,,,,,,,,,,,,,,
1577742874.465042,59.000000,0.000000,4227.692383,4278.974121,4164.102539,4140.512695,4215.897461,0.000000,4.000000,,,,0.000000,4.000000,4.000000,4.000000,4.000000,4.000000,,,,,,,,,,,,,4.187668,2.094543,4.484980,3.378614,4.950464,0.945919,1.303754,1.367988,1.245154,3.318597,2.648706,1.403434,5.446357,3.129720,3.523786,5.770254,3.707909,4.796084,3.502232,5.344098,4.051476,2.795001,6.789279,4.015481,5.436710
1577742874.472738,60.000000,0.000000,4206.666504,4272.307617,4153.333496,4124.615234,4187.692383,0.000000,4.000000,,,,0.000000,4.000000,4.000000,4.000000,4.000000,4.000000,30.000000,0.000000,0.121264,-0.407471,0.789795,0.442139,0.530282,-0.589364,0.589853,3.413336,-48.680351,57.487179,,,,,,,,,,,,,,,,,,,,,,,,,
1577742874.480635,61.000000,0.000000,4236.922852,4271.794922,4185.641113,4156.922852,4219.487305,0.000000,4.000000,,,,0.000000,4.000000,4.000000,4.000000,4.000000,4.000000,,,,,,,,,,,,,,,,,,,,,,,,,,,,,,,,,,,,,
1577742874.488431,62.000000,0.000000,4237.948730,4262.051270,4192.820313,4163.589844,4218.461426,0.000000,4.000000,,,,0.000000,4.000000,4.000000,4.000000,4.000000,4.000000,31.000000,0.000000,0.120299,-0.407227,0.789795,0.442627,0.535653,-0.595712,0.586435,-0.038397,-48.657360,57.660179,,,,,,,,,,,,,,,,,,,,,,,,,
1577742874.496328,63.000000,0.000000,4196.410156,4257.948730,4153.846191,4116.410156,4178.974121,0.000000,4.000000,,,,0.000000,4.000000,4.000000,4.000000,4.000000,4.000000,,,,,,,,,,,,,,,,,,,,,,,,,,,,,,,,,,,,,
1577742874.504124,64.000000,0.000000,4192.820313,4274.871582,4147.692383,4108.717773,4180.512695,450.000000,4.000000,,,,0.000000,4.000000,4.000000,4.000000,4.000000,4.000000,32.000000,0.000000,0.120104,-0.407227,0.789551,0.443115,0.536141,-0.604013,0.571298,-0.273819,-48.576855,57.875698,,,,,,,,,,,,,,,,,,,,,,,,,
1577742874.511921,65.000000,0.000000,4210.256348,4276.922852,4164.615234,4128.717773,4201.025879,450.000000,4.000000,,,,0.000000,4.000000,4.000000,4.000000,4.000000,4.000000,,,,,,,,,,,,,,,,,,,,,,,,,,,,,,,,,,,,,
1577742874.519617,66.000000,0.000000,4208.205078,4263.077148,4159.487305,4122.563965,4197.436035,16219.000000,4.000000,,,,0.000000,4.000000,4.000000,4.000000,4.000000,4.000000,33.000000,0.000000,0.120732,-0.406982,0.789307,0.443604,0.548348,-0.600107,0.572274,3.342485,-48.683842,56.035942,,,,,,,,,,,,,,,,,,,,,,,,,
1577742874.527414,67.000000,0.000000,4181.025879,4252.820313,4140.512695,4098.461426,4165.641113,450.000000,4.000000,,,,0.000000,4.000000,4.000000,4.000000,4.000000,4.000000,,,,,,,,,,,,,,,,,,,,,,,,,,,,,,,,,,,,,
1577742874.535111,68.000000,0.000000,4167.692383,4255.384766,4145.641113,4095.897461,4157.948730,16241.000000,4.000000,,,,0.000000,4.000000,4.000000,4.000000,4.000000,4.000000,34.000000,0.000000,0.120299,-0.407227,0.789795,0.442627,0.535653,-0.595712,0.586435,6.597159,-48.720318,56.294254,,,,,,,,,,,,,,,,,,,,,,,,,
1577742874.542907,69.000000,0.000000,4186.666504,4263.077148,4163.589844,4109.230957,4188.717773,450.000000,4.000000,,,,0.000000,4.000000,4.000000,4.000000,4.000000,4.000000,,,,,,,,,,,,,,,,,,,,,,,,,,,,,,,,,,,,,
1577742874.550604,70.000000,0.000000,4202.051270,4266.666504,4166.666504,4114.871582,4209.230957,16139.000000,4.000000,,,,0.000000,4.000000,4.000000,4.000000,4.000000,4.000000,35.000000,0.000000,0.120732,-0.406982,0.789307,0.443604,0.548348,-0.600107,0.572274,9.526364,-48.812962,54.612644,,,,,,,,,,,,,,,,,,,,,,,,,
1577742874.558500,71.000000,0.000000,4202.563965,4257.436035,4172.307617,4125.128418,4211.282227,450.000000,4.000000,,,,0.000000,4.000000,4.000000,4.000000,4.000000,4.000000,,,,,,,,,,,,,,,,,,,,,,,,,,,,,,,,,,,,,
1577742874.566297,72.000000,0.000000,4186.666504,4243.077148,4168.205078,4116.410156,4197.436035,450.000000,4.000000,,,,0.000000,4.000000,4.000000,4.000000,4.000000,4.000000,36.000000,0.000000,0.119832,-0.406982,0.789307,0.443848,0.563973,-0.601572,0.566415,12.102835,-48.956158,53.218822,,,,,,,,,,,,,,,,,,,,,,,,,
1577742874.574193,73.000000,0.000000,4160.512695,4246.666504,4146.153809,4085.128174,4171.282227,16194.000000,4.000000,,,,0.000000,4.000000,4.000000,4.000000,4.000000,4.000000,,,,,,,,,,,,,,,,,,,,,,,,,,,,,,,,,,,,,
1577742874.581990,74.000000,0.000000,4171.282227,4252.820313,4149.230957,4095.384521,4176.922852,450.000000,4.000000,,,,0.000000,4.000000,4.000000,4.000000,4.000000,4.000000,37.000000,0.000000,0.119630,-0.406982,0.789063,0.444336,0.557137,-0.593759,0.561044,11.610335,-48.905586,53.938293,,,,,,,,,,,,,,,,,,,,,,,,,
1577742874.589786,75.000000,0.000000,4193.333496,4246.153809,4164.102539,4128.205078,4198.461426,16205.000000,4.000000,,,,0.000000,4.000000,4.000000,4.000000,4.000000,4.000000,,,,,,,,,,,,,4.098843,2.008099,4.992341,3.088884,4.755370,0.870488,1.385349,1.534348,1.189321,3.103931,1.898872,1.424253,5.997944,3.077473,3.269301,5.453408,4.608470,4.986847,3.209548,5.148534,4.221787,3.234671,7.259683,3.853741,5.260545
1577742874.597482,76.000000,0.000000,4170.256348,4240.000000,4145.128418,4106.153809,4178.461426,450.000000,4.000000,,,,0.000000,4.000000,4.000000,4.000000,4.000000,4.000000,38.000000,0.000000,0.119502,-0.407227,0.788818,0.444580,0.560555,-0.608896,0.569345,11.226902,-49.099335,54.466187,,,,,,,,,,,,,,,,,,,,,,,,,
1577742874.605379,77.000000,0.000000,4149.743652,4241.025879,4132.307617,4082.564209,4157.436035,450.000000,4.000000,,,,0.000000,4.000000,4.000000,4.000000,4.000000,4.000000,,,,,,,,,,,,,,,,,,,,,,,,,,,,,,,,,,,,,
1577742874.613275,78.000000,0.000000,4171.794922,4253.846191,4151.794922,4107.179688,4183.589844,450.000000,4.000000,,,,0.000000,4.000000,4.000000,4.000000,4.000000,4.000000,39.000000,0.000000,0.118590,-0.407227,0.788818,0.444824,0.548348,-0.616220,0.570809,7.113443,-48.914814,55.120735,,,,,,,,,,,,,,,,,,,,,,,,,
1577742874.621072,79.000000,0.000000,4194.358887,4263.077148,4162.563965,4134.358887,4211.794922,16205.000000,4.000000,,,,0.000000,4.000000,4.000000,4.000000,4.000000,4.000000,,,,,,,,,,,,,,,,,,,,,,,,,,,,,,,,,,,,,
1577742874.628868,80.000000,0.000000,4180.512695,4244.102539,4145.641113,4123.589844,4198.461426,450.000000,4.000000,,,,0.000000,4.000000,4.000000,4.000000,4.000000,4.000000,40.000000,0.000000,0.119295,-0.407227,0.788574,0.445068,0.545907,-0.616220,0.579599,9.931206,-48.988007,53.676105,,,,,,,,,,,,,,,,,,,,,,,,,
1577742874.636565,81.000000,0.000000,4158.461426,4231.794922,4132.820313,4098.974121,4176.922852,450.000000,4.000000,,,,0.000000,4.000000,4.000000,4.000000,4.000000,4.000000,,,,,,,,,,,,,,,,,,,,,,,,,,,,,,,,,,,,,
1577742874.644362,82.000000,0.000000,4171.282227,4251.282227,4145.641113,4105.641113,4190.256348,450.000000,4.000000,,,,0.000000,4.000000,4.000000,4.000000,4.000000,4.000000,41.000000,0.000000,0.118459,-0.407471,0.788574,0.445068,0.552254,-0.616220,0.580087,9.775500,-48.814621,54.409664,,,,,,,,,,,,,,,,,,,,,,,,,
1577742874.652058,83.000000,0.000000,4193.846191,4269.230957,4155.897461,4124.102539,4208.205078,16205.000000,4.000000,,,,0.000000,4.000000,4.000000,4.000000,4.000000,4.000000,,,,,,,,,,,,,,,,,,,,,,,,,,,,,,,,,,,,,
1577742874.659855,84.000000,0.000000,4188.205078,4278.461426,4153.846191,4121.025879,4201.538574,450.000000,4.000000,,,,0.000000,4.000000,4.000000,4.000000,4.000000,4.000000,42.000000,0.000000,0.119164,-0.407471,0.788330,0.445313,0.533211,-0.594247,0.584970,9.635365,-48.897835,55.069862,,,,,,,,,,,,,,,,,,,,,,,,,
1577742874.667551,85.000000,0.000000,4162.051270,4269.230957,4142.051270,4096.410156,4178.974121,450.000000,4.000000,,,,0.000000,4.000000,4.000000,4.000000,4.000000,4.000000,,,,,,,,,,,,,,,,,,,,,,,,,,,,,,,,,,,,,
1577742874.675348,86.000000,0.000000,4146.153809,4232.820313,4126.666504,4068.718018,4157.948730,450.000000,4.000000,,,,0.000000,4.000000,4.000000,4.000000,4.000000,4.000000,43.000000,0.000000,0.117403,-0.407715,0.788330,0.445557,0.538582,-0.599619,0.584970,12.260751,-48.972725,55.305153,,,,,,,,,,,,,,,,,,,,,,,,,
1577742874.683044,87.000000,0.000000,4157.436035,4229.230957,4138.974121,4076.923096,4163.077148,16205.000000,4.000000,,,,0.000000,4.000000,4.000000,4.000000,4.000000,4.000000,,,,,,,,,,,,,,,,,,,,,,,,,,,,,,,,,,,,,
1577742874.690841,88.000000,0.000000,4180.000000,4272.307617,4169.230957,4110.256348,4184.102539,450.000000,4.000000,,,,0.000000,4.000000,4.000000,4.000000,4.000000,4.000000,44.000000,0.000000,0.118114,-0.407715,0.788086,0.445801,0.533700,-0.601083,0.581552,14.683413,-49.040131,55.815990,,,,,,,,,,,,,,,,,,,,,,,,,
1577742874.698538,89.000000,0.000000,4190.256348,4288.205078,4174.871582,4121.025879,4195.384766,450.000000,4.000000,,,,0.000000,4.000000,4.000000,4.000000,4.000000,4.000000,,,,,,,,,,,,,,,,,,,,,,,,,,,,,,,,,,,,,
1577742874.706334,90.000000,0.000000,4184.102539,4256.410156,4164.102539,4111.794922,4188.717773,450.000000,4.000000,,,,0.000000,4.000000,4.000000,4.000000,4.000000,4.000000,45.000000,0.000000,0.118034,-0.407471,0.788086,0.446045,0.548837,-0.602548,0.580575,13.932857,-49.040977,56.156113,,,,,,,,,,,,,,,,,,,,,,,,,
1577742874.714031,91.000000,0.000000,4188.717773,4251.282227,4173.333496,4120.000000,4190.769043,16205.000000,4.000000,,,,0.000000,4.000000,4.000000,4.000000,4.000000,4.000000,,,,,,,,,,,,,4.053658,2.141010,5.324598,2.721278,4.534789,0.811245,1.440440,1.647776,1.115732,2.821808,1.825411,1.707090,6.161435,2.926586,3.055777,4.836029,5.562601,4.880514,2.923702,4.941830,4.318306,3.656267,7.218297,3.535153,5.030643
1577742874.721927,92.000000,0.000000,4200.512695,4283.077148,4181.025879,4134.871582,4201.025879,450.000000,4.000000,,,,0.000000,4.000000,4.000000,4.000000,4.000000,4.000000,46.000000,0.000000,0.117108,-0.407471,0.788086,0.446289,0.543465,-0.602548,0.575692,16.188309,-49.101555,56.402405,,,,,,,,,,,,,,,,,,,,,,,,,
1577742874.729724,93.000000,0.000000,4191.794922,4279.487305,4157.948730,4123.589844,4190.769043,450.000000,4.000000,,,,0.000000,4.000000,4.000000,4.000000,4.000000,4.000000,,,,,,,,,,,,,,,,,,,,,,,,,,,,,,,,,,,,,
1577742874.737620,94.000000,0.000000,4187.179688,4254.871582,4145.128418,4116.922852,4180.000000,450.000000,4.000000,,,,0.000000,4.000000,4.000000,4.000000,4.000000,4.000000,47.000000,0.000000,0.117873,-0.406982,0.788086,0.446533,0.538582,-0.614755,0.576669,15.466707,-49.156075,54.709980,,,,,,,,,,,,,,,,,,,,,,,,,
1577742874.745417,95.000000,0.000000,4201.538574,4255.897461,4162.563965,4134.871582,4194.358887,16205.000000,4.000000,,,,0.000000,4.000000,4.000000,4.000000,4.000000,4.000000,,,,,,,,,,,,,,,,,,,,,,,,,,,,,,,,,,,,,
1577742874.753313,96.000000,0.000000,4190.769043,4258.461426,4157.436035,4127.692383,4194.871582,450.000000,4.000000,,,,0.000000,4.000000,4.000000,4.000000,4.000000,4.000000,48.000000,0.000000,0.116860,-0.406738,0.788086,0.447021,0.548348,-0.624033,0.561532,17.628590,-49.145325,53.186794,,,,,,,,,,,,,,,,,,,,,,,,,
1577742874.761110,97.000000,0.000000,4155.384766,4248.205078,4127.179688,4083.589844,4161.025879,450.000000,4.000000,,,,0.000000,4.000000,4.000000,4.000000,4.000000,4.000000,,,,,,,,,,,,,,,,,,,,,,,,,,,,,,,,,,,,,
1577742874.769006,98.000000,0.000000,4169.743652,4260.000000,4133.846191,4085.641113,4169.230957,450.000000,4.000000,,,,0.000000,4.000000,4.000000,4.000000,4.000000,4.000000,49.000000,0.000000,0.118411,-0.406494,0.787842,0.447266,0.543954,-0.594247,0.557626,12.755331,-49.195469,53.789837,,,,,,,,,,,,,,,,,,,,,,,,,
1577742874.776803,99.000000,0.000000,4226.666504,4274.358887,4175.897461,4143.077148,4230.256348,16205.000000,4.000000,,,,0.000000,4.000000,4.000000,4.000000,4.000000,4.000000,,,,,,,,,,,,,,,,,,,,,,,,,,,,,,,,,,,,,
1577742874.784699,100.000000,0.000000,4223.589844,4257.948730,4166.666504,4145.641113,4229.230957,450.000000,4.000000,,,,0.000000,4.000000,4.000000,4.000000,4.000000,4.000000,50.000000,0.000000,0.117400,-0.406250,0.787842,0.447754,0.536629,-0.604013,0.565438,15.128535,-49.061150,54.452206,,,,,,,,,,,,,,,,,,,,,,,,,
1577742874.792496,101.000000,0.000000,4168.717773,4249.743652,4114.871582,4087.692383,4168.205078,450.000000,4.000000,,,,0.000000,4.000000,4.000000,4.000000,4.000000,4.000000,,,,,,,,,,,,,,,,,,,,,,,,,,,,,,,,,,,,,
1577742874.800392,102.000000,0.000000,4161.025879,4261.538574,4109.743652,4072.820557,4158.974121,450.000000,4.000000,,,,0.000000,4.000000,4.000000,4.000000,4.000000,4.000000,51.000000,0.000000,0.117313,-0.406006,0.787842,0.447998,0.536141,-0.606943,0.573251,10.505283,-48.940266,55.048336,,,,,,,,,,,,,,,,,,,,,,,,,
1577742874.808188,103.000000,0.000000,4185.641113,4260.000000,4134.871582,4094.871826,4182.051270,16205.000000,4.000000,,,,0.000000,4.000000,4.000000,4.000000,4.000000,4.000000,,,,,,,,,,,,,,,,,,,,,,,,,,,,,,,,,,,,,
1577742874.815985,104.000000,0.000000,4196.410156,4257.948730,4144.615234,4107.692383,4189.230957,450.000000,4.000000,,,,0.000000,4.000000,4.000000,4.000000,4.000000,4.000000,52.000000,0.000000,0.117136,-0.405518,0.787842,0.448486,0.543954,-0.622080,0.581064,6.404171,-48.891285,55.465225,,,,,,,,,,,,,,,,,,,,,,,,,
1577742874.823782,105.000000,0.000000,4202.563965,4264.102539,4148.717773,4117.436035,4194.358887,450.000000,4.000000,,,,0.000000,4.000000,4.000000,4.000000,4.000000,4.000000,,,,,,,,,,,,,,,,,,,,,,,,,,,,,,,,,,,,,
1577742874.831478,106.000000,0.000000,4206.666504,4265.641113,4155.384766,4118.974121,4200.512695,450.000000,4.000000,,,,0.000000,4.000000,4.000000,4.000000,4.000000,4.000000,53.000000,0.000000,0.116955,-0.405029,0.787842,0.448975,0.553719,-0.631846,0.570321,5.524493,-48.787384,55.780609,,,,,,,,,,,,,,,,,,,,,,,,,
1577742874.839275,107.000000,0.000000,4233.846191,4286.153809,4172.307617,4128.717773,4222.051270,16205.000000,4.000000,,,,0.000000,4.000000,4.000000,4.000000,4.000000,4.000000,,,,,,,,,,,,,3.805604,2.570842,5.489914,2.312407,4.390870,0.731721,1.439562,1.688038,1.032285,2.513551,1.848769,2.210577,5.907702,2.631545,2.974414,4.009726,6.386937,4.546759,2.598813,4.814266,4.223408,4.001160,6.749983,3.107636,4.860712
1577742874.846971,108.000000,0.000000,4263.077148,4293.333496,4175.897461,4136.922852,4241.538574,450.000000,4.000000,,,,0.000000,4.000000,4.000000,4.000000,4.000000,4.000000,54.000000,0.000000,0.116862,-0.404785,0.787842,0.449219,0.540536,-0.625986,0.562997,8.680596,-48.813507,56.124268,,,,,,,,,,,,,,,,,,,,,,,,,
1577742874.854868,109.000000,0.000000,4265.128418,4255.384766,4140.512695,4105.128418,4223.077148,450.000000,4.000000,,,,0.000000,4.000000,4.000000,4.000000,4.000000,4.000000,,,,,,,,,,,,,,,,,,,,,,,,,,,,,,,,,,,,,
1577742874.862664,110.000000,0.000000,4280.000000,4242.051270,4109.230957,4065.641113,4208.205078,450.000000,4.000000,,,,0.000000,4.000000,4.000000,4.000000,4.000000,4.000000,55.000000,0.000000,0.116630,-0.404785,0.787598,0.449707,0.542977,-0.618173,0.556161,8.649952,-48.837017,56.433563,,,,,,,,,,,,,,,,,,,,,,,,,
1577742874.870461,111.000000,0.000000,4332.307617,4267.179688,4117.436035,4067.179443,4245.641113,16205.000000,4.000000,,,,0.000000,4.000000,4.000000,4.000000,4.000000,4.000000,,,,,,,,,,,,,,,,,,,,,,,,,,,,,,,,,,,,,
1577742874.878157,112.000000,0.000000,4379.487305,4274.871582,4125.128418,4075.384521,4286.666504,450.000000,4.000000,,,,0.000000,4.000000,4.000000,4.000000,4.000000,4.000000,56.000000,0.000000,0.118173,-0.404541,0.787354,0.449951,0.569833,-0.615244,0.554208,11.314063,-48.798359,56.711929,,,,,,,,,,,,,,,,,,,,,,,,,
1577742874.886054,113.000000,0.000000,4392.820313,4264.615234,4118.974121,4057.435791,4281.025879,450.000000,4.000000,,,,0.000000,4.000000,4.000000,4.000000,4.000000,4.000000,,,,,,,,,,,,,,,,,,,,,,,,,,,,,,,,,,,,,
1577742874.893850,114.000000,0.000000,4423.589844,4269.230957,4154.358887,4079.487061,4297.436035,450.000000,4.000000,,,,0.000000,4.000000,4.000000,4.000000,4.000000,4.000000,57.000000,0.000000,0.116298,-0.404541,0.787354,0.450439,0.542489,-0.624521,0.569833,10.960257,-48.883198,56.962456,,,,,,,,,,,,,,,,,,,,,,,,,
1577742874.901747,115.000000,0.000000,4470.256348,4286.153809,4202.051270,4141.025879,4345.641113,16205.000000,4.000000,,,,0.000000,4.000000,4.000000,4.000000,4.000000,4.000000,,,,,,,,,,,,,,,,,,,,,,,,,,,,,,,,,,,,,
1577742874.909543,116.000000,0.000000,4462.051270,4289.230957,4190.769043,4143.589844,4333.846191,450.000000,4.000000,,,,0.000000,4.000000,4.000000,4.000000,4.000000,4.000000,58.000000,0.000000,0.116201,-0.404297,0.787354,0.450684,0.536629,-0.630381,0.573251,10.701646,-49.019367,55.154209,,,,,,,,,,,,,,,,,,,,,,,,,
1577742874.917440,117.000000,0.000000,4425.641113,4292.307617,4173.846191,4119.487305,4296.410156,450.000000,4.000000,,,,0.000000,4.000000,4.000000,4.000000,4.000000,4.000000,,,,,,,,,,,,,,,,,,,,,,,,,,,,,,,,,,,,,
1577742874.925236,118.000000,0.000000,4410.769043,4287.692383,4184.615234,4128.717773,4289.230957,450.000000,4.000000,,,,0.000000,4.000000,4.000000,4.000000,4.000000,4.000000,59.000000,0.000000,0.115393,-0.404053,0.787598,0.450684,0.537118,-0.644053,0.573739,13.160588,-49.022293,53.885681,,,,,,,,,,,,,,,,,,,,,,,,,
1577742874.933133,119.000000,0.000000,4371.282227,4251.794922,4161.025879,4111.794922,4257.436035,16205.000000,4.000000,,,,0.000000,4.000000,4.000000,4.000000,4.000000,4.000000,,,,,,,,,,,,,,,,,,,,,,,,,,,,,,,,,,,,,
1577742874.940929,120.000000,0.000000,4320.000000,4247.692383,4141.025879,4088.205078,4218.974121,450.000000,4.000000,,,,0.000000,4.000000,4.000000,4.000000,4.000000,4.000000,60.000000,0.000000,0.115435,-0.403564,0.787842,0.450684,0.539071,-0.643076,0.581064,12.622128,-49.084740,54.359016,,,,,,,,,,,,,,,,,,,,,,,,,
1577742874.948826,121.000000,0.000000,4308.717773,4287.179688,4163.589844,4106.153809,4218.974121,450.000000,4.000000,,,,0.000000,4.000000,4.000000,4.000000,4.000000,4.000000,,,,,,,,,,,,,,,,,,,,,,,,,,,,,,,,,,,,,
1577742874.956622,122.000000,0.000000,4292.307617,4282.051270,4160.512695,4104.102539,4207.692383,450.000000,4.000000,,,,0.000000,4.000000,4.000000,4.000000,4.000000,4.000000,61.000000,0.000000,0.116424,-0.403076,0.788086,0.450439,0.539071,-0.638193,0.565438,12.137516,-49.081123,54.964466,,,,,,,,,,,,,,,,,,,,,,,,,
1577742874.964519,123.000000,0.000000,4264.102539,4253.333496,4140.512695,4088.205078,4184.615234,16205.000000,4.000000,,,,0.000000,4.000000,4.000000,4.000000,4.000000,4.000000,,,,,,,,,,,,,3.352385,3.215885,5.500741,1.922348,4.348389,0.693483,1.358296,1.637811,0.964025,2.232423,1.756203,2.810916,5.319448,2.216395,3.026468,3.107030,6.918333,4.088206,2.231173,4.776843,3.944347,4.194814,6.054593,2.670341,4.781764
1577742874.972315,124.000000,0.000000,4256.922852,4260.512695,4143.077148,4095.897461,4185.128418,450.000000,4.000000,,,,0.000000,4.000000,4.000000,4.000000,4.000000,4.000000,62.000000,0.000000,0.117266,-0.402832,0.788086,0.450439,0.546883,-0.650889,0.555184,14.512686,-49.137688,55.449558,,,,,,,,,,,,,,,,,,,,,,,,,
1577742874.980212,125.000000,0.000000,4252.820313,4269.230957,4147.179688,4098.974121,4186.666504,450.000000,4.000000,,,,0.000000,4.000000,4.000000,4.000000,4.000000,4.000000,,,,,,,,,,,,,,,,,,,,,,,,,,,,,,,,,,,,,
1577742874.988008,126.000000,0.000000,4247.692383,4265.128418,4155.384766,4104.615234,4185.641113,450.000000,4.000000,,,,0.000000,4.000000,4.000000,4.000000,4.000000,4.000000,63.000000,0.000000,0.115435,-0.403564,0.787842,0.450684,0.539071,-0.643076,0.581064,16.650339,-49.068962,55.766506,,,,,,,,,,,,,,,,,,,,,,,,,
1577742874.995805,127.000000,0.000000,4243.589844,4262.563965,4155.384766,4111.282227,4189.743652,235.000000,4.000000,,,,0.000000,4.000000,4.000000,4.000000,4.000000,4.000000,,,,,,,,,,,,,,,,,,,,,,,,,,,,,,,,,,,,,
1577742875.003601,0.000000,0.000000,4223.589844,4262.563965,4126.666504,4089.743652,4174.871582,450.000000,4.000000,,,,0.000000,4.000000,4.000000,4.000000,4.000000,4.000000,0.000000,0.000000,0.117266,-0.402832,0.788086,0.450439,0.546883,-0.650889,0.555184,18.574228,-49.126743,56.171394,,,,,,,,,,,,,,,,,,,,,,,,,
1577742875.011498,1.000000,0.000000,4200.000000,4269.743652,4108.717773,4067.692383,4151.794922,450.000000,4.000000,,,,0.000000,4.000000,4.000000,4.000000,4.000000,4.000000,,,,,,,,,,,,,,,,,,,,,,,,,,,,,,,,,,,,,
1577742875.019294,2.000000,0.000000,4221.025879,4287.179688,4131.794922,4096.410156,4174.871582,16211.000000,4.000000,,,,0.000000,4.000000,4.000000,4.000000,4.000000,4.000000,1.000000,0.000000,0.116460,-0.402588,0.788330,0.450439,0.554696,-0.627939,0.550301,13.546590,-49.178745,56.416161,,,,,,,,,,,,,,,,,,,,,,,,,
1577742875.026991,3.000000,0.000000,4254.871582,4291.282227,4149.743652,4137.436035,4211.794922,450.000000,4.000000,,,,0.000000,4.000000,4.000000,4.000000,4.000000,4.000000,,,,,,,,,,,,,,,,,,,,,,,,,,,,,,,,,,,,,
1577742875.034887,4.000000,0.000000,4235.384766,4275.384766,4122.563965,4121.025879,4194.358887,16236.000000,4.000000,,,,0.000000,4.000000,4.000000,4.000000,4.000000,4.000000,2.000000,0.000000,0.116460,-0.402588,0.788330,0.450439,0.556161,-0.613291,0.548348,13.029346,-49.225544,56.696266,,,,,,,,,,,,,,,,,,,,,,,,,
1577742875.042684,5.000000,0.000000,4217.436035,4271.794922,4102.563965,4093.333252,4168.205078,450.000000,4.000000,,,,0.000000,4.000000,4.000000,4.000000,4.000000,4.000000,,,,,,,,,,,,,,,,,,,,,,,,,,,,,,,,,,,,,
1577742875.050580,6.000000,0.000000,4238.461426,4283.589844,4118.461426,4109.743652,4180.512695,16132.000000,4.000000,,,,0.000000,4.000000,4.000000,4.000000,4.000000,4.000000,3.000000,0.000000,0.116460,-0.402588,0.788330,0.450439,0.564462,-0.598154,0.545419,15.255518,-49.088219,57.127808,,,,,,,,,,,,,,,,,,,,,,,,,
1577742875.058377,7.000000,0.000000,4254.358887,4295.384766,4136.410156,4137.948730,4207.179688,450.000000,4.000000,,,,0.000000,4.000000,4.000000,4.000000,4.000000,4.000000,,,,,,,,,,,,,,,,,,,,,,,,,,,,,,,,,,,,,
1577742875.066173,8.000000,0.000000,4253.333496,4291.282227,4137.948730,4141.025879,4218.974121,450.000000,4.000000,,,,0.000000,4.000000,4.000000,4.000000,4.000000,4.000000,4.000000,0.000000,0.117266,-0.402832,0.788086,0.450439,0.552254,-0.592294,0.545419,13.610335,-49.024441,57.456379,,,,,,,,,,,,,,,,,,,,,,,,,
1577742875.073870,9.000000,0.000000,4247.179688,4277.436035,4124.615234,4108.205078,4194.871582,16190.000000,4.000000,,,,0.000000,4.000000,4.000000,4.000000,4.000000,4.000000,,,,,,,,,,,,,,,,,,,,,,,,,,,,,,,,,,,,,
1577742875.081666,10.000000,0.000000,4269.230957,4280.000000,4113.333496,4081.025635,4178.974121,450.000000,4.000000,,,,0.000000,4.000000,4.000000,4.000000,4.000000,4.000000,5.000000,0.000000,0.117266,-0.402832,0.788086,0.450439,0.546883,-0.604501,0.552254,12.010040,-49.026859,57.572647,,,,,,,,,,,,,,,,,,,,,,,,,
1577742875.089363,11.000000,0.000000,4344.102539,4294.358887,4121.025879,4089.743652,4216.922852,16201.000000,4.000000,,,,0.000000,4.000000,4.000000,4.000000,4.000000,4.000000,,,,,,,,,,,,,3.703424,3.980482,5.326520,1.636053,4.352293,0.681647,1.198950,1.488850,0.935986,2.022883,1.763808,3.392993,4.569235,1.787881,3.132491,2.347049,7.123268,3.615947,1.906043,4.768764,3.910991,4.254349,5.371027,2.349263,4.739576
1577742875.097259,12.000000,0.000000,4461.025879,4317.436035,4164.102539,4130.256348,4291.794922,450.000000,4.000000,,,,0.000000,4.000000,4.000000,4.000000,4.000000,4.000000,6.000000,0.000000,0.116324,-0.402832,0.788086,0.450684,0.544930,-0.615244,0.562997,14.397959,-49.029034,57.737103,,,,,,,,,,,,,,,,,,,,,,,,,
1577742875.105056,13.000000,0.000000,4551.794922,4319.487305,4206.153809,4166.666504,4348.717773,450.000000,4.000000,,,,0.000000,4.000000,4.000000,4.000000,4.000000,4.000000,,,,,,,,,,,,,,,,,,,,,,,,,,,,,,,,,,,,,
1577742875.112952,14.000000,0.000000,4553.846191,4290.256348,4186.666504,4144.615234,4342.051270,450.000000,4.000000,,,,0.000000,4.000000,4.000000,4.000000,4.000000,4.000000,7.000000,0.000000,0.115475,-0.403076,0.788086,0.450684,0.547860,-0.624521,0.573739,16.606899,-48.851543,58.004745,,,,,,,,,,,,,,,,,,,,,,,,,
1577742875.120749,15.000000,0.000000,4533.846191,4287.179688,4161.538574,4112.307617,4327.692383,16201.000000,4.000000,,,,0.000000,4.000000,4.000000,4.000000,4.000000,4.000000,,,,,,,,,,,,,,,,,,,,,,,,,,,,,,,,,,,,,
1577742875.128645,16.000000,0.000000,4548.205078,4310.769043,4184.102539,4127.692383,4351.794922,0.000000,4.000000,,,,0.000000,4.000000,4.000000,4.000000,4.000000,4.000000,8.000000,0.000000,0.117129,-0.403076,0.787842,0.450684,0.542000,-0.621103,0.583993,15.723810,-48.871250,58.185806,,,,,,,,,,,,,,,,,,,,,,,,,
1577742875.136442,17.000000,0.000000,4535.897461,4304.615234,4197.436035,4134.358887,4357.948730,0.000000,4.000000,,,,0.000000,4.000000,4.000000,4.000000,4.000000,4.000000,,,,,,,,,,,,,,,,,,,,,,,,,,,,,,,,,,,,,
1577742875.144338,18.000000,0.000000,4510.769043,4297.436035,4209.230957,4134.871582,4354.358887,0.000000,4.000000,,,,0.000000,4.000000,4.000000,4.000000,4.000000,4.000000,9.000000,0.000000,0.118064,-0.403076,0.787842,0.450439,0.551766,-0.623545,0.571786,14.929029,-48.888985,58.229130,,,,,,,,,,,,,,,,,,,,,,,,,
1577742875.152135,19.000000,0.000000,4510.256348,4318.974121,4247.179688,4165.641113,4369.230957,0.000000,4.000000,,,,0.000000,4.000000,4.000000,4.000000,4.000000,4.000000,,,,,,,,,,,,,,,,,,,,,,,,,,,,,,,,,,,,,
1577742875.160031,20.000000,0.000000,4473.846191,4317.436035,4245.641113,4164.102539,4347.692383,0.000000,4.000000,,,,0.000000,4.000000,4.000000,4.000000,4.000000,4.000000,10.000000,0.000000,0.118064,-0.403076,0.787842,0.450439,0.558602,-0.625498,0.566415,13.256680,-48.964760,58.208309,,,,,,,,,,,,,,,,,,,,,,,,,
1577742875.167828,21.000000,0.000000,4405.641113,4290.256348,4200.512695,4119.487305,4287.692383,0.000000,4.000000,,,,0.000000,4.000000,4.000000,4.000000,4.000000,4.000000,,,,,,,,,,,,,,,,,,,,,,,,,,,,,,,,,,,,,
1577742875.175724,22.000000,0.000000,4357.948730,4279.487305,4175.384766,4093.846191,4241.025879,0.000000,4.000000,,,,0.000000,4.000000,4.000000,4.000000,4.000000,4.000000,11.000000,0.000000,0.118064,-0.403076,0.787842,0.450439,0.555184,-0.624033,0.553231,12.828242,-48.853516,58.309200,,,,,,,,,,,,,,,,,,,,,,,,,
1577742875.183521,23.000000,0.000000,4338.974121,4295.897461,4187.692383,4109.230957,4228.205078,0.000000,4.000000,,,,0.000000,4.000000,4.000000,4.000000,4.000000,4.000000,,,,,,,,,,,,,,,,,,,,,,,,,,,,,,,,,,,,,
1577742875.191417,24.000000,0.000000,4338.974121,4310.256348,4207.692383,4142.051270,4233.333496,0.000000,4.000000,,,,0.000000,4.000000,4.000000,4.000000,4.000000,4.000000,12.000000,0.000000,0.118064,-0.403076,0.787842,0.450439,0.555184,-0.614755,0.555673,12.442649,-48.932838,58.519630,,,,,,,,,,,,,,,,,,,,,,,,,
1577742875.199214,25.000000,0.000000,4334.871582,4300.000000,4204.102539,4158.461426,4229.230957,0.000000,4.000000,,,,0.000000,4.000000,4.000000,4.000000,4.000000,4.000000,,,,,,,,,,,,,,,,,,,,,,,,,,,,,,,,,,,,,
1577742875.206910,26.000000,0.000000,4314.871582,4293.333496,4188.205078,4152.820313,4214.871582,0.000000,4.000000,,,,0.000000,4.000000,4.000000,4.000000,4.000000,4.000000,13.000000,0.000000,0.117228,-0.403320,0.787842,0.450439,0.547372,-0.613291,0.557137,11.975984,-49.004230,56.794930,,,,,,,,,,,,,,,,,,,,,,,,,
1577742875.214707,27.000000,0.000000,4292.820313,4292.820313,4180.512695,4140.000000,4200.000000,0.000000,4.000000,,,,0.000000,4.000000,4.000000,4.000000,4.000000,4.000000,,,,,,,,,,,,,8.126108,4.924946,5.062391,1.516351,4.306686,0.755825,1.008129,1.287663,0.959727,1.902223,1.941318,3.914828,4.016472,1.484830,3.185649,1.837838,7.127633,3.399889,1.742815,4.701874,5.178706,4.289248,4.959333,2.217381,4.642972
1577742875.222403,28.000000,0.000000,4271.282227,4290.256348,4174.358887,4125.128418,4183.077148,0.000000,4.000000,,,,0.000000,4.000000,4.000000,4.000000,4.000000,4.000000,14.000000,0.000000,0.118162,-0.403320,0.787842,0.450195,0.557626,-0.630869,0.553231,11.496169,-48.889034,57.096973,,,,,,,,,,,,,,,,,,,,,,,,,
1577742875.230200,29.000000,0.000000,4266.153809,4302.563965,4179.487305,4127.179688,4182.563965,0.000000,4.000000,,,,0.000000,4.000000,4.000000,4.000000,4.000000,4.000000,,,,,,,,,,,,,,,,,,,,,,,,,,,,,,,,,,,,,
1577742875.237896,30.000000,0.000000,4290.769043,4315.897461,4201.538574,4150.769043,4206.666504,0.000000,4.000000,,,,0.000000,4.000000,4.000000,4.000000,4.000000,4.000000,15.000000,0.000000,0.118258,-0.403564,0.787842,0.449951,0.554208,-0.617685,0.576669,11.124152,-48.785362,57.488441,,,,,,,,,,,,,,,,,,,,,,,,,
1577742875.245693,31.000000,0.000000,4280.000000,4304.615234,4195.384766,4145.641113,4198.461426,0.000000,4.000000,,,,0.000000,4.000000,4.000000,4.000000,4.000000,4.000000,,,,,,,,,,,,,,,,,,,,,,,,,,,,,,,,,,,,,
1577742875.253390,32.000000,0.000000,4236.922852,4293.846191,4172.307617,4120.512695,4167.692383,0.000000,4.000000,,,,0.000000,4.000000,4.000000,4.000000,4.000000,4.000000,16.000000,0.000000,0.117558,-0.403564,0.788086,0.449707,0.540536,-0.614755,0.572274,13.660475,-48.811684,55.687412,,,,,,,,,,,,,,,,,,,,,,,,,
1577742875.261186,33.000000,0.000000,4231.282227,4302.051270,4180.000000,4127.179688,4170.769043,0.000000,4.000000,,,,0.000000,4.000000,4.000000,4.000000,4.000000,4.000000,,,,,,,,,,,,,,,,,,,,,,,,,,,,,,,,,,,,,
1577742875.268883,34.000000,0.000000,4227.179688,4290.256348,4186.153809,4128.205078,4167.179688,0.000000,4.000000,,,,0.000000,4.000000,4.000000,4.000000,4.000000,4.000000,17.000000,0.000000,0.116717,-0.403809,0.788086,0.449707,0.531746,-0.629404,0.582040,13.012211,-48.895191,54.126301,,,,,,,,,,,,,,,,,,,,,,,,,
1577742875.276779,35.000000,0.000000,4220.000000,4283.077148,4198.461426,4128.717773,4164.615234,0.000000,4.000000,,,,0.000000,4.000000,4.000000,4.000000,4.000000,4.000000,,,,,,,,,,,,,,,,,,,,,,,,,,,,,,,,,,,,,
1577742875.284576,36.000000,0.000000,4233.333496,4311.794922,4226.666504,4147.692383,4182.051270,0.000000,4.000000,,,,0.000000,4.000000,4.000000,4.000000,4.000000,4.000000,18.000000,0.000000,0.117653,-0.403809,0.788086,0.449463,0.543465,-0.618173,0.585458,12.668036,-48.850716,52.721298,,,,,,,,,,,,,,,,,,,,,,,,,
1577742875.292472,37.000000,0.000000,4223.589844,4312.307617,4216.922852,4145.641113,4175.897461,0.000000,4.000000,,,,0.000000,4.000000,4.000000,4.000000,4.000000,4.000000,,,,,,,,,,,,,,,,,,,,,,,,,,,,,,,,,,,,,
1577742875.300269,38.000000,0.000000,4216.922852,4286.666504,4207.179688,4142.563965,4174.871582,0.000000,4.000000,,,,0.000000,4.000000,4.000000,4.000000,4.000000,4.000000,19.000000,0.000000,0.117653,-0.403809,0.788086,0.449463,0.538094,-0.622568,0.572274,15.049970,-48.930321,53.251259,,,,,,,,,,,,,,,,,,,,,,,,,
1577742875.308065,39.000000,0.000000,4250.256348,4294.358887,4235.384766,4169.230957,4204.615234,0.000000,4.000000,,,,0.000000,4.000000,4.000000,4.000000,4.000000,4.000000,,,,,,,,,,,,,,,,,,,,,,,,,,,,,,,,,,,,,
1577742875.315962,40.000000,0.000000,4251.794922,4298.461426,4220.512695,4156.922852,4198.461426,0.000000,4.000000,,,,0.000000,4.000000,4.000000,4.000000,4.000000,4.000000,20.000000,0.000000,0.118582,-0.403809,0.788086,0.449219,0.530770,-0.616709,0.572274,17.313341,-48.942150,53.907669,,,,,,,,,,,,,,,,,,,,,,,,,
1577742875.323858,41.000000,0.000000,4224.102539,4282.051270,4179.487305,4123.589844,4167.692383,0.000000,4.000000,,,,0.000000,4.000000,4.000000,4.000000,4.000000,4.000000,,,,,,,,,,,,,,,,,,,,,,,,,,,,,,,,,,,,,
1577742875.331655,42.000000,0.000000,4211.794922,4281.025879,4169.743652,4124.615234,4158.974121,0.000000,4.000000,,,,0.000000,4.000000,4.000000,4.000000,4.000000,4.000000,21.000000,0.000000,0.117747,-0.404053,0.788086,0.449219,0.551766,-0.631846,0.574716,16.299791,-48.833164,54.498440,,,,,,,,,,,,,,,,,,,,,,,,,
1577742875.339551,43.000000,0.000000,4178.974121,4285.128418,4153.846191,4104.102539,4131.282227,0.000000,4.000000,,,,0.000000,4.000000,4.000000,4.000000,4.000000,4.000000,,,,,,,,,,,,,23.728516,6.942867,4.984199,1.606820,4.135053,0.918536,0.848468,1.108323,1.024091,1.858962,2.648690,4.365153,3.981418,1.403823,3.114756,1.623551,7.113303,3.691383,1.827047,4.515032,9.998083,4.696691,4.990146,2.279087,4.428422
1577742875.347348,44.000000,0.000000,4157.948730,4288.717773,4148.205078,4083.076904,4110.256348,0.000000,4.000000,,,,0.000000,4.000000,4.000000,4.000000,4.000000,4.000000,22.000000,0.000000,0.118675,-0.404053,0.788086,0.448975,0.553719,-0.607431,0.576669,15.447412,-48.794891,52.996410,,,,,,,,,,,,,,,,,,,,,,,,,
1577742875.355244,45.000000,0.000000,4208.717773,4312.307617,4192.307617,4134.871582,4161.025879,0.000000,4.000000,,,,0.000000,4.000000,4.000000,4.000000,4.000000,4.000000,,,,,,,,,,,,,,,,,,,,,,,,,,,,,,,,,,,,,
1577742875.363040,46.000000,0.000000,4255.384766,4336.922852,4220.512695,4189.743652,4206.666504,0.000000,4.000000,,,,0.000000,4.000000,4.000000,4.000000,4.000000,4.000000,23.000000,0.000000,0.117841,-0.404297,0.788086,0.448975,0.549325,-0.617197,0.562509,10.792272,-48.820263,53.558674,,,,,,,,,,,,,,,,,,,,,,,,,
1577742875.370937,47.000000,0.000000,4215.897461,4312.307617,4187.179688,4154.358887,4164.615234,0.000000,4.000000,,,,0.000000,4.000000,4.000000,4.000000,4.000000,4.000000,,,,,,,,,,,,,,,,,,,,,,,,,,,,,,,,,,,,,
1577742875.378733,48.000000,0.000000,4162.051270,4271.794922,4150.769043,4095.897461,4113.333496,0.000000,4.000000,,,,0.000000,4.000000,4.000000,4.000000,4.000000,4.000000,24.000000,0.000000,0.117933,-0.404541,0.788086,0.448730,0.545419,-0.605966,0.562020,13.361782,-48.663651,54.064713,,,,,,,,,,,,,,,,,,,,,,,,,
1577742875.386630,49.000000,0.000000,4173.846191,4282.051270,4156.922852,4105.128418,4125.641113,0.000000,4.000000,,,,0.000000,4.000000,4.000000,4.000000,4.000000,4.000000,,,,,,,,,,,,,,,,,,,,,,,,,,,,,,,,,,,,,
1577742875.394426,50.000000,0.000000,4190.256348,4297.948730,4162.563965,4120.000000,4135.897461,0.000000,4.000000,,,,0.000000,4.000000,4.000000,4.000000,4.000000,4.000000,25.000000,0.000000,0.118858,-0.404541,0.788086,0.448486,0.548837,-0.618173,0.566903,12.803204,-48.702145,54.639778,,,,,,,,,,,,,,,,,,,,,,,,,
1577742875.402123,51.000000,0.000000,4177.436035,4275.897461,4152.820313,4102.051270,4123.077148,0.000000,4.000000,,,,0.000000,4.000000,4.000000,4.000000,4.000000,4.000000,,,,,,,,,,,,,,,,,,,,,,,,,,,,,,,,,,,,,
1577742875.409920,52.000000,0.000000,4188.717773,4276.410156,4161.025879,4109.743652,4134.871582,0.000000,4.000000,,,,0.000000,4.000000,4.000000,4.000000,4.000000,4.000000,26.000000,0.000000,0.117227,-0.404541,0.788330,0.448486,0.547372,-0.627451,0.578622,12.300483,-48.736790,55.276970,,,,,,,,,,,,,,,,,,,,,,,,,
1577742875.417616,53.000000,0.000000,4213.333496,4315.384766,4180.512695,4138.974121,4161.025879,0.000000,4.000000,,,,0.000000,4.000000,4.000000,4.000000,4.000000,4.000000,,,,,,,,,,,,,,,,,,,,,,,,,,,,,,,,,,,,,
1577742875.425513,54.000000,0.000000,4195.897461,4301.538574,4167.179688,4127.179688,4151.794922,0.000000,4.000000,,,,0.000000,4.000000,4.000000,4.000000,4.000000,4.000000,27.000000,0.000000,0.117933,-0.404541,0.788086,0.448730,0.545419,-0.605966,0.562020,7.960035,-48.588524,55.730808,,,,,,,,,,,,,,,,,,,,,,,,,
1577742875.433309,55.000000,0.000000,4180.000000,4268.205078,4152.307617,4108.205078,4133.846191,0.000000,4.000000,,,,0.000000,4.000000,4.000000,4.000000,4.000000,4.000000,,,,,,,,,,,,,,,,,,,,,,,,,,,,,,,,,,,,,
1577742875.441106,56.000000,0.000000,4193.846191,4298.461426,4165.128418,4126.153809,4146.153809,0.000000,4.000000,,,,0.000000,4.000000,4.000000,4.000000,4.000000,4.000000,28.000000,0.000000,0.117227,-0.404541,0.788330,0.448486,0.547372,-0.627451,0.578622,7.941632,-48.634533,56.258896,,,,,,,,,,,,,,,,,,,,,,,,,
1577742875.448802,57.000000,0.000000,4201.538574,4316.922852,4179.487305,4140.512695,4160.512695,0.000000,4.000000,,,,0.000000,4.000000,4.000000,4.000000,4.000000,4.000000,,,,,,,,,,,,,,,,,,,,,,,,,,,,,,,,,,,,,
1577742875.456699,58.000000,0.000000,4215.384766,4285.128418,4191.794922,4153.333496,4175.384766,0.000000,4.000000,,,,0.000000,4.000000,4.000000,4.000000,4.000000,4.000000,29.000000,0.000000,0.118158,-0.404541,0.788330,0.448242,0.558114,-0.619150,0.575204,4.037069,-48.496494,56.614540,,,,,,,,,,,,,,,,,,,,,,,,,
1577742875.464495,59.000000,0.000000,4213.333496,4270.256348,4187.692383,4149.230957,4172.307617,0.000000,4.000000,,,,0.000000,4.000000,4.000000,4.000000,4.000000,4.000000,,,,,,,,,,,,,58.889065,11.442353,5.348572,1.946433,3.826537,1.142851,0.761647,1.012385,1.107087,1.864478,4.078238,4.720960,4.553827,1.586099,2.918039,1.616034,7.170213,4.527548,2.192180,4.205017,20.838722,6.004558,5.419513,2.506619,4.099760
1577742875.472392,60.000000,0.000000,4163.589844,4275.897461,4152.820313,4097.948730,4124.615234,0.000000,4.000000,,,,0.000000,4.000000,4.000000,4.000000,4.000000,4.000000,30.000000,0.000000,0.119080,-0.404541,0.788330,0.447998,0.520516,-0.617197,0.565438,0.463148,-48.611519,56.934624,,,,,,,,,,,,,,,,,,,,,,,,,
1577742875.480188,61.000000,0.000000,4149.743652,4281.538574,4147.179688,4079.487061,4111.282227,0.000000,4.000000,,,,0.000000,4.000000,4.000000,4.000000,4.000000,4.000000,,,,,,,,,,,,,,,,,,,,,,,,,,,,,,,,,,,,,
1577742875.488085,62.000000,0.000000,4199.487305,4294.871582,4190.256348,4129.743652,4160.000000,0.000000,4.000000,,,,0.000000,4.000000,4.000000,4.000000,4.000000,4.000000,31.000000,0.000000,0.119080,-0.404541,0.788330,0.447998,0.527840,-0.617685,0.554696,0.117756,-48.595413,57.162884,,,,,,,,,,,,,,,,,,,,,,,,,
1577742875.495881,63.000000,0.000000,4204.102539,4296.410156,4196.410156,4141.025879,4166.153809,0.000000,4.000000,,,,0.000000,4.000000,4.000000,4.000000,4.000000,4.000000,,,,,,,,,,,,,,,,,,,,,,,,,,,,,,,,,,,,,
1577742875.503778,64.000000,0.000000,4181.538574,4304.615234,4175.897461,4111.282227,4139.487305,450.000000,4.000000,,,,0.000000,4.000000,4.000000,4.000000,4.000000,4.000000,32.000000,0.000000,0.119168,-0.404785,0.788330,0.447754,0.552743,-0.615732,0.549325,0.883581,-48.640732,57.428131,,,,,,,,,,,,,,,,,,,,,,,,,
1577742875.511574,65.000000,0.000000,4211.794922,4324.615234,4190.256348,4129.743652,4163.077148,450.000000,4.000000,,,,0.000000,4.000000,4.000000,4.000000,4.000000,4.000000,,,,,,,,,,,,,,,,,,,,,,,,,,,,,,,,,,,,,
1577742875.519471,66.000000,0.000000,4205.128418,4288.205078,4175.384766,4124.615234,4155.897461,16198.000000,4.000000,,,,0.000000,4.000000,4.000000,4.000000,4.000000,4.000000,33.000000,0.000000,0.118468,-0.404785,0.788574,0.447510,0.562020,-0.605966,0.560067,1.513007,-48.621704,57.607040,,,,,,,,,,,,,,,,,,,,,,,,,
1577742875.527267,67.000000,0.000000,4150.256348,4249.230957,4138.461426,4073.333252,4104.102539,450.000000,4.000000,,,,0.000000,4.000000,4.000000,4.000000,4.000000,4.000000,,,,,,,,,,,,,,,,,,,,,,,,,,,,,,,,,,,,,
1577742875.535163,68.000000,0.000000,4183.589844,4299.487305,4180.000000,4104.615234,4142.563965,16231.000000,4.000000,,,,0.000000,4.000000,4.000000,4.000000,4.000000,4.000000,34.000000,0.000000,0.119387,-0.404785,0.788574,0.447266,0.545419,-0.613779,0.573251,-1.688877,-48.604576,57.768055,,,,,,,,,,,,,,,,,,,,,,,,,
1577742875.543060,69.000000,0.000000,4256.410156,4335.897461,4240.000000,4178.974121,4222.051270,450.000000,4.000000,,,,0.000000,4.000000,4.000000,4.000000,4.000000,4.000000,,,,,,,,,,,,,,,,,,,,,,,,,,,,,,,,,,,,,
1577742875.550856,70.000000,0.000000,4223.077148,4278.974121,4211.282227,4151.794922,4189.743652,16135.000000,4.000000,,,,0.000000,4.000000,4.000000,4.000000,4.000000,4.000000,35.000000,0.000000,0.120297,-0.404785,0.788574,0.447021,0.544442,-0.592294,0.566903,-0.622759,-48.648979,57.912971,,,,,,,,,,,,,,,,,,,,,,,,,
1577742875.558653,71.000000,0.000000,4144.615234,4243.589844,4160.000000,4074.871826,4106.153809,450.000000,4.000000,,,,0.000000,4.000000,4.000000,4.000000,4.000000,4.000000,,,,,,,,,,,,,,,,,,,,,,,,,,,,,,,,,,,,,
1577742875.566549,72.000000,0.000000,4147.692383,4289.743652,4175.897461,4075.384521,4106.153809,450.000000,4.000000,,,,0.000000,4.000000,4.000000,4.000000,4.000000,4.000000,36.000000,0.000000,0.119602,-0.404785,0.788818,0.446777,0.557137,-0.605478,0.581552,3.028439,-48.748756,58.163029,,,,,,,,,,,,,,,,,,,,,,,,,
1577742875.574346,73.000000,0.000000,4201.538574,4324.615234,4218.974121,4128.205078,4159.487305,16189.000000,4.000000,,,,0.000000,4.000000,4.000000,4.000000,4.000000,4.000000,,,,,,,,,,,,,,,,,,,,,,,,,,,,,,,,,,,,,
1577742875.582043,74.000000,0.000000,4209.230957,4307.692383,4216.922852,4130.769043,4169.743652,450.000000,4.000000,,,,0.000000,4.000000,4.000000,4.000000,4.000000,4.000000,37.000000,0.000000,0.119602,-0.404785,0.788818,0.446777,0.547860,-0.607431,0.566415,6.374332,-48.838558,58.268444,,,,,,,,,,,,,,,,,,,,,,,,,
1577742875.589839,75.000000,0.000000,4184.102539,4295.897461,4195.384766,4100.512695,4147.692383,16211.000000,4.000000,,,,0.000000,4.000000,4.000000,4.000000,4.000000,4.000000,,,,,,,,,,,,,115.652534,19.164421,6.238453,2.601038,3.442053,1.366831,0.758750,1.020380,1.198215,1.886821,6.421590,4.929782,5.534652,2.043807,2.655421,1.689415,7.224485,5.669977,2.856073,3.827986,38.419701,8.403141,6.017570,2.921822,3.723498
1577742875.597536,76.000000,0.000000,4199.487305,4299.487305,4207.179688,4122.563965,4161.538574,450.000000,4.000000,,,,0.000000,4.000000,4.000000,4.000000,4.000000,4.000000,38.000000,0.000000,0.121285,-0.405029,0.788574,0.446533,0.536629,-0.600107,0.571786,5.378007,-48.620300,58.482952,,,,,,,,,,,,,,,,,,,,,,,,,
1577742875.605432,77.000000,0.000000,4222.051270,4298.974121,4224.102539,4157.436035,4188.205078,450.000000,4.000000,,,,0.000000,4.000000,4.000000,4.000000,4.000000,4.000000,,,,,,,,,,,,,,,,,,,,,,,,,,,,,,,,,,,,,
1577742875.613229,78.000000,0.000000,4204.102539,4297.436035,4209.743652,4143.077148,4178.974121,450.000000,4.000000,,,,0.000000,4.000000,4.000000,4.000000,4.000000,4.000000,39.000000,0.000000,0.121285,-0.405029,0.788574,0.446533,0.555673,-0.609873,0.577646,5.617806,-48.603313,58.735825,,,,,,,,,,,,,,,,,,,,,,,,,
1577742875.621125,79.000000,0.000000,4191.794922,4289.230957,4197.436035,4123.077148,4164.102539,16211.000000,4.000000,,,,0.000000,4.000000,4.000000,4.000000,4.000000,4.000000,,,,,,,,,,,,,,,,,,,,,,,,,,,,,,,,,,,,,
1577742875.628922,80.000000,0.000000,4183.077148,4273.333496,4190.256348,4111.282227,4153.333496,450.000000,4.000000,,,,0.000000,4.000000,4.000000,4.000000,4.000000,4.000000,40.000000,0.000000,0.120467,-0.405273,0.788574,0.446533,0.545907,-0.593759,0.567880,8.644947,-48.647842,58.724148,,,,,,,,,,,,,,,,,,,,,,,,,
1577742875.636718,81.000000,0.000000,4168.717773,4285.128418,4184.615234,4096.922852,4144.102539,450.000000,4.000000,,,,0.000000,4.000000,4.000000,4.000000,4.000000,4.000000,,,,,,,,,,,,,,,,,,,,,,,,,,,,,,,,,,,,,
1577742875.644415,82.000000,0.000000,4208.717773,4321.025879,4213.846191,4130.256348,4184.615234,450.000000,4.000000,,,,0.000000,4.000000,4.000000,4.000000,4.000000,4.000000,41.000000,0.000000,0.119642,-0.405518,0.788574,0.446533,0.553719,-0.604501,0.581064,11.369374,-48.687920,58.773453,,,,,,,,,,,,,,,,,,,,,,,,,
1577742875.652211,83.000000,0.000000,4237.948730,4315.384766,4223.077148,4155.384766,4211.794922,16211.000000,4.000000,,,,0.000000,4.000000,4.000000,4.000000,4.000000,4.000000,,,,,,,,,,,,,,,,,,,,,,,,,,,,,,,,,,,,,
1577742875.659908,84.000000,0.000000,4201.538574,4295.384766,4191.282227,4118.974121,4177.436035,450.000000,4.000000,,,,0.000000,4.000000,4.000000,4.000000,4.000000,4.000000,42.000000,0.000000,0.120550,-0.405518,0.788574,0.446289,0.550301,-0.600107,0.567391,7.122038,-48.604355,58.937462,,,,,,,,,,,,,,,,,,,,,,,,,
1577742875.667704,85.000000,0.000000,4188.717773,4315.384766,4189.743652,4106.666504,4169.230957,450.000000,4.000000,,,,0.000000,4.000000,4.000000,4.000000,4.000000,4.000000,,,,,,,,,,,,,,,,,,,,,,,,,,,,,,,,,,,,,
1577742875.675401,86.000000,0.000000,4187.179688,4314.358887,4188.717773,4109.743652,4177.948730,450.000000,4.000000,,,,0.000000,4.000000,4.000000,4.000000,4.000000,4.000000,43.000000,0.000000,0.120632,-0.405762,0.788574,0.446045,0.546883,-0.613291,0.582040,6.170573,-48.409519,59.085068,,,,,,,,,,,,,,,,,,,,,,,,,
1577742875.683198,87.000000,0.000000,4151.282227,4276.410156,4148.205078,4084.102539,4150.256348,16211.000000,4.000000,,,,0.000000,4.000000,4.000000,4.000000,4.000000,4.000000,,,,,,,,,,,,,,,,,,,,,,,,,,,,,,,,,,,,,
1577742875.690894,88.000000,0.000000,4137.948730,4273.846191,4130.769043,4085.641113,4139.487305,450.000000,4.000000,,,,0.000000,4.000000,4.000000,4.000000,4.000000,4.000000,44.000000,0.000000,0.120632,-0.405762,0.788574,0.446045,0.537606,-0.621103,0.574716,5.374069,-48.473427,59.217911,,,,,,,,,,,,,,,,,,,,,,,,,
1577742875.698691,89.000000,0.000000,4144.102539,4295.384766,4142.563965,4096.922852,4148.717773,450.000000,4.000000,,,,0.000000,4.000000,4.000000,4.000000,4.000000,4.000000,,,,,,,,,,,,,,,,,,,,,,,,,,,,,,,,,,,,,
1577742875.706387,90.000000,0.000000,4141.538574,4290.769043,4148.717773,4088.205078,4145.128418,450.000000,4.000000,,,,0.000000,4.000000,4.000000,4.000000,4.000000,4.000000,45.000000,0.000000,0.119936,-0.405762,0.788818,0.445801,0.542977,-0.619150,0.564950,5.554447,-48.351498,59.397289,,,,,,,,,,,,,,,,,,,,,,,,,
1577742875.714284,91.000000,0.000000,4169.743652,4292.307617,4166.153809,4113.333496,4166.666504,16211.000000,4.000000,,,,0.000000,4.000000,4.000000,4.000000,4.000000,4.000000,,,,,,,,,,,,,186.547745,29.235943,7.504004,3.603404,3.080294,1.527602,0.814071,1.137423,1.294508,1.906017,9.340894,4.913287,6.574416,2.745689,2.406223,1.731373,7.083209,6.777577,3.795767,3.471334,60.465988,11.512403,6.543198,3.569346,3.387475
1577742875.722080,92.000000,0.000000,4211.794922,4315.384766,4191.282227,4158.974121,4209.230957,450.000000,4.000000,,,,0.000000,4.000000,4.000000,4.000000,4.000000,4.000000,46.000000,0.000000,0.120840,-0.405762,0.788818,0.445557,0.552743,-0.611337,0.575692,8.587924,-48.421207,57.525005,,,,,,,,,,,,,,,,,,,,,,,,,
1577742875.729977,93.000000,0.000000,4203.589844,4308.205078,4177.948730,4147.179688,4200.000000,450.000000,4.000000,,,,0.000000,4.000000,4.000000,4.000000,4.000000,4.000000,,,,,,,,,,,,,,,,,,,,,,,,,,,,,,,,,,,,,
1577742875.737773,94.000000,0.000000,4182.563965,4283.589844,4151.794922,4116.410156,4175.897461,450.000000,4.000000,,,,0.000000,4.000000,4.000000,4.000000,4.000000,4.000000,47.000000,0.000000,0.120144,-0.405762,0.789063,0.445313,0.544930,-0.600107,0.564462,8.566546,-48.424133,57.694225,,,,,,,,,,,,,,,,,,,,,,,,,
1577742875.745670,95.000000,0.000000,4194.871582,4285.641113,4161.538574,4128.205078,4191.282227,16211.000000,4.000000,,,,0.000000,4.000000,4.000000,4.000000,4.000000,4.000000,,,,,,,,,,,,,,,,,,,,,,,,,,,,,,,,,,,,,
1577742875.753466,96.000000,0.000000,4191.282227,4297.948730,4174.358887,4137.948730,4189.743652,450.000000,4.000000,,,,0.000000,4.000000,4.000000,4.000000,4.000000,4.000000,48.000000,0.000000,0.120144,-0.405762,0.789063,0.445313,0.550301,-0.593759,0.570809,8.367861,-48.366947,57.906338,,,,,,,,,,,,,,,,,,,,,,,,,
1577742875.761263,97.000000,0.000000,4169.743652,4300.000000,4163.077148,4127.179688,4167.692383,450.000000,4.000000,,,,0.000000,4.000000,4.000000,4.000000,4.000000,4.000000,,,,,,,,,,,,,,,,,,,,,,,,,,,,,,,,,,,,,
1577742875.769059,98.000000,0.000000,4144.615234,4290.769043,4131.794922,4094.358887,4141.025879,450.000000,4.000000,,,,0.000000,4.000000,4.000000,4.000000,4.000000,4.000000,49.000000,0.000000,0.120144,-0.405762,0.789063,0.445313,0.551278,-0.591318,0.572763,11.179812,-48.375298,58.097240,,,,,,,,,,,,,,,,,,,,,,,,,
1577742875.776756,99.000000,0.000000,4112.820313,4279.487305,4110.256348,4054.358887,4106.153809,16211.000000,4.000000,,,,0.000000,4.000000,4.000000,4.000000,4.000000,4.000000,,,,,,,,,,,,,,,,,,,,,,,,,,,,,,,,,,,,,
1577742875.784552,100.000000,0.000000,4126.666504,4294.871582,4139.487305,4086.666748,4125.128418,450.000000,4.000000,,,,0.000000,4.000000,4.000000,4.000000,4.000000,4.000000,50.000000,0.000000,0.121045,-0.405762,0.789063,0.445068,0.539559,-0.602060,0.571298,10.779615,-48.442627,58.209240,,,,,,,,,,,,,,,,,,,,,,,,,
1577742875.792249,101.000000,0.000000,4149.230957,4298.461426,4155.384766,4130.769043,4162.051270,450.000000,4.000000,,,,0.000000,4.000000,4.000000,4.000000,4.000000,4.000000,,,,,,,,,,,,,,,,,,,,,,,,,,,,,,,,,,,,,
1577742875.800046,102.000000,0.000000,4146.153809,4288.205078,4135.897461,4120.000000,4165.128418,450.000000,4.000000,,,,0.000000,4.000000,4.000000,4.000000,4.000000,4.000000,51.000000,0.000000,0.121045,-0.405762,0.789063,0.445068,0.538582,-0.591318,0.565927,6.651070,-48.443409,58.250221,,,,,,,,,,,,,,,,,,,,,,,,,
1577742875.807742,103.000000,0.000000,4174.358887,4306.666504,4153.846191,4137.436035,4193.333496,16211.000000,4.000000,,,,0.000000,4.000000,4.000000,4.000000,4.000000,4.000000,,,,,,,,,,,,,,,,,,,,,,,,,,,,,,,,,,,,,
1577742875.815539,104.000000,0.000000,4214.358887,4315.384766,4185.128418,4180.512695,4235.384766,450.000000,4.000000,,,,0.000000,4.000000,4.000000,4.000000,4.000000,4.000000,52.000000,0.000000,0.120224,-0.406006,0.789063,0.445068,0.556649,-0.602060,0.560067,7.062640,-48.503929,58.406734,,,,,,,,,,,,,,,,,,,,,,,,,
1577742875.823235,105.000000,0.000000,4200.512695,4293.333496,4170.769043,4168.205078,4224.615234,450.000000,4.000000,,,,0.000000,4.000000,4.000000,4.000000,4.000000,4.000000,,,,,,,,,,,,,,,,,,,,,,,,,,,,,,,,,,,,,
1577742875.831032,106.000000,0.000000,4167.692383,4276.410156,4150.256348,4137.436035,4195.384766,450.000000,4.000000,,,,0.000000,4.000000,4.000000,4.000000,4.000000,4.000000,53.000000,0.000000,0.120224,-0.406006,0.789063,0.445068,0.559579,-0.600107,0.577157,7.253606,-48.498581,58.547600,,,,,,,,,,,,,,,,,,,,,,,,,
1577742875.838728,107.000000,0.000000,4149.230957,4259.487305,4142.051270,4116.410156,4177.436035,16211.000000,4.000000,,,,0.000000,4.000000,4.000000,4.000000,4.000000,4.000000,,,,,,,,,,,,,252.834152,39.208084,8.824111,4.902760,2.847859,1.585314,0.876500,1.404909,1.405924,1.937714,12.238095,4.638027,7.364427,3.625457,2.235728,1.701413,6.580431,7.600612,4.939062,3.228493,81.467308,14.479156,6.867600,4.468960,3.175706
1577742875.846625,108.000000,0.000000,4125.641113,4250.256348,4127.692383,4078.974365,4143.077148,450.000000,4.000000,,,,0.000000,4.000000,4.000000,4.000000,4.000000,4.000000,54.000000,0.000000,0.120224,-0.406006,0.789063,0.445068,0.563973,-0.589853,0.569833,10.057352,-48.553581,56.939728,,,,,,,,,,,,,,,,,,,,,,,,,
1577742875.854421,109.000000,0.000000,4148.205078,4292.307617,4155.897461,4095.897461,4155.384766,450.000000,4.000000,,,,0.000000,4.000000,4.000000,4.000000,4.000000,4.000000,,,,,,,,,,,,,,,,,,,,,,,,,,,,,,,,,,,,,
1577742875.862318,110.000000,0.000000,4196.410156,4324.615234,4197.436035,4147.692383,4208.205078,450.000000,4.000000,,,,0.000000,4.000000,4.000000,4.000000,4.000000,4.000000,55.000000,0.000000,0.120224,-0.406006,0.789063,0.445068,0.556649,-0.602060,0.560067,8.812356,-48.662899,57.287109,,,,,,,,,,,,,,,,,,,,,,,,,
1577742875.870114,111.000000,0.000000,4182.051270,4288.717773,4177.436035,4133.333496,4200.000000,16211.000000,4.000000,,,,0.000000,4.000000,4.000000,4.000000,4.000000,4.000000,,,,,,,,,,,,,,,,,,,,,,,,,,,,,,,,,,,,,
1577742875.878011,112.000000,0.000000,4157.436035,4276.410156,4156.410156,4111.794922,4173.333496,450.000000,4.000000,,,,0.000000,4.000000,4.000000,4.000000,4.000000,4.000000,56.000000,0.000000,0.120224,-0.406006,0.789063,0.445068,0.563973,-0.589853,0.569833,11.460227,-48.701469,55.805290,,,,,,,,,,,,,,,,,,,,,,,,,
1577742875.885807,113.000000,0.000000,4182.051270,4309.743652,4175.384766,4143.077148,4196.410156,450.000000,4.000000,,,,0.000000,4.000000,4.000000,4.000000,4.000000,4.000000,,,,,,,,,,,,,,,,,,,,,,,,,,,,,,,,,,,,,
1577742875.893704,114.000000,0.000000,4199.487305,4311.282227,4179.487305,4156.922852,4220.512695,450.000000,4.000000,,,,0.000000,4.000000,4.000000,4.000000,4.000000,4.000000,57.000000,0.000000,0.121124,-0.406006,0.789063,0.444824,0.558602,-0.601083,0.572274,10.254389,-48.855812,56.266113,,,,,,,,,,,,,,,,,,,,,,,,,
1577742875.901500,115.000000,0.000000,4160.000000,4285.128418,4141.025879,4102.563965,4186.666504,16211.000000,4.000000,,,,0.000000,4.000000,4.000000,4.000000,4.000000,4.000000,,,,,,,,,,,,,,,,,,,,,,,,,,,,,,,,,,,,,
1577742875.909397,116.000000,0.000000,4132.307617,4293.846191,4127.692383,4068.205078,4157.436035,450.000000,4.000000,,,,0.000000,4.000000,4.000000,4.000000,4.000000,4.000000,58.000000,0.000000,0.120224,-0.406006,0.789063,0.445068,0.543954,-0.590829,0.582040,9.767288,-48.815277,56.561222,,,,,,,,,,,,,,,,,,,,,,,,,
1577742875.917193,117.000000,0.000000,4172.820313,4311.282227,4172.820313,4115.384766,4197.436035,450.000000,4.000000,,,,0.000000,4.000000,4.000000,4.000000,4.000000,4.000000,,,,,,,,,,,,,,,,,,,,,,,,,,,,,,,,,,,,,
1577742875.925090,118.000000,0.000000,4193.333496,4287.179688,4197.436035,4148.717773,4222.051270,450.000000,4.000000,,,,0.000000,4.000000,4.000000,4.000000,4.000000,4.000000,59.000000,0.000000,0.120224,-0.406006,0.789063,0.445068,0.550301,-0.602060,0.573251,5.680160,-48.778793,56.946453,,,,,,,,,,,,,,,,,,,,,,,,,
1577742875.932886,119.000000,0.000000,4143.077148,4255.384766,4162.051270,4106.153809,4174.358887,16211.000000,4.000000,,,,0.000000,4.000000,4.000000,4.000000,4.000000,4.000000,,,,,,,,,,,,,,,,,,,,,,,,,,,,,,,,,,,,,
1577742875.940783,120.000000,0.000000,4124.102539,4273.846191,4145.641113,4090.256348,4152.820313,450.000000,4.000000,,,,0.000000,4.000000,4.000000,4.000000,4.000000,4.000000,60.000000,0.000000,0.120224,-0.406006,0.789063,0.445068,0.562020,-0.607431,0.572274,5.889744,-48.865589,57.472603,,,,,,,,,,,,,,,,,,,,,,,,,
1577742875.948579,121.000000,0.000000,4142.051270,4297.948730,4158.461426,4114.358887,4165.641113,450.000000,4.000000,,,,0.000000,4.000000,4.000000,4.000000,4.000000,4.000000,,,,,,,,,,,,,,,,,,,,,,,,,,,,,,,,,,,,,
1577742875.956376,122.000000,0.000000,4123.077148,4279.487305,4145.128418,4095.897461,4142.563965,450.000000,4.000000,,,,0.000000,4.000000,4.000000,4.000000,4.000000,4.000000,61.000000,0.000000,0.120224,-0.406006,0.789063,0.445068,0.550790,-0.598154,0.577646,6.078369,-48.883892,55.972237,,,,,,,,,,,,,,,,,,,,,,,,,
1577742875.964072,123.000000,0.000000,4132.307617,4278.461426,4155.897461,4103.589844,4154.358887,16211.000000,4.000000,,,,0.000000,4.000000,4.000000,4.000000,4.000000,4.000000,,,,,,,,,,,,,295.503815,46.041977,9.788974,6.309688,2.820030,1.523657,0.899532,1.833576,1.541515,2.026654,14.408237,4.176748,7.662822,4.551742,2.179975,1.659598,5.810038,7.973230,6.125596,3.172125,95.531807,16.332869,6.973323,5.534800,3.144582
1577742875.971769,124.000000,0.000000,4174.871582,4307.692383,4183.077148,4148.717773,4200.512695,450.000000,4.000000,,,,0.000000,4.000000,4.000000,4.000000,4.000000,4.000000,62.000000,0.000000,0.121124,-0.406006,0.789063,0.444824,0.553719,-0.609384,0.573739,6.307948,-48.960178,56.356548,,,,,,,,,,,,,,,,,,,,,,,,,
1577742875.979565,125.000000,0.000000,4150.769043,4302.051270,4147.692383,4126.666504,4172.820313,450.000000,4.000000,,,,0.000000,4.000000,4.000000,4.000000,4.000000,4.000000,,,,,,,,,,,,,,,,,,,,,,,,,,,,,,,,,,,,,
1577742875.987262,126.000000,0.000000,4130.256348,4283.589844,4132.307617,4110.769043,4153.846191,450.000000,4.000000,,,,0.000000,4.000000,4.000000,4.000000,4.000000,4.000000,63.000000,0.000000,0.121124,-0.406006,0.789063,0.444824,0.546395,-0.608408,0.568368,6.514568,-48.969021,56.702431,,,,,,,,,,,,,,,,,,,,,,,,,
1577742875.995158,127.000000,0.000000,4157.436035,4282.051270,4162.051270,4139.487305,4186.153809,235.000000,4.000000,,,,0.000000,4.000000,4.000000,4.000000,4.000000,4.000000,,,,,,,,,,,,,,,,,,,,,,,,,,,,,,,,,,,,,
1577742876.002955,0.000000,0.000000,4147.692383,4281.538574,4140.512695,4115.897461,4170.256348,450.000000,4.000000,,,,0.000000,4.000000,4.000000,4.000000,4.000000,4.000000,0.000000,0.000000,0.120349,-0.405762,0.789307,0.444824,0.542000,-0.594736,0.575692,9.571664,-48.857346,57.073540,,,,,,,,,,,,,,,,,,,,,,,,,
1577742876.010851,1.000000,0.000000,4127.179688,4286.153809,4111.794922,4086.153809,4141.025879,450.000000,4.000000,,,,0.000000,4.000000,4.000000,4.000000,4.000000,4.000000,,,,,,,,,,,,,,,,,,,,,,,,,,,,,,,,,,,,,
1577742876.018648,2.000000,0.000000,4129.743652,4282.051270,4123.077148,4095.384521,4157.436035,16204.000000,4.000000,,,,0.000000,4.000000,4.000000,4.000000,4.000000,4.000000,1.000000,0.000000,0.120349,-0.405762,0.789307,0.444824,0.523934,-0.593271,0.581064,9.451913,-48.936287,57.347721,,,,,,,,,,,,,,,,,,,,,,,,,
1577742876.026544,3.000000,0.000000,4133.846191,4268.205078,4128.717773,4097.436035,4172.307617,450.000000,4.000000,,,,0.000000,4.000000,4.000000,4.000000,4.000000,4.000000,,,,,,,,,,,,,,,,,,,,,,,,,,,,,,,,,,,,,
1577742876.034341,4.000000,0.000000,4143.589844,4278.461426,4128.717773,4104.102539,4171.794922,16239.000000,4.000000,,,,0.000000,4.000000,4.000000,4.000000,4.000000,4.000000,2.000000,0.000000,0.120349,-0.405762,0.789307,0.444824,0.549813,-0.599130,0.577646,9.045059,-48.768074,57.594486,,,,,,,,,,,,,,,,,,,,,,,,,
1577742876.042237,5.000000,0.000000,4147.692383,4293.333496,4136.922852,4116.922852,4172.820313,450.000000,4.000000,,,,0.000000,4.000000,4.000000,4.000000,4.000000,4.000000,,,,,,,,,,,,,,,,,,,,,,,,,,,,,,,,,,,,,
1577742876.050034,6.000000,0.000000,4153.333496,4290.769043,4146.153809,4119.487305,4181.025879,16133.000000,4.000000,,,,0.000000,4.000000,4.000000,4.000000,4.000000,4.000000,3.000000,0.000000,0.120349,-0.405762,0.789307,0.444824,0.557626,-0.602060,0.582040,11.669661,-48.676495,55.962299,,,,,,,,,,,,,,,,,,,,,,,,,
1577742876.057930,7.000000,0.000000,4174.358887,4294.358887,4155.384766,4125.641113,4193.333496,450.000000,4.000000,,,,0.000000,4.000000,4.000000,4.000000,4.000000,4.000000,,,,,,,,,,,,,,,,,,,,,,,,,,,,,,,,,,,,,
1577742876.065727,8.000000,0.000000,4167.692383,4300.512695,4145.128418,4117.436035,4179.487305,450.000000,4.000000,,,,0.000000,4.000000,4.000000,4.000000,4.000000,4.000000,4.000000,0.000000,0.121045,-0.405762,0.789063,0.445068,0.560555,-0.594736,0.580087,11.220479,-48.534260,56.347603,,,,,,,,,,,,,,,,,,,,,,,,,
1577742876.073623,9.000000,0.000000,4136.410156,4298.461426,4122.563965,4093.333252,4152.307617,16183.000000,4.000000,,,,0.000000,4.000000,4.000000,4.000000,4.000000,4.000000,,,,,,,,,,,,,,,,,,,,,,,,,,,,,,,,,,,,,
1577742876.081420,10.000000,0.000000,4131.794922,4300.000000,4121.538574,4092.820557,4155.384766,450.000000,4.000000,,,,0.000000,4.000000,4.000000,4.000000,4.000000,4.000000,5.000000,0.000000,0.119443,-0.405762,0.789307,0.445068,0.562020,-0.612802,0.572274,10.696585,-48.585693,56.574749,,,,,,,,,,,,,,,,,,,,,,,,,
1577742876.089216,11.000000,0.000000,4130.769043,4291.282227,4125.128418,4094.358887,4158.974121,16206.000000,4.000000,,,,0.000000,4.000000,4.000000,4.000000,4.000000,4.000000,,,,,,,,,,,,,299.192474,47.527534,10.239472,7.529441,3.006421,1.362621,0.855628,2.396462,1.702949,2.207041,15.221184,3.659146,7.441576,5.333860,2.239968,1.652481,5.072980,7.943655,7.123690,3.327993,97.837257,16.578941,7.032975,6.563961,3.298676
1577742876.096913,12.000000,0.000000,4134.871582,4286.153809,4132.307617,4098.461426,4159.487305,450.000000,4.000000,,,,0.000000,4.000000,4.000000,4.000000,4.000000,4.000000,6.000000,0.000000,0.119443,-0.405762,0.789307,0.445068,0.537118,-0.603525,0.582528,9.387665,-48.452538,56.838997,,,,,,,,,,,,,,,,,,,,,,,,,
1577742876.104809,13.000000,0.000000,4180.000000,4302.563965,4170.256348,4143.077148,4197.948730,450.000000,4.000000,,,,0.000000,4.000000,4.000000,4.000000,4.000000,4.000000,,,,,,,,,,,,,,,,,,,,,,,,,,,,,,,,,,,,,
1577742876.112606,14.000000,0.000000,4184.102539,4292.820313,4171.282227,4150.769043,4205.641113,450.000000,4.000000,,,,0.000000,4.000000,4.000000,4.000000,4.000000,4.000000,7.000000,0.000000,0.119443,-0.405762,0.789307,0.445068,0.539071,-0.617685,0.570321,12.037820,-48.512142,57.076817,,,,,,,,,,,,,,,,,,,,,,,,,
1577742876.120502,15.000000,0.000000,4123.589844,4256.410156,4121.538574,4091.794922,4151.794922,16206.000000,4.000000,,,,0.000000,4.000000,4.000000,4.000000,4.000000,4.000000,,,,,,,,,,,,,,,,,,,,,,,,,,,,,,,,,,,,,
1577742876.128299,16.000000,0.000000,4101.025879,4262.051270,4107.692383,4068.718018,4126.153809,0.000000,4.000000,,,,0.000000,4.000000,4.000000,4.000000,4.000000,4.000000,8.000000,0.000000,0.120349,-0.405762,0.789307,0.444824,0.548837,-0.602548,0.574716,11.611638,-48.386345,57.470303,,,,,,,,,,,,,,,,,,,,,,,,,
1577742876.136195,17.000000,0.000000,4114.871582,4296.922852,4129.743652,4088.205078,4141.025879,0.000000,4.000000,,,,0.000000,4.000000,4.000000,4.000000,4.000000,4.000000,,,,,,,,,,,,,,,,,,,,,,,,,,,,,,,,,,,,,
1577742876.144091,18.000000,0.000000,4135.384766,4313.333496,4152.820313,4114.871582,4167.692383,0.000000,4.000000,,,,0.000000,4.000000,4.000000,4.000000,4.000000,4.000000,9.000000,0.000000,0.120349,-0.405762,0.789307,0.444824,0.539559,-0.600107,0.565438,14.218842,-48.332939,57.525364,,,,,,,,,,,,,,,,,,,,,,,,,
1577742876.151888,19.000000,0.000000,4153.333496,4307.692383,4158.461426,4129.230957,4183.589844,0.000000,4.000000,,,,0.000000,4.000000,4.000000,4.000000,4.000000,4.000000,,,,,,,,,,,,,,,,,,,,,,,,,,,,,,,,,,,,,
1577742876.159784,20.000000,0.000000,4135.897461,4287.692383,4129.230957,4098.461426,4157.948730,0.000000,4.000000,,,,0.000000,4.000000,4.000000,4.000000,4.000000,4.000000,10.000000,0.000000,0.120349,-0.405762,0.789307,0.444824,0.549813,-0.591806,0.573251,9.686559,-48.344688,57.754364,,,,,,,,,,,,,,,,,,,,,,,,,
1577742876.167581,21.000000,0.000000,4109.743652,4280.512695,4106.666504,4060.512939,4127.692383,0.000000,4.000000,,,,0.000000,4.000000,4.000000,4.000000,4.000000,4.000000,,,,,,,,,,,,,,,,,,,,,,,,,,,,,,,,,,,,,
1577742876.175377,22.000000,0.000000,4129.230957,4297.436035,4126.666504,4080.000000,4146.153809,0.000000,4.000000,,,,0.000000,4.000000,4.000000,4.000000,4.000000,4.000000,11.000000,0.000000,0.120349,-0.405762,0.789307,0.444824,0.552254,-0.590341,0.570321,5.667319,-48.355267,58.020279,,,,,,,,,,,,,,,,,,,,,,,,,
1577742876.183074,23.000000,0.000000,4165.128418,4311.282227,4155.384766,4122.563965,4189.743652,0.000000,4.000000,,,,0.000000,4.000000,4.000000,4.000000,4.000000,4.000000,,,,,,,,,,,,,,,,,,,,,,,,,,,,,,,,,,,,,
1577742876.190871,24.000000,0.000000,4154.871582,4303.077148,4152.307617,4121.025879,4190.256348,0.000000,4.000000,,,,0.000000,4.000000,4.000000,4.000000,4.000000,4.000000,12.000000,0.000000,0.120269,-0.405518,0.789307,0.445068,0.544930,-0.602548,0.575204,8.689509,-48.723675,58.259602,,,,,,,,,,,,,,,,,,,,,,,,,
1577742876.198567,25.000000,0.000000,4129.743652,4288.205078,4136.410156,4097.948730,4164.615234,0.000000,4.000000,,,,0.000000,4.000000,4.000000,4.000000,4.000000,4.000000,,,,,,,,,,,,,,,,,,,,,,,,,,,,,,,,,,,,,
1577742876.206364,26.000000,0.000000,4118.461426,4270.769043,4115.897461,4076.410156,4146.666504,0.000000,4.000000,,,,0.000000,4.000000,4.000000,4.000000,4.000000,4.000000,13.000000,0.000000,0.120269,-0.405518,0.789307,0.445068,0.554696,-0.599130,0.577646,4.769975,-48.696354,58.355366,,,,,,,,,,,,,,,,,,,,,,,,,
1577742876.214060,27.000000,0.000000,4115.897461,4262.563965,4108.717773,4067.179443,4145.641113,0.000000,4.000000,,,,0.000000,4.000000,4.000000,4.000000,4.000000,4.000000,,,,,,,,,,,,,263.651062,43.213387,10.376779,8.282670,3.359186,1.138716,0.771512,3.032734,1.875404,2.471760,14.436229,3.213248,6.939211,5.809512,2.400913,1.683311,4.699419,7.843233,7.732160,3.681206,87.721207,15.364572,7.350480,7.329449,3.603485
1577742876.221857,28.000000,0.000000,4140.000000,4297.948730,4132.820313,4096.410156,4170.769043,0.000000,4.000000,,,,0.000000,4.000000,4.000000,4.000000,4.000000,4.000000,14.000000,0.000000,0.121089,-0.405273,0.789307,0.445068,0.556649,-0.612314,0.567391,5.010762,-48.791393,58.441547,,,,,,,,,,,,,,,,,,,,,,,,,
1577742876.229554,29.000000,0.000000,4165.641113,4327.692383,4150.256348,4127.692383,4192.820313,0.000000,4.000000,,,,0.000000,4.000000,4.000000,4.000000,4.000000,4.000000,,,,,,,,,,,,,,,,,,,,,,,,,,,,,,,,,,,,,
1577742876.237350,30.000000,0.000000,4172.820313,4307.692383,4151.794922,4138.974121,4205.128418,0.000000,4.000000,,,,0.000000,4.000000,4.000000,4.000000,4.000000,4.000000,15.000000,0.000000,0.120188,-0.405273,0.789307,0.445313,0.548348,-0.609384,0.570809,7.919161,-48.697483,58.519115,,,,,,,,,,,,,,,,,,,,,,,,,
1577742876.245047,31.000000,0.000000,4171.794922,4286.153809,4153.846191,4144.102539,4210.256348,0.000000,4.000000,,,,0.000000,4.000000,4.000000,4.000000,4.000000,4.000000,,,,,,,,,,,,,,,,,,,,,,,,,,,,,,,,,,,,,
1577742876.252843,32.000000,0.000000,4153.333496,4293.333496,4142.051270,4127.179688,4182.051270,0.000000,4.000000,,,,0.000000,4.000000,4.000000,4.000000,4.000000,4.000000,16.000000,0.000000,0.121089,-0.405273,0.789307,0.445068,0.556161,-0.606943,0.564950,4.076662,-48.672779,58.588924,,,,,,,,,,,,,,,,,,,,,,,,,
1577742876.260540,33.000000,0.000000,4125.128418,4298.974121,4125.641113,4095.384521,4145.641113,0.000000,4.000000,,,,0.000000,4.000000,4.000000,4.000000,4.000000,4.000000,,,,,,,,,,,,,,,,,,,,,,,,,,,,,,,,,,,,,
1577742876.268336,34.000000,0.000000,4127.179688,4293.846191,4131.282227,4100.512695,4149.230957,0.000000,4.000000,,,,0.000000,4.000000,4.000000,4.000000,4.000000,4.000000,17.000000,0.000000,0.121089,-0.405273,0.789307,0.445068,0.541024,-0.599130,0.569345,4.446595,-48.650547,58.651752,,,,,,,,,,,,,,,,,,,,,,,,,
1577742876.276033,35.000000,0.000000,4148.717773,4294.871582,4148.205078,4134.871582,4175.384766,0.000000,4.000000,,,,0.000000,4.000000,4.000000,4.000000,4.000000,4.000000,,,,,,,,,,,,,,,,,,,,,,,,,,,,,,,,,,,,,
1577742876.283929,36.000000,0.000000,4146.666504,4300.512695,4150.256348,4136.922852,4176.410156,0.000000,4.000000,,,,0.000000,4.000000,4.000000,4.000000,4.000000,4.000000,18.000000,0.000000,0.121089,-0.405273,0.789307,0.445068,0.551278,-0.611826,0.575204,4.839351,-48.690350,58.887745,,,,,,,,,,,,,,,,,,,,,,,,,
1577742876.291726,37.000000,0.000000,4130.769043,4296.922852,4132.820313,4113.333496,4152.820313,0.000000,4.000000,,,,0.000000,4.000000,4.000000,4.000000,4.000000,4.000000,,,,,,,,,,,,,,,,,,,,,,,,,,,,,,,,,,,,,
1577742876.299622,38.000000,0.000000,4125.128418,4285.128418,4119.487305,4103.589844,4145.128418,0.000000,4.000000,,,,0.000000,4.000000,4.000000,4.000000,4.000000,4.000000,19.000000,0.000000,0.121089,-0.405273,0.789307,0.445068,0.553231,-0.607919,0.573739,5.133016,-48.726177,56.946785,,,,,,,,,,,,,,,,,,,,,,,,,
1577742876.307419,39.000000,0.000000,4136.922852,4290.256348,4136.922852,4118.974121,4168.205078,0.000000,4.000000,,,,0.000000,4.000000,4.000000,4.000000,4.000000,4.000000,,,,,,,,,,,,,,,,,,,,,,,,,,,,,,,,,,,,,
1577742876.315315,40.000000,0.000000,4144.615234,4301.538574,4150.256348,4125.641113,4175.384766,0.000000,4.000000,,,,0.000000,4.000000,4.000000,4.000000,4.000000,4.000000,20.000000,0.000000,0.121089,-0.405273,0.789307,0.445068,0.541024,-0.599130,0.569345,4.380453,-48.638786,57.233643,,,,,,,,,,,,,,,,,,,,,,,,,
1577742876.323112,41.000000,0.000000,4150.769043,4301.025879,4149.743652,4126.666504,4171.282227,0.000000,4.000000,,,,0.000000,4.000000,4.000000,4.000000,4.000000,4.000000,,,,,,,,,,,,,,,,,,,,,,,,,,,,,,,,,,,,,
1577742876.330908,42.000000,0.000000,4154.871582,4290.769043,4154.871582,4133.333496,4181.538574,0.000000,4.000000,,,,0.000000,4.000000,4.000000,4.000000,4.000000,4.000000,21.000000,0.000000,0.121089,-0.405273,0.789307,0.445068,0.553231,-0.607919,0.573739,4.720007,-48.679768,55.458092,,,,,,,,,,,,,,,,,,,,,,,,,
1577742876.338705,43.000000,0.000000,4127.179688,4275.384766,4135.384766,4103.077148,4164.615234,0.000000,4.000000,,,,0.000000,4.000000,4.000000,4.000000,4.000000,4.000000,,,,,,,,,,,,,199.639267,34.692406,10.557404,8.443217,3.785017,0.908726,0.733760,3.630291,2.038956,2.761963,12.262164,2.929254,6.451720,5.923347,2.638679,1.770820,4.873101,8.033237,7.876236,4.169079,68.209740,13.317503,8.142589,7.681627,3.992332
1577742876.346402,44.000000,0.000000,4108.717773,4284.615234,4120.512695,4081.025635,4142.051270,0.000000,4.000000,,,,0.000000,4.000000,4.000000,4.000000,4.000000,4.000000,22.000000,0.000000,0.119362,-0.405518,0.789307,0.445313,0.545419,-0.604501,0.582528,4.008745,-48.597023,55.893822,,,,,,,,,,,,,,,,,,,,,,,,,
1577742876.354198,45.000000,0.000000,4135.897461,4310.256348,4148.717773,4117.948730,4164.102539,0.000000,4.000000,,,,0.000000,4.000000,4.000000,4.000000,4.000000,4.000000,,,,,,,,,,,,,,,,,,,,,,,,,,,,,,,,,,,,,
1577742876.361895,46.000000,0.000000,4164.102539,4307.692383,4166.153809,4148.205078,4188.717773,0.000000,4.000000,,,,0.000000,4.000000,4.000000,4.000000,4.000000,4.000000,23.000000,0.000000,0.120269,-0.405518,0.789307,0.445068,0.544930,-0.604990,0.579110,4.265839,-48.402916,56.285976,,,,,,,,,,,,,,,,,,,,,,,,,
1577742876.369691,47.000000,0.000000,4161.538574,4280.000000,4145.128418,4136.410156,4183.077148,0.000000,4.000000,,,,0.000000,4.000000,4.000000,4.000000,4.000000,4.000000,,,,,,,,,,,,,,,,,,,,,,,,,,,,,,,,,,,,,
1577742876.377388,48.000000,0.000000,4154.871582,4276.410156,4138.974121,4123.589844,4181.025879,0.000000,4.000000,,,,0.000000,4.000000,4.000000,4.000000,4.000000,4.000000,24.000000,0.000000,0.120269,-0.405518,0.789307,0.445068,0.544442,-0.604501,0.579110,7.487993,-48.527302,56.579098,,,,,,,,,,,,,,,,,,,,,,,,,
1577742876.385184,49.000000,0.000000,4157.436035,4296.410156,4155.384766,4127.692383,4190.769043,0.000000,4.000000,,,,0.000000,4.000000,4.000000,4.000000,4.000000,4.000000,,,,,,,,,,,,,,,,,,,,,,,,,,,,,,,,,,,,,
1577742876.392881,50.000000,0.000000,4141.538574,4292.820313,4145.128418,4112.820313,4176.410156,0.000000,4.000000,,,,0.000000,4.000000,4.000000,4.000000,4.000000,4.000000,25.000000,0.000000,0.121861,-0.405518,0.789063,0.445068,0.556649,-0.609873,0.574228,7.337347,-48.519615,56.962540,,,,,,,,,,,,,,,,,,,,,,,,,
1577742876.400777,51.000000,0.000000,4134.358887,4281.538574,4141.025879,4109.230957,4173.333496,0.000000,4.000000,,,,0.000000,4.000000,4.000000,4.000000,4.000000,4.000000,,,,,,,,,,,,,,,,,,,,,,,,,,,,,,,,,,,,,
1577742876.408574,52.000000,0.000000,4147.179688,4288.717773,4158.461426,4127.179688,4188.205078,0.000000,4.000000,,,,0.000000,4.000000,4.000000,4.000000,4.000000,4.000000,26.000000,0.000000,0.121045,-0.405762,0.789063,0.445068,0.551766,-0.607431,0.575692,3.493213,-48.512699,55.393547,,,,,,,,,,,,,,,,,,,,,,,,,
1577742876.416470,53.000000,0.000000,4147.692383,4294.871582,4158.461426,4120.512695,4183.589844,0.000000,4.000000,,,,0.000000,4.000000,4.000000,4.000000,4.000000,4.000000,,,,,,,,,,,,,,,,,,,,,,,,,,,,,,,,,,,,,
1577742876.424267,54.000000,0.000000,4146.666504,4284.615234,4151.282227,4111.794922,4176.922852,0.000000,4.000000,,,,0.000000,4.000000,4.000000,4.000000,4.000000,4.000000,27.000000,0.000000,0.120144,-0.405762,0.789063,0.445313,0.548837,-0.604990,0.573251,6.732814,-48.566288,56.015175,,,,,,,,,,,,,,,,,,,,,,,,,
1577742876.432163,55.000000,0.000000,4161.538574,4272.307617,4163.589844,4127.692383,4181.538574,0.000000,4.000000,,,,0.000000,4.000000,4.000000,4.000000,4.000000,4.000000,,,,,,,,,,,,,,,,,,,,,,,,,,,,,,,,,,,,,
1577742876.439960,56.000000,0.000000,4168.205078,4277.436035,4178.461426,4141.538574,4186.666504,0.000000,4.000000,,,,0.000000,4.000000,4.000000,4.000000,4.000000,4.000000,28.000000,0.000000,0.121045,-0.405762,0.789063,0.445068,0.557626,-0.599130,0.566903,9.708270,-48.614521,56.455009,,,,,,,,,,,,,,,,,,,,,,,,,
1577742876.447856,57.000000,0.000000,4143.077148,4282.563965,4158.974121,4124.102539,4173.846191,0.000000,4.000000,,,,0.000000,4.000000,4.000000,4.000000,4.000000,4.000000,,,,,,,,,,,,,,,,,,,,,,,,,,,,,,,,,,,,,
1577742876.455653,58.000000,0.000000,4113.333496,4268.717773,4123.077148,4095.897461,4150.256348,0.000000,4.000000,,,,0.000000,4.000000,4.000000,4.000000,4.000000,4.000000,29.000000,0.000000,0.120144,-0.405762,0.789063,0.445313,0.559091,-0.599619,0.567880,5.567228,-48.538296,56.850861,,,,,,,,,,,,,,,,,,,,,,,,,
1577742876.463549,59.000000,0.000000,4118.974121,4266.666504,4118.461426,4095.897461,4148.205078,0.000000,4.000000,,,,0.000000,4.000000,4.000000,4.000000,4.000000,4.000000,,,,,,,,,,,,,128.240601,24.886749,10.986451,8.081711,4.145146,0.709319,0.855072,4.039344,2.181738,2.983258,9.365294,2.820139,6.139046,5.735704,2.891029,1.920469,5.511948,8.637363,7.649756,4.653301,45.642582,11.267428,9.353467,7.619355,4.343814
1577742876.471346,60.000000,0.000000,4154.871582,4292.820313,4145.128418,4123.589844,4180.512695,0.000000,4.000000,,,,0.000000,4.000000,4.000000,4.000000,4.000000,4.000000,30.000000,0.000000,0.120920,-0.406006,0.788818,0.445313,0.550301,-0.592782,0.566903,2.019737,-48.708958,57.207127,,,,,,,,,,,,,,,,,,,,,,,,,
1577742876.479242,61.000000,0.000000,4175.384766,4298.974121,4154.871582,4138.461426,4207.692383,0.000000,4.000000,,,,0.000000,4.000000,4.000000,4.000000,4.000000,4.000000,,,,,,,,,,,,,,,,,,,,,,,,,,,,,,,,,,,,,
1577742876.487039,62.000000,0.000000,4158.974121,4273.846191,4136.410156,4122.563965,4194.871582,0.000000,4.000000,,,,0.000000,4.000000,4.000000,4.000000,4.000000,4.000000,31.000000,0.000000,0.120920,-0.406006,0.788818,0.445313,0.537606,-0.608896,0.574228,5.287055,-48.742924,57.527767,,,,,,,,,,,,,,,,,,,,,,,,,
1577742876.494935,63.000000,0.000000,4158.974121,4269.230957,4142.051270,4126.153809,4186.666504,0.000000,4.000000,,,,0.000000,4.000000,4.000000,4.000000,4.000000,4.000000,,,,,,,,,,,,,,,,,,,,,,,,,,,,,,,,,,,,,
1577742876.502732,64.000000,0.000000,4171.282227,4294.358887,4166.153809,4138.974121,4198.461426,450.000000,4.000000,,,,0.000000,4.000000,4.000000,4.000000,4.000000,4.000000,32.000000,0.000000,0.120017,-0.406006,0.788818,0.445557,0.553719,-0.625498,0.571786,8.347271,-48.773491,57.756527,,,,,,,,,,,,,,,,,,,,,,,,,
1577742876.510628,65.000000,0.000000,4147.179688,4291.794922,4153.333496,4114.358887,4182.563965,450.000000,4.000000,,,,0.000000,4.000000,4.000000,4.000000,4.000000,4.000000,,,,,,,,,,,,,,,,,,,,,,,,,,,,,,,,,,,,,
1577742876.518425,66.000000,0.000000,4115.384766,4271.282227,4124.102539,4088.718018,4156.410156,16208.000000,4.000000,,,,0.000000,4.000000,4.000000,4.000000,4.000000,4.000000,33.000000,0.000000,0.120017,-0.406006,0.788818,0.445557,0.549813,-0.613291,0.561532,4.521776,-48.920631,58.022224,,,,,,,,,,,,,,,,,,,,,,,,,
1577742876.526321,67.000000,0.000000,4137.948730,4294.871582,4140.000000,4110.256348,4179.487305,450.000000,4.000000,,,,0.000000,4.000000,4.000000,4.000000,4.000000,4.000000,,,,,,,,,,,,,,,,,,,,,,,,,,,,,,,,,,,,,
1577742876.534118,68.000000,0.000000,4193.333496,4330.256348,4185.128418,4159.487305,4235.897461,16243.000000,4.000000,,,,0.000000,4.000000,4.000000,4.000000,4.000000,4.000000,34.000000,0.000000,0.120017,-0.406006,0.788818,0.445557,0.545907,-0.607919,0.573251,4.847198,-48.933430,58.141724,,,,,,,,,,,,,,,,,,,,,,,,,
1577742876.541914,69.000000,0.000000,4210.256348,4313.333496,4190.256348,4174.871582,4251.282227,450.000000,4.000000,,,,0.000000,4.000000,4.000000,4.000000,4.000000,4.000000,,,,,,,,,,,,,,,,,,,,,,,,,,,,,,,,,,,,,
1577742876.549610,70.000000,0.000000,4169.230957,4271.282227,4153.846191,4136.410156,4211.794922,16137.000000,4.000000,,,,0.000000,4.000000,4.000000,4.000000,4.000000,4.000000,35.000000,0.000000,0.120017,-0.406006,0.788818,0.445557,0.547860,-0.605478,0.581552,5.140078,-48.825314,58.368904,,,,,,,,,,,,,,,,,,,,,,,,,
1577742876.557307,71.000000,0.000000,4125.641113,4257.948730,4128.717773,4098.974121,4172.307617,450.000000,4.000000,,,,0.000000,4.000000,4.000000,4.000000,4.000000,4.000000,,,,,,,,,,,,,,,,,,,,,,,,,,,,,,,,,,,,,
1577742876.565104,72.000000,0.000000,4152.820313,4282.563965,4154.358887,4130.769043,4195.897461,450.000000,4.000000,,,,0.000000,4.000000,4.000000,4.000000,4.000000,4.000000,36.000000,0.000000,0.120017,-0.406006,0.788818,0.445557,0.549325,-0.596689,0.569833,5.284039,-48.847645,56.599457,,,,,,,,,,,,,,,,,,,,,,,,,
1577742876.572800,73.000000,0.000000,4187.179688,4300.512695,4180.512695,4170.256348,4227.179688,16191.000000,4.000000,,,,0.000000,4.000000,4.000000,4.000000,4.000000,4.000000,,,,,,,,,,,,,,,,,,,,,,,,,,,,,,,,,,,,,
1577742876.580597,74.000000,0.000000,4149.230957,4277.436035,4142.563965,4129.230957,4188.205078,450.000000,4.000000,,,,0.000000,4.000000,4.000000,4.000000,4.000000,4.000000,37.000000,0.000000,0.120793,-0.406250,0.788574,0.445557,0.550790,-0.609384,0.580087,4.456559,-48.927555,56.861233,,,,,,,,,,,,,,,,,,,,,,,,,
1577742876.588293,75.000000,0.000000,4104.615234,4252.820313,4099.487305,4076.410156,4134.358887,16216.000000,4.000000,,,,0.000000,4.000000,4.000000,4.000000,4.000000,4.000000,,,,,,,,,,,,,67.860611,16.501093,11.613974,7.457021,4.300412,0.572979,1.189714,4.136848,2.312307,3.043310,6.507669,2.788032,5.967405,5.414059,3.069288,2.132305,6.264977,9.481774,7.306142,4.961076,25.922241,9.732859,10.656906,7.308975,4.516909
1577742876.596090,76.000000,0.000000,4125.641113,4271.794922,4122.051270,4094.871826,4145.641113,450.000000,4.000000,,,,0.000000,4.000000,4.000000,4.000000,4.000000,4.000000,38.000000,0.000000,0.121611,-0.406006,0.788574,0.445557,0.548348,-0.593271,0.572763,4.788502,-48.879845,57.156647,,,,,,,,,,,,,,,,,,,,,,,,,
1577742876.603787,77.000000,0.000000,4176.922852,4301.538574,4169.230957,4147.179688,4196.922852,450.000000,4.000000,,,,0.000000,4.000000,4.000000,4.000000,4.000000,4.000000,,,,,,,,,,,,,,,,,,,,,,,,,,,,,,,,,,,,,
1577742876.611683,78.000000,0.000000,4164.102539,4276.922852,4155.384766,4134.871582,4189.230957,450.000000,4.000000,,,,0.000000,4.000000,4.000000,4.000000,4.000000,4.000000,39.000000,0.000000,0.120713,-0.406006,0.788574,0.445801,0.541024,-0.604013,0.569833,5.087252,-48.836903,57.362701,,,,,,,,,,,,,,,,,,,,,,,,,
1577742876.619479,79.000000,0.000000,4125.641113,4248.717773,4129.743652,4096.922852,4157.436035,16216.000000,4.000000,,,,0.000000,4.000000,4.000000,4.000000,4.000000,4.000000,,,,,,,,,,,,,,,,,,,,,,,,,,,,,,,,,,,,,
1577742876.627276,80.000000,0.000000,4163.589844,4284.615234,4167.692383,4138.974121,4193.333496,450.000000,4.000000,,,,0.000000,4.000000,4.000000,4.000000,4.000000,4.000000,40.000000,0.000000,0.120713,-0.406006,0.788574,0.445801,0.562020,-0.612802,0.571298,5.356126,-48.798260,55.693878,,,,,,,,,,,,,,,,,,,,,,,,,
1577742876.634973,81.000000,0.000000,4203.589844,4300.000000,4191.794922,4181.538574,4230.769043,450.000000,4.000000,,,,0.000000,4.000000,4.000000,4.000000,4.000000,4.000000,,,,,,,,,,,,,,,,,,,,,,,,,,,,,,,,,,,,,
1577742876.642769,82.000000,0.000000,4183.077148,4263.589844,4166.666504,4157.436035,4212.820313,450.000000,4.000000,,,,0.000000,4.000000,4.000000,4.000000,4.000000,4.000000,41.000000,0.000000,0.120713,-0.406006,0.788574,0.445801,0.546883,-0.616220,0.577157,5.598114,-48.823292,56.046211,,,,,,,,,,,,,,,,,,,,,,,,,
1577742876.650466,83.000000,0.000000,4151.794922,4244.102539,4136.410156,4119.487305,4174.358887,16216.000000,4.000000,,,,0.000000,4.000000,4.000000,4.000000,4.000000,4.000000,,,,,,,,,,,,,,,,,,,,,,,,,,,,,,,,,,,,,
1577742876.658262,84.000000,0.000000,4134.358887,4263.077148,4116.410156,4095.897461,4149.743652,450.000000,4.000000,,,,0.000000,4.000000,4.000000,4.000000,4.000000,4.000000,42.000000,0.000000,0.119808,-0.406006,0.788574,0.446045,0.555184,-0.615244,0.585946,1.927903,-48.845821,56.423126,,,,,,,,,,,,,,,,,,,,,,,,,
1577742876.665959,85.000000,0.000000,4140.000000,4289.230957,4129.230957,4100.000000,4158.461426,450.000000,4.000000,,,,0.000000,4.000000,4.000000,4.000000,4.000000,4.000000,,,,,,,,,,,,,,,,,,,,,,,,,,,,,,,,,,,,,
1577742876.673855,86.000000,0.000000,4160.000000,4292.307617,4154.871582,4117.436035,4175.897461,450.000000,4.000000,,,,0.000000,4.000000,4.000000,4.000000,4.000000,4.000000,43.000000,0.000000,0.119808,-0.406006,0.788574,0.446045,0.535164,-0.609384,0.571786,5.264219,-48.985733,57.001614,,,,,,,,,,,,,,,,,,,,,,,,,
1577742876.681652,87.000000,0.000000,4153.846191,4276.410156,4145.128418,4108.717773,4168.717773,16216.000000,4.000000,,,,0.000000,4.000000,4.000000,4.000000,4.000000,4.000000,,,,,,,,,,,,,,,,,,,,,,,,,,,,,,,,,,,,,
1577742876.689448,88.000000,0.000000,4131.794922,4269.230957,4120.512695,4091.281982,4152.820313,450.000000,4.000000,,,,0.000000,4.000000,4.000000,4.000000,4.000000,4.000000,44.000000,0.000000,0.121404,-0.406006,0.788330,0.446045,0.544442,-0.593271,0.585458,4.677982,-48.812572,57.342804,,,,,,,,,,,,,,,,,,,,,,,,,
1577742876.697145,89.000000,0.000000,4141.025879,4282.563965,4129.230957,4106.153809,4160.000000,450.000000,4.000000,,,,0.000000,4.000000,4.000000,4.000000,4.000000,4.000000,,,,,,,,,,,,,,,,,,,,,,,,,,,,,,,,,,,,,
1577742876.705041,90.000000,0.000000,4173.333496,4289.230957,4163.077148,4139.487305,4191.794922,450.000000,4.000000,,,,0.000000,4.000000,4.000000,4.000000,4.000000,4.000000,45.000000,0.000000,0.119808,-0.406006,0.788574,0.446045,0.543465,-0.605478,0.580575,4.987784,-48.836174,57.530243,,,,,,,,,,,,,,,,,,,,,,,,,
1577742876.712838,91.000000,0.000000,4183.589844,4277.436035,4181.025879,4154.871582,4209.230957,16216.000000,4.000000,,,,0.000000,4.000000,4.000000,4.000000,4.000000,4.000000,,,,,,,,,,,,,28.698214,10.872630,12.120372,6.887501,4.178382,0.492246,1.675929,3.877606,2.441952,2.904373,4.274317,2.690985,5.762478,5.126764,3.098285,2.375728,6.652978,10.170334,7.104111,4.965631,12.620322,8.710360,11.576521,6.980101,4.421536
1577742876.720734,92.000000,0.000000,4163.077148,4271.282227,4166.153809,4139.487305,4188.717773,450.000000,4.000000,,,,0.000000,4.000000,4.000000,4.000000,4.000000,4.000000,46.000000,0.000000,0.119808,-0.406006,0.788574,0.446045,0.557626,-0.608896,0.579599,4.249744,-48.857418,57.698940,,,,,,,,,,,,,,,,,,,,,,,,,
1577742876.728531,93.000000,0.000000,4137.948730,4284.102539,4146.666504,4114.358887,4165.641113,450.000000,4.000000,,,,0.000000,4.000000,4.000000,4.000000,4.000000,4.000000,,,,,,,,,,,,,,,,,,,,,,,,,,,,,,,,,,,,,
1577742876.736228,94.000000,0.000000,4136.922852,4289.743652,4147.179688,4113.333496,4170.256348,450.000000,4.000000,,,,0.000000,4.000000,4.000000,4.000000,4.000000,4.000000,47.000000,0.000000,0.121404,-0.406006,0.788330,0.446045,0.555184,-0.607919,0.577157,7.353876,-48.816719,57.790951,,,,,,,,,,,,,,,,,,,,,,,,,
1577742876.744024,95.000000,0.000000,4157.436035,4277.948730,4150.769043,4129.230957,4183.589844,16216.000000,4.000000,,,,0.000000,4.000000,4.000000,4.000000,4.000000,4.000000,,,,,,,,,,,,,,,,,,,,,,,,,,,,,,,,,,,,,
1577742876.751721,96.000000,0.000000,4171.282227,4283.077148,4145.128418,4130.769043,4190.769043,450.000000,4.000000,,,,0.000000,4.000000,4.000000,4.000000,4.000000,4.000000,48.000000,0.000000,0.119808,-0.406006,0.788574,0.446045,0.543465,-0.605478,0.580575,7.336273,-48.839909,58.053207,,,,,,,,,,,,,,,,,,,,,,,,,
1577742876.759517,97.000000,0.000000,4160.512695,4298.461426,4138.461426,4116.410156,4188.205078,450.000000,4.000000,,,,0.000000,4.000000,4.000000,4.000000,4.000000,4.000000,,,,,,,,,,,,,,,,,,,,,,,,,,,,,,,,,,,,,
1577742876.767214,98.000000,0.000000,4160.000000,4301.538574,4153.333496,4124.615234,4191.282227,450.000000,4.000000,,,,0.000000,4.000000,4.000000,4.000000,4.000000,4.000000,49.000000,0.000000,0.121404,-0.406006,0.788330,0.446045,0.555184,-0.607919,0.577157,10.131752,-48.800961,58.109795,,,,,,,,,,,,,,,,,,,,,,,,,
1577742876.775010,99.000000,0.000000,4177.436035,4293.846191,4171.282227,4148.205078,4204.102539,16216.000000,4.000000,,,,0.000000,4.000000,4.000000,4.000000,4.000000,4.000000,,,,,,,,,,,,,,,,,,,,,,,,,,,,,,,,,,,,,
1577742876.782707,100.000000,0.000000,4179.487305,4286.666504,4160.512695,4148.717773,4207.692383,450.000000,4.000000,,,,0.000000,4.000000,4.000000,4.000000,4.000000,4.000000,50.000000,0.000000,0.119808,-0.406006,0.788574,0.446045,0.546395,-0.606943,0.566903,6.067993,-48.825726,58.280350,,,,,,,,,,,,,,,,,,,,,,,,,
1577742876.790504,101.000000,0.000000,4169.743652,4279.487305,4147.692383,4136.922852,4197.436035,450.000000,4.000000,,,,0.000000,4.000000,4.000000,4.000000,4.000000,4.000000,,,,,,,,,,,,,,,,,,,,,,,,,,,,,,,,,,,,,
1577742876.798200,102.000000,0.000000,4172.820313,4269.743652,4159.487305,4137.436035,4196.922852,450.000000,4.000000,,,,0.000000,4.000000,4.000000,4.000000,4.000000,4.000000,51.000000,0.000000,0.119808,-0.406006,0.788574,0.446045,0.556649,-0.596689,0.571786,2.410610,-48.848015,58.493668,,,,,,,,,,,,,,,,,,,,,,,,,
1577742876.805997,103.000000,0.000000,4183.077148,4270.256348,4163.589844,4147.692383,4208.205078,16216.000000,4.000000,,,,0.000000,4.000000,4.000000,4.000000,4.000000,4.000000,,,,,,,,,,,,,,,,,,,,,,,,,,,,,,,,,,,,,
1577742876.813693,104.000000,0.000000,4162.051270,4281.025879,4132.307617,4128.205078,4189.230957,450.000000,4.000000,,,,0.000000,4.000000,4.000000,4.000000,4.000000,4.000000,52.000000,0.000000,0.121323,-0.405762,0.788330,0.446289,0.542489,-0.599619,0.570809,5.818286,-48.927887,56.711746,,,,,,,,,,,,,,,,,,,,,,,,,
1577742876.821490,105.000000,0.000000,4136.922852,4291.282227,4123.077148,4104.615234,4167.179688,450.000000,4.000000,,,,0.000000,4.000000,4.000000,4.000000,4.000000,4.000000,,,,,,,,,,,,,,,,,,,,,,,,,,,,,,,,,,,,,
1577742876.829186,106.000000,0.000000,4152.820313,4293.333496,4148.205078,4128.205078,4188.717773,450.000000,4.000000,,,,0.000000,4.000000,4.000000,4.000000,4.000000,4.000000,53.000000,0.000000,0.120421,-0.405762,0.788330,0.446533,0.534676,-0.607431,0.576181,5.954242,-48.939960,57.081924,,,,,,,,,,,,,,,,,,,,,,,,,
1577742876.836983,107.000000,0.000000,4168.205078,4287.692383,4145.128418,4146.153809,4206.153809,16216.000000,4.000000,,,,0.000000,4.000000,4.000000,4.000000,4.000000,4.000000,,,,,,,,,,,,,10.098114,7.709987,12.078143,6.570484,3.830720,0.486527,2.154565,3.313713,2.569487,2.614962,2.865071,2.464926,5.358184,4.951774,2.977182,2.584488,6.371363,10.295128,7.149282,4.672049,6.022382,7.787738,11.727465,6.775511,4.083720
1577742876.844680,108.000000,0.000000,4146.666504,4276.410156,4116.410156,4112.820313,4177.436035,450.000000,4.000000,,,,0.000000,4.000000,4.000000,4.000000,4.000000,4.000000,54.000000,0.000000,0.121241,-0.405518,0.788330,0.446533,0.554696,-0.606943,0.583505,2.308234,-48.950821,57.415085,,,,,,,,,,,,,,,,,,,,,,,,,
1577742876.852576,109.000000,0.000000,4114.358887,4263.077148,4100.512695,4075.384521,4136.922852,450.000000,4.000000,,,,0.000000,4.000000,4.000000,4.000000,4.000000,4.000000,,,,,,,,,,,,,,,,,,,,,,,,,,,,,,,,,,,,,
1577742876.860373,110.000000,0.000000,4126.153809,4275.384766,4122.563965,4096.922852,4154.358887,450.000000,4.000000,,,,0.000000,4.000000,4.000000,4.000000,4.000000,4.000000,55.000000,0.000000,0.120338,-0.405518,0.788330,0.446777,0.561532,-0.599619,0.571298,2.795195,-49.140045,57.655109,,,,,,,,,,,,,,,,,,,,,,,,,
1577742876.868269,111.000000,0.000000,4156.410156,4288.205078,4148.717773,4137.948730,4195.897461,16216.000000,4.000000,,,,0.000000,4.000000,4.000000,4.000000,4.000000,4.000000,,,,,,,,,,,,,,,,,,,,,,,,,,,,,,,,,,,,,
1577742876.876066,112.000000,0.000000,4164.102539,4281.538574,4153.846191,4139.487305,4199.487305,450.000000,4.000000,,,,0.000000,4.000000,4.000000,4.000000,4.000000,4.000000,56.000000,0.000000,0.118642,-0.405273,0.788574,0.447021,0.554696,-0.613291,0.560067,3.173645,-49.071087,57.751507,,,,,,,,,,,,,,,,,,,,,,,,,
1577742876.883962,113.000000,0.000000,4165.128418,4283.589844,4151.794922,4122.051270,4188.717773,450.000000,4.000000,,,,0.000000,4.000000,4.000000,4.000000,4.000000,4.000000,,,,,,,,,,,,,,,,,,,,,,,,,,,,,,,,,,,,,
1577742876.891758,114.000000,0.000000,4168.205078,4289.230957,4147.692383,4117.436035,4189.743652,450.000000,4.000000,,,,0.000000,4.000000,4.000000,4.000000,4.000000,4.000000,57.000000,0.000000,0.118556,-0.405029,0.788574,0.447266,0.543465,-0.620127,0.578134,6.385387,-49.068836,56.043800,,,,,,,,,,,,,,,,,,,,,,,,,
1577742876.899655,115.000000,0.000000,4166.153809,4284.615234,4142.563965,4121.538574,4189.230957,16216.000000,4.000000,,,,0.000000,4.000000,4.000000,4.000000,4.000000,4.000000,,,,,,,,,,,,,,,,,,,,,,,,,,,,,,,,,,,,,
1577742876.907451,116.000000,0.000000,4163.077148,4283.077148,4136.922852,4112.307617,4179.487305,450.000000,4.000000,,,,0.000000,4.000000,4.000000,4.000000,4.000000,4.000000,58.000000,0.000000,0.119473,-0.405029,0.788574,0.447021,0.542977,-0.628916,0.571786,5.627217,-49.066814,56.361141,,,,,,,,,,,,,,,,,,,,,,,,,
1577742876.915348,117.000000,0.000000,4174.358887,4287.179688,4133.846191,4107.692383,4182.051270,450.000000,4.000000,,,,0.000000,4.000000,4.000000,4.000000,4.000000,4.000000,,,,,,,,,,,,,,,,,,,,,,,,,,,,,,,,,,,,,
1577742876.923144,118.000000,0.000000,4187.692383,4293.333496,4143.589844,4128.205078,4198.974121,450.000000,4.000000,,,,0.000000,4.000000,4.000000,4.000000,4.000000,4.000000,59.000000,0.000000,0.120254,-0.405273,0.788330,0.447021,0.546395,-0.637705,0.578134,5.782280,-49.064991,56.646748,,,,,,,,,,,,,,,,,,,,,,,,,
1577742876.931041,119.000000,0.000000,4172.307617,4293.333496,4141.538574,4124.615234,4187.692383,16216.000000,4.000000,,,,0.000000,4.000000,4.000000,4.000000,4.000000,4.000000,,,,,,,,,,,,,,,,,,,,,,,,,,,,,,,,,,,,,
1577742876.938837,120.000000,0.000000,4129.743652,4269.230957,4102.563965,4068.718018,4138.974121,450.000000,4.000000,,,,0.000000,4.000000,4.000000,4.000000,4.000000,4.000000,60.000000,0.000000,0.120297,-0.404785,0.788574,0.447021,0.538094,-0.617197,0.566903,2.153468,-48.943722,56.963612,,,,,,,,,,,,,,,,,,,,,,,,,
1577742876.946534,121.000000,0.000000,4142.563965,4256.922852,4104.102539,4066.666748,4142.051270,450.000000,4.000000,,,,0.000000,4.000000,4.000000,4.000000,4.000000,4.000000,,,,,,,,,,,,,,,,,,,,,,,,,,,,,,,,,,,,,
1577742876.954330,122.000000,0.000000,4224.615234,4302.051270,4174.871582,4152.820313,4227.179688,450.000000,4.000000,,,,0.000000,4.000000,4.000000,4.000000,4.000000,4.000000,61.000000,0.000000,0.119602,-0.404785,0.788818,0.446777,0.535653,-0.616220,0.570321,2.835352,-49.014027,57.188969,,,,,,,,,,,,,,,,,,,,,,,,,
1577742876.962127,123.000000,0.000000,4266.666504,4331.282227,4202.051270,4191.282227,4275.384766,16216.000000,4.000000,,,,0.000000,4.000000,4.000000,4.000000,4.000000,4.000000,,,,,,,,,,,,,4.407303,5.832383,11.263208,6.512997,3.423027,0.564053,2.454748,2.590621,2.671358,2.297686,2.116835,2.201361,4.740366,4.860190,2.793036,2.698665,5.475616,9.732385,7.358475,4.228964,3.985551,6.623792,11.068924,6.700865,3.647769
1577742876.969823,124.000000,0.000000,4235.384766,4298.974121,4161.538574,4142.563965,4236.922852,450.000000,4.000000,,,,0.000000,4.000000,4.000000,4.000000,4.000000,4.000000,62.000000,0.000000,0.119602,-0.404785,0.788818,0.446777,0.543954,-0.610361,0.579110,-0.438951,-48.957668,57.331978,,,,,,,,,,,,,,,,,,,,,,,,,
1577742876.977520,125.000000,0.000000,4200.512695,4276.410156,4131.282227,4094.358887,4188.205078,450.000000,4.000000,,,,0.000000,4.000000,4.000000,4.000000,4.000000,4.000000,,,,,,,,,,,,,,,,,,,,,,,,,,,,,,,,,,,,,
1577742876.985317,126.000000,0.000000,4202.563965,4287.179688,4131.794922,4085.641113,4182.051270,450.000000,4.000000,,,,0.000000,4.000000,4.000000,4.000000,4.000000,4.000000,63.000000,0.000000,0.119602,-0.404785,0.788818,0.446777,0.551766,-0.595224,0.560067,3.193866,-49.026577,57.460686,,,,,,,,,,,,,,,,,,,,,,,,,
1577742876.993013,127.000000,0.000000,4223.077148,4300.512695,4142.563965,4099.487305,4204.102539,235.000000,4.000000,,,,0.000000,4.000000,4.000000,4.000000,4.000000,4.000000,,,,,,,,,,,,,,,,,,,,,,,,,,,,,,,,,,,,,
1577742877.000910,0.000000,0.000000,4233.846191,4311.794922,4150.769043,4114.358887,4223.077148,450.000000,4.000000,,,,0.000000,4.000000,4.000000,4.000000,4.000000,4.000000,0.000000,0.000000,0.119602,-0.404785,0.788818,0.446777,0.549813,-0.594247,0.581552,3.592263,-48.909149,57.636341,,,,,,,,,,,,,,,,,,,,,,,,,
1577742877.008706,1.000000,0.000000,4215.897461,4310.256348,4138.974121,4103.589844,4206.666504,450.000000,4.000000,,,,0.000000,4.000000,4.000000,4.000000,4.000000,4.000000,,,,,,,,,,,,,,,,,,,,,,,,,,,,,,,,,,,,,
1577742877.016503,2.000000,0.000000,4209.230957,4303.077148,4133.846191,4100.000000,4196.922852,16209.000000,4.000000,,,,0.000000,4.000000,4.000000,4.000000,4.000000,4.000000,1.000000,0.000000,0.118686,-0.404785,0.788818,0.447021,0.549813,-0.594247,0.566903,4.010637,-48.863277,57.734612,,,,,,,,,,,,,,,,,,,,,,,,,
1577742877.024199,3.000000,0.000000,4231.794922,4302.051270,4147.179688,4127.692383,4222.051270,450.000000,4.000000,,,,0.000000,4.000000,4.000000,4.000000,4.000000,4.000000,,,,,,,,,,,,,,,,,,,,,,,,,,,,,,,,,,,,,
1577742877.032096,4.000000,0.000000,4207.692383,4281.538574,4132.307617,4107.179688,4201.025879,16235.000000,4.000000,,,,0.000000,4.000000,4.000000,4.000000,4.000000,4.000000,2.000000,0.000000,0.119516,-0.404541,0.788818,0.447021,0.543465,-0.594736,0.572274,4.387173,-48.881809,57.882874,,,,,,,,,,,,,,,,,,,,,,,,,
1577742877.039892,5.000000,0.000000,4180.000000,4276.410156,4117.948730,4075.384521,4172.820313,450.000000,4.000000,,,,0.000000,4.000000,4.000000,4.000000,4.000000,4.000000,,,,,,,,,,,,,,,,,,,,,,,,,,,,,,,,,,,,,
1577742877.047789,6.000000,0.000000,4232.307617,4317.436035,4154.358887,4124.102539,4225.641113,16143.000000,4.000000,,,,0.000000,4.000000,4.000000,4.000000,4.000000,4.000000,3.000000,0.000000,0.120339,-0.404297,0.788818,0.447021,0.547860,-0.613779,0.571298,4.666240,-48.778858,58.016304,,,,,,,,,,,,,,,,,,,,,,,,,
1577742877.055585,7.000000,0.000000,4257.436035,4309.743652,4164.102539,4147.692383,4252.820313,450.000000,4.000000,,,,0.000000,4.000000,4.000000,4.000000,4.000000,4.000000,,,,,,,,,,,,,,,,,,,,,,,,,,,,,,,,,,,,,
1577742877.063382,8.000000,0.000000,4213.333496,4271.794922,4132.820313,4098.461426,4207.692383,450.000000,4.000000,,,,0.000000,4.000000,4.000000,4.000000,4.000000,4.000000,4.000000,0.000000,0.119428,-0.404297,0.788818,0.447266,0.544442,-0.607919,0.561044,7.967984,-48.925465,58.196213,,,,,,,,,,,,,,,,,,,,,,,,,
1577742877.071078,9.000000,0.000000,4218.461426,4301.025879,4138.461426,4104.615234,4214.358887,16202.000000,4.000000,,,,0.000000,4.000000,4.000000,4.000000,4.000000,4.000000,,,,,,,,,,,,,,,,,,,,,,,,,,,,,,,,,,,,,
1577742877.078875,10.000000,0.000000,4253.333496,4318.974121,4151.794922,4145.128418,4253.333496,450.000000,4.000000,,,,0.000000,4.000000,4.000000,4.000000,4.000000,4.000000,5.000000,0.000000,0.120252,-0.404053,0.788818,0.447266,0.556649,-0.616709,0.561532,7.948785,-48.877960,58.358128,,,,,,,,,,,,,,,,,,,,,,,,,
1577742877.086572,11.000000,0.000000,4227.179688,4277.948730,4123.589844,4116.922852,4225.128418,16214.000000,4.000000,,,,0.000000,4.000000,4.000000,4.000000,4.000000,4.000000,,,,,,,,,,,,,3.508724,4.329727,9.800172,6.536269,3.142149,0.731623,2.457908,1.902253,2.701452,2.073625,1.732016,2.118656,4.047120,4.727299,2.667081,2.725240,4.393301,8.717960,7.482052,3.845789,3.909477,5.275078,9.892323,6.613115,3.296506
1577742877.094468,12.000000,0.000000,4189.743652,4269.743652,4108.717773,4078.974365,4184.615234,450.000000,4.000000,,,,0.000000,4.000000,4.000000,4.000000,4.000000,4.000000,6.000000,0.000000,0.120252,-0.404053,0.788818,0.447266,0.545419,-0.606943,0.568368,10.623199,-48.835209,58.563667,,,,,,,,,,,,,,,,,,,,,,,,,
1577742877.102264,13.000000,0.000000,4208.205078,4304.615234,4139.487305,4100.512695,4207.692383,450.000000,4.000000,,,,0.000000,4.000000,4.000000,4.000000,4.000000,4.000000,,,,,,,,,,,,,,,,,,,,,,,,,,,,,,,,,,,,,
1577742877.110061,14.000000,0.000000,4226.666504,4296.922852,4158.461426,4124.102539,4231.282227,450.000000,4.000000,,,,0.000000,4.000000,4.000000,4.000000,4.000000,4.000000,7.000000,0.000000,0.118510,-0.404297,0.788818,0.447510,0.542489,-0.618173,0.576669,10.458109,-48.796734,58.748653,,,,,,,,,,,,,,,,,,,,,,,,,
1577742877.117758,15.000000,0.000000,4188.205078,4253.846191,4127.179688,4087.692383,4187.179688,16214.000000,4.000000,,,,0.000000,4.000000,4.000000,4.000000,4.000000,4.000000,,,,,,,,,,,,,,,,,,,,,,,,,,,,,,,,,,,,,
1577742877.125654,16.000000,0.000000,4161.538574,4275.897461,4111.282227,4064.615479,4157.948730,0.000000,4.000000,,,,0.000000,4.000000,4.000000,4.000000,4.000000,4.000000,8.000000,0.000000,0.118510,-0.404297,0.788818,0.447510,0.549325,-0.615732,0.572763,10.249713,-48.762104,58.915138,,,,,,,,,,,,,,,,,,,,,,,,,
1577742877.133451,17.000000,0.000000,4201.025879,4331.794922,4154.871582,4111.282227,4203.589844,0.000000,4.000000,,,,0.000000,4.000000,4.000000,4.000000,4.000000,4.000000,,,,,,,,,,,,,,,,,,,,,,,,,,,,,,,,,,,,,
1577742877.141247,18.000000,0.000000,4216.922852,4309.743652,4172.820313,4127.692383,4224.102539,0.000000,4.000000,,,,0.000000,4.000000,4.000000,4.000000,4.000000,4.000000,9.000000,0.000000,0.118510,-0.404297,0.788818,0.447510,0.546395,-0.618662,0.574716,6.293789,-48.671124,58.945347,,,,,,,,,,,,,,,,,,,,,,,,,
1577742877.148944,19.000000,0.000000,4173.846191,4264.102539,4131.794922,4075.384521,4178.461426,0.000000,4.000000,,,,0.000000,4.000000,4.000000,4.000000,4.000000,4.000000,,,,,,,,,,,,,,,,,,,,,,,,,,,,,,,,,,,,,
1577742877.156840,20.000000,0.000000,4191.282227,4297.948730,4132.820313,4078.974365,4188.205078,0.000000,4.000000,,,,0.000000,4.000000,4.000000,4.000000,4.000000,4.000000,10.000000,0.000000,0.119340,-0.404053,0.788818,0.447510,0.548837,-0.612314,0.590829,6.621456,-48.768688,59.032349,,,,,,,,,,,,,,,,,,,,,,,,,
1577742877.164637,21.000000,0.000000,4255.384766,4326.666504,4182.051270,4135.897461,4249.743652,0.000000,4.000000,,,,0.000000,4.000000,4.000000,4.000000,4.000000,4.000000,,,,,,,,,,,,,,,,,,,,,,,,,,,,,,,,,,,,,
1577742877.172433,22.000000,0.000000,4262.051270,4294.358887,4201.538574,4152.820313,4262.051270,0.000000,4.000000,,,,0.000000,4.000000,4.000000,4.000000,4.000000,4.000000,11.000000,0.000000,0.118421,-0.404053,0.788818,0.447754,0.554696,-0.606455,0.569833,6.736910,-48.916309,59.050835,,,,,,,,,,,,,,,,,,,,,,,,,
1577742877.180230,23.000000,0.000000,4252.307617,4285.641113,4196.922852,4153.846191,4247.692383,0.000000,4.000000,,,,0.000000,4.000000,4.000000,4.000000,4.000000,4.000000,,,,,,,,,,,,,,,,,,,,,,,,,,,,,,,,,,,,,
1577742877.187926,24.000000,0.000000,4243.077148,4293.333496,4180.000000,4146.153809,4231.282227,0.000000,4.000000,,,,0.000000,4.000000,4.000000,4.000000,4.000000,4.000000,12.000000,0.000000,0.118421,-0.404053,0.788818,0.447754,0.550301,-0.609384,0.572763,9.532510,-48.869724,57.332825,,,,,,,,,,,,,,,,,,,,,,,,,
1577742877.195723,25.000000,0.000000,4198.461426,4265.641113,4149.230957,4104.102539,4196.410156,0.000000,4.000000,,,,0.000000,4.000000,4.000000,4.000000,4.000000,4.000000,,,,,,,,,,,,,,,,,,,,,,,,,,,,,,,,,,,,,
1577742877.203419,26.000000,0.000000,4177.948730,4261.538574,4147.179688,4087.692383,4184.615234,0.000000,4.000000,,,,0.000000,4.000000,4.000000,4.000000,4.000000,4.000000,13.000000,0.000000,0.119340,-0.404053,0.788818,0.447510,0.548837,-0.612314,0.590829,9.536305,-48.947426,57.581081,,,,,,,,,,,,,,,,,,,,,,,,,
1577742877.211216,27.000000,0.000000,4196.410156,4285.128418,4160.512695,4104.615234,4195.897461,0.000000,4.000000,,,,0.000000,4.000000,4.000000,4.000000,4.000000,4.000000,,,,,,,,,,,,,3.392282,3.221900,8.166583,6.444140,3.103902,0.978709,2.171880,1.405307,2.625584,1.996973,1.508297,2.392070,3.457707,4.458617,2.685695,2.677111,3.588135,7.613854,7.307361,3.690971,4.200384,4.210331,8.676238,6.383973,3.165444
1577742877.218913,28.000000,0.000000,4177.436035,4280.000000,4134.358887,4084.102539,4178.974121,0.000000,4.000000,,,,0.000000,4.000000,4.000000,4.000000,4.000000,4.000000,14.000000,0.000000,0.118421,-0.404053,0.788818,0.447754,0.550301,-0.609384,0.572763,12.051966,-48.897728,56.010048,,,,,,,,,,,,,,,,,,,,,,,,,
1577742877.226709,29.000000,0.000000,4159.487305,4272.820313,4116.410156,4067.692383,4167.179688,0.000000,4.000000,,,,0.000000,4.000000,4.000000,4.000000,4.000000,4.000000,,,,,,,,,,,,,,,,,,,,,,,,,,,,,,,,,,,,,
1577742877.234406,30.000000,0.000000,4188.717773,4283.589844,4146.153809,4098.461426,4194.871582,0.000000,4.000000,,,,0.000000,4.000000,4.000000,4.000000,4.000000,4.000000,15.000000,0.000000,0.118421,-0.404053,0.788818,0.447754,0.551766,-0.607919,0.582528,11.564553,-48.733368,54.416672,,,,,,,,,,,,,,,,,,,,,,,,,
1577742877.242202,31.000000,0.000000,4216.922852,4267.692383,4176.922852,4129.743652,4226.153809,0.000000,4.000000,,,,0.000000,4.000000,4.000000,4.000000,4.000000,4.000000,,,,,,,,,,,,,,,,,,,,,,,,,,,,,,,,,,,,,
1577742877.249899,32.000000,0.000000,4200.512695,4232.307617,4163.077148,4117.948730,4214.871582,0.000000,4.000000,,,,0.000000,4.000000,4.000000,4.000000,4.000000,4.000000,16.000000,0.000000,0.118421,-0.404053,0.788818,0.447754,0.548348,-0.612802,0.571786,11.006252,-48.764893,55.016357,,,,,,,,,,,,,,,,,,,,,,,,,
1577742877.257695,33.000000,0.000000,4150.256348,4216.922852,4122.563965,4070.769287,4162.563965,0.000000,4.000000,,,,0.000000,4.000000,4.000000,4.000000,4.000000,4.000000,,,,,,,,,,,,,,,,,,,,,,,,,,,,,,,,,,,,,
1577742877.265392,34.000000,0.000000,4124.615234,4230.769043,4108.717773,4046.666748,4129.230957,0.000000,4.000000,,,,0.000000,4.000000,4.000000,4.000000,4.000000,4.000000,17.000000,0.000000,0.119250,-0.403809,0.788818,0.447754,0.549813,-0.603525,0.562997,13.494549,-48.912895,53.522350,,,,,,,,,,,,,,,,,,,,,,,,,
1577742877.273289,35.000000,0.000000,4153.846191,4252.307617,4125.128418,4070.769287,4147.692383,0.000000,4.000000,,,,0.000000,4.000000,4.000000,4.000000,4.000000,4.000000,,,,,,,,,,,,,,,,,,,,,,,,,,,,,,,,,,,,,
1577742877.281085,36.000000,0.000000,4171.794922,4252.307617,4132.307617,4084.102539,4163.077148,0.000000,4.000000,,,,0.000000,4.000000,4.000000,4.000000,4.000000,4.000000,18.000000,0.000000,0.119250,-0.403809,0.788818,0.447754,0.549813,-0.604990,0.563973,12.862878,-48.866650,54.211468,,,,,,,,,,,,,,,,,,,,,,,,,
1577742877.288981,37.000000,0.000000,4138.461426,4232.820313,4107.179688,4046.153809,4135.384766,0.000000,4.000000,,,,0.000000,4.000000,4.000000,4.000000,4.000000,4.000000,,,,,,,,,,,,,,,,,,,,,,,,,,,,,,,,,,,,,
1577742877.296778,38.000000,0.000000,4108.205078,4216.410156,4083.076904,4011.794922,4103.077148,0.000000,4.000000,,,,0.000000,4.000000,4.000000,4.000000,4.000000,4.000000,19.000000,0.000000,0.118330,-0.403809,0.788818,0.447998,0.553231,-0.614755,0.570809,8.585822,-48.884846,54.652225,,,,,,,,,,,,,,,,,,,,,,,,,
1577742877.304674,39.000000,0.000000,4079.487061,4188.717773,4069.743652,3989.743652,4073.846191,0.000000,4.000000,,,,0.000000,4.000000,4.000000,4.000000,4.000000,4.000000,,,,,,,,,,,,,,,,,,,,,,,,,,,,,,,,,,,,,
1577742877.312471,40.000000,0.000000,4042.051270,4184.102539,4054.871826,3961.538574,4042.051270,0.000000,4.000000,,,,0.000000,4.000000,4.000000,4.000000,4.000000,4.000000,20.000000,0.000000,0.118330,-0.403809,0.788818,0.447998,0.542489,-0.611337,0.573739,11.495608,-48.901218,55.108727,,,,,,,,,,,,,,,,,,,,,,,,,
1577742877.320367,41.000000,0.000000,4057.948730,4234.871582,4065.641113,3984.102539,4056.923096,0.000000,4.000000,,,,0.000000,4.000000,4.000000,4.000000,4.000000,4.000000,,,,,,,,,,,,,,,,,,,,,,,,,,,,,,,,,,,,,
1577742877.328164,42.000000,0.000000,4076.410156,4241.025879,4071.281982,4018.974365,4075.384521,0.000000,4.000000,,,,0.000000,4.000000,4.000000,4.000000,4.000000,4.000000,21.000000,0.000000,0.118330,-0.403809,0.788818,0.447998,0.543954,-0.606455,0.578134,13.875154,-48.975773,55.519573,,,,,,,,,,,,,,,,,,,,,,,,,
1577742877.336060,43.000000,0.000000,4038.461426,4183.077148,4038.974365,3981.538574,4037.435791,0.000000,4.000000,,,,0.000000,4.000000,4.000000,4.000000,4.000000,4.000000,,,,,,,,,,,,,3.432593,2.728272,6.782342,6.190540,3.309604,1.270360,1.702878,1.164810,2.461943,2.052580,1.428719,3.009677,3.124761,4.082750,2.855583,2.587839,3.284433,6.763166,6.849194,3.820207,4.491432,3.763842,7.747483,6.051838,3.294055
1577742877.343857,44.000000,0.000000,4009.230713,4171.282227,4009.230713,3930.769287,4002.051270,0.000000,4.000000,,,,0.000000,4.000000,4.000000,4.000000,4.000000,4.000000,22.000000,0.000000,0.118330,-0.403809,0.788818,0.447998,0.550301,-0.620127,0.573739,13.205422,-48.983055,55.949154,,,,,,,,,,,,,,,,,,,,,,,,,
1577742877.351553,45.000000,0.000000,4005.641113,4181.025879,3996.410156,3931.281982,3999.487061,0.000000,4.000000,,,,0.000000,4.000000,4.000000,4.000000,4.000000,4.000000,,,,,,,,,,,,,,,,,,,,,,,,,,,,,,,,,,,,,
1577742877.359350,46.000000,0.000000,4000.000000,4172.820313,3991.794922,3943.076904,4004.102539,0.000000,4.000000,,,,0.000000,4.000000,4.000000,4.000000,4.000000,4.000000,23.000000,0.000000,0.118330,-0.403809,0.788818,0.447998,0.537118,-0.603525,0.569833,15.533618,-48.929794,54.302052,,,,,,,,,,,,,,,,,,,,,,,,,
1577742877.367047,47.000000,0.000000,3996.410156,4173.846191,3999.487061,3930.769287,3998.974365,0.000000,4.000000,,,,0.000000,4.000000,4.000000,4.000000,4.000000,4.000000,,,,,,,,,,,,,,,,,,,,,,,,,,,,,,,,,,,,,
1577742877.374843,48.000000,0.000000,3970.256348,4155.897461,3990.769287,3898.974365,3963.076904,0.000000,4.000000,,,,0.000000,4.000000,4.000000,4.000000,4.000000,4.000000,24.000000,0.000000,0.119946,-0.403809,0.788574,0.447998,0.552254,-0.609873,0.562020,14.757855,-48.941677,54.973015,,,,,,,,,,,,,,,,,,,,,,,,,
1577742877.382540,49.000000,0.000000,3953.333252,4147.179688,3981.025635,3899.487061,3947.692383,0.000000,4.000000,,,,0.000000,4.000000,4.000000,4.000000,4.000000,4.000000,,,,,,,,,,,,,,,,,,,,,,,,,,,,,,,,,,,,,
1577742877.390336,50.000000,0.000000,3986.153809,4185.128418,4011.794922,3949.230713,3991.794922,0.000000,4.000000,,,,0.000000,4.000000,4.000000,4.000000,4.000000,4.000000,25.000000,0.000000,0.119031,-0.403809,0.788574,0.448242,0.556649,-0.598642,0.565927,16.870993,-48.952366,55.457249,,,,,,,,,,,,,,,,,,,,,,,,,
1577742877.398033,51.000000,0.000000,3987.692383,4185.128418,4015.897461,3947.179443,4001.538574,0.000000,4.000000,,,,0.000000,4.000000,4.000000,4.000000,4.000000,4.000000,,,,,,,,,,,,,,,,,,,,,,,,,,,,,,,,,,,,,
1577742877.405929,52.000000,0.000000,3928.205078,4132.820313,3962.564209,3876.923096,3934.871826,0.000000,4.000000,,,,0.000000,4.000000,4.000000,4.000000,4.000000,4.000000,26.000000,0.000000,0.119031,-0.403809,0.788574,0.448242,0.546883,-0.608408,0.579110,15.961493,-48.961990,55.713615,,,,,,,,,,,,,,,,,,,,,,,,,
1577742877.413726,53.000000,0.000000,3889.743652,4131.794922,3941.025635,3841.538574,3892.307617,0.000000,4.000000,,,,0.000000,4.000000,4.000000,4.000000,4.000000,4.000000,,,,,,,,,,,,,,,,,,,,,,,,,,,,,,,,,,,,,
1577742877.421622,54.000000,0.000000,3924.102539,4189.230957,3984.102539,3883.076904,3931.794922,0.000000,4.000000,,,,0.000000,4.000000,4.000000,4.000000,4.000000,4.000000,27.000000,0.000000,0.119031,-0.403809,0.788574,0.448242,0.548837,-0.605966,0.563485,15.023313,-48.970654,56.123791,,,,,,,,,,,,,,,,,,,,,,,,,
1577742877.429419,55.000000,0.000000,3979.487061,4203.589844,4021.538574,3929.743652,3984.102539,0.000000,4.000000,,,,0.000000,4.000000,4.000000,4.000000,4.000000,4.000000,,,,,,,,,,,,,,,,,,,,,,,,,,,,,,,,,,,,,
1577742877.437215,56.000000,0.000000,4008.718018,4190.256348,4036.410156,3942.051270,4011.281982,0.000000,4.000000,,,,0.000000,4.000000,4.000000,4.000000,4.000000,4.000000,28.000000,0.000000,0.119856,-0.403564,0.788574,0.448242,0.557137,-0.601572,0.570809,14.178950,-48.918633,56.373318,,,,,,,,,,,,,,,,,,,,,,,,,
1577742877.444912,57.000000,0.000000,4014.871826,4198.974121,4042.564209,3944.102539,4021.538574,0.000000,4.000000,,,,0.000000,4.000000,4.000000,4.000000,4.000000,4.000000,,,,,,,,,,,,,,,,,,,,,,,,,,,,,,,,,,,,,
1577742877.452808,58.000000,0.000000,4001.538574,4190.769043,4021.538574,3934.871826,4006.666748,0.000000,4.000000,,,,0.000000,4.000000,4.000000,4.000000,4.000000,4.000000,29.000000,0.000000,0.119856,-0.403564,0.788574,0.448242,0.549325,-0.623056,0.577157,16.469608,-48.991444,56.777336,,,,,,,,,,,,,,,,,,,,,,,,,
1577742877.460605,59.000000,0.000000,3983.589844,4162.563965,4001.025635,3922.051270,3992.307617,0.000000,4.000000,,,,0.000000,4.000000,4.000000,4.000000,4.000000,4.000000,,,,,,,,,,,,,3.912237,3.078007,5.747117,5.844637,3.666031,1.550059,1.203624,1.151029,2.274051,2.192576,1.661573,3.836297,3.059752,3.691780,3.112879,2.497140,3.510395,6.264214,6.281521,4.172358,4.833190,4.101922,7.126322,5.743864,3.628567
1577742877.468501,60.000000,0.000000,3972.820557,4160.512695,4003.589844,3913.846191,3981.538574,0.000000,4.000000,,,,0.000000,4.000000,4.000000,4.000000,4.000000,4.000000,30.000000,0.000000,0.118238,-0.403564,0.788818,0.448242,0.554696,-0.614267,0.569345,18.411570,-49.176605,56.961510,,,,,,,,,,,,,,,,,,,,,,,,,
1577742877.476298,61.000000,0.000000,3957.435791,4165.641113,3997.435791,3898.461426,3950.769287,0.000000,4.000000,,,,0.000000,4.000000,4.000000,4.000000,4.000000,4.000000,,,,,,,,,,,,,,,,,,,,,,,,,,,,,,,,,,,,,
1577742877.484194,62.000000,0.000000,3939.487061,4164.102539,3988.205078,3880.512939,3923.076904,0.000000,4.000000,,,,0.000000,4.000000,4.000000,4.000000,4.000000,4.000000,31.000000,0.000000,0.118238,-0.403564,0.788818,0.448242,0.545907,-0.609384,0.571298,17.467642,-49.223621,57.187080,,,,,,,,,,,,,,,,,,,,,,,,,
1577742877.491991,63.000000,0.000000,3960.512939,4182.051270,4010.256348,3898.974365,3949.230713,0.000000,4.000000,,,,0.000000,4.000000,4.000000,4.000000,4.000000,4.000000,,,,,,,,,,,,,,,,,,,,,,,,,,,,,,,,,,,,,
1577742877.499887,64.000000,0.000000,3991.281982,4193.846191,4033.846191,3930.769287,3986.666748,450.000000,4.000000,,,,0.000000,4.000000,4.000000,4.000000,4.000000,4.000000,32.000000,0.000000,0.117309,-0.403564,0.788818,0.448486,0.539559,-0.603525,0.566903,16.438663,-49.265934,57.390091,,,,,,,,,,,,,,,,,,,,,,,,,
1577742877.507684,65.000000,0.000000,3987.692383,4185.128418,4032.307617,3932.307617,3984.615479,450.000000,4.000000,,,,0.000000,4.000000,4.000000,4.000000,4.000000,4.000000,,,,,,,,,,,,,,,,,,,,,,,,,,,,,,,,,,,,,
1577742877.515580,66.000000,0.000000,3996.410156,4180.512695,4036.410156,3939.487061,3995.384521,16213.000000,4.000000,,,,0.000000,4.000000,4.000000,4.000000,4.000000,4.000000,33.000000,0.000000,0.118145,-0.403320,0.788818,0.448486,0.549325,-0.611337,0.575692,18.503349,-49.244202,55.718529,,,,,,,,,,,,,,,,,,,,,,,,,
1577742877.523377,67.000000,0.000000,4007.692383,4181.538574,4037.948730,3947.179443,4009.743652,450.000000,4.000000,,,,0.000000,4.000000,4.000000,4.000000,4.000000,4.000000,,,,,,,,,,,,,,,,,,,,,,,,,,,,,,,,,,,,,
1577742877.531173,68.000000,0.000000,3983.589844,4185.641113,4021.538574,3927.179443,3986.666748,16239.000000,4.000000,,,,0.000000,4.000000,4.000000,4.000000,4.000000,4.000000,34.000000,0.000000,0.118145,-0.403320,0.788818,0.448486,0.551278,-0.611826,0.556649,20.301752,-49.164825,54.273937,,,,,,,,,,,,,,,,,,,,,,,,,
1577742877.538870,69.000000,0.000000,3970.769287,4182.051270,4016.923096,3906.153809,3971.281982,450.000000,4.000000,,,,0.000000,4.000000,4.000000,4.000000,4.000000,4.000000,,,,,,,,,,,,,,,,,,,,,,,,,,,,,,,,,,,,,
1577742877.546666,70.000000,0.000000,4003.076904,4189.230957,4044.102539,3929.230713,4005.128174,16139.000000,4.000000,,,,0.000000,4.000000,4.000000,4.000000,4.000000,4.000000,35.000000,0.000000,0.118976,-0.403076,0.788818,0.448486,0.555184,-0.602060,0.547372,21.920313,-49.153202,53.093433,,,,,,,,,,,,,,,,,,,,,,,,,
1577742877.554362,71.000000,0.000000,4004.102539,4205.641113,4045.641113,3948.205078,4014.358887,450.000000,4.000000,,,,0.000000,4.000000,4.000000,4.000000,4.000000,4.000000,,,,,,,,,,,,,,,,,,,,,,,,,,,,,,,,,,,,,
1577742877.562059,72.000000,0.000000,3969.743652,4201.538574,4014.358887,3922.051270,3980.000000,450.000000,4.000000,,,,0.000000,4.000000,4.000000,4.000000,4.000000,4.000000,36.000000,0.000000,0.119672,-0.403076,0.788574,0.448730,0.536141,-0.615244,0.568856,16.737514,-49.142742,53.885258,,,,,,,,,,,,,,,,,,,,,,,,,
1577742877.569856,73.000000,0.000000,3965.641113,4180.512695,4005.128174,3902.564209,3969.230713,16203.000000,4.000000,,,,0.000000,4.000000,4.000000,4.000000,4.000000,4.000000,,,,,,,,,,,,,,,,,,,,,,,,,,,,,,,,,,,,,
1577742877.577552,74.000000,0.000000,3976.410156,4166.153809,4008.205078,3909.230713,3977.948730,450.000000,4.000000,,,,0.000000,4.000000,4.000000,4.000000,4.000000,4.000000,37.000000,0.000000,0.119672,-0.403076,0.788574,0.448730,0.542000,-0.602060,0.571786,18.652685,-49.133327,52.504360,,,,,,,,,,,,,,,,,,,,,,,,,
1577742877.585349,75.000000,0.000000,3993.333252,4165.128418,4020.512939,3932.820557,3998.461426,16221.000000,4.000000,,,,0.000000,4.000000,4.000000,4.000000,4.000000,4.000000,,,,,,,,,,,,,5.133453,4.255750,4.949818,5.567055,4.060584,1.824168,0.808675,1.258470,2.168692,2.382875,2.268312,4.641025,3.159018,3.418515,3.374826,2.637092,4.129868,6.010735,5.878455,4.636602,5.436344,5.112213,6.618366,5.628758,4.081475
1577742877.593045,76.000000,0.000000,4007.692383,4175.897461,4036.410156,3941.538574,4018.974365,450.000000,4.000000,,,,0.000000,4.000000,4.000000,4.000000,4.000000,4.000000,38.000000,0.000000,0.119672,-0.403076,0.788574,0.448730,0.551766,-0.612314,0.562997,17.505201,-49.184669,53.175648,,,,,,,,,,,,,,,,,,,,,,,,,
1577742877.600942,77.000000,0.000000,4007.692383,4193.846191,4026.666748,3931.794922,4023.076904,450.000000,4.000000,,,,0.000000,4.000000,4.000000,4.000000,4.000000,4.000000,,,,,,,,,,,,,,,,,,,,,,,,,,,,,,,,,,,,,
1577742877.608738,78.000000,0.000000,3985.641113,4172.820313,4001.538574,3922.564209,4002.564209,450.000000,4.000000,,,,0.000000,4.000000,4.000000,4.000000,4.000000,4.000000,39.000000,0.000000,0.118752,-0.403076,0.788574,0.448975,0.543954,-0.616709,0.563485,19.343603,-49.171062,53.779804,,,,,,,,,,,,,,,,,,,,,,,,,
1577742877.616535,79.000000,0.000000,3957.948730,4138.461426,3995.384521,3905.641113,3974.358887,16221.000000,4.000000,,,,0.000000,4.000000,4.000000,4.000000,4.000000,4.000000,,,,,,,,,,,,,,,,,,,,,,,,,,,,,,,,,,,,,
1577742877.624231,80.000000,0.000000,3972.820557,4167.179688,4017.435791,3906.666748,3983.589844,450.000000,4.000000,,,,0.000000,4.000000,4.000000,4.000000,4.000000,4.000000,40.000000,0.000000,0.118752,-0.403076,0.788574,0.448975,0.544442,-0.618173,0.560555,18.186842,-49.158817,54.383358,,,,,,,,,,,,,,,,,,,,,,,,,
1577742877.632128,81.000000,0.000000,3999.487061,4199.487305,4029.230713,3922.051270,4007.179443,450.000000,4.000000,,,,0.000000,4.000000,4.000000,4.000000,4.000000,4.000000,,,,,,,,,,,,,,,,,,,,,,,,,,,,,,,,,,,,,
1577742877.639924,82.000000,0.000000,4002.564209,4178.974121,4028.718018,3933.846191,4016.410156,450.000000,4.000000,,,,0.000000,4.000000,4.000000,4.000000,4.000000,4.000000,41.000000,0.000000,0.119672,-0.403076,0.788574,0.448730,0.551766,-0.612314,0.562997,12.440413,-49.018246,53.501350,,,,,,,,,,,,,,,,,,,,,,,,,
1577742877.647821,83.000000,0.000000,3991.281982,4158.974121,4016.410156,3929.743652,4006.153809,16221.000000,4.000000,,,,0.000000,4.000000,4.000000,4.000000,4.000000,4.000000,,,,,,,,,,,,,,,,,,,,,,,,,,,,,,,,,,,,,
1577742877.655717,84.000000,0.000000,3988.205078,4167.179688,4000.000000,3901.538574,3994.871826,450.000000,4.000000,,,,0.000000,4.000000,4.000000,4.000000,4.000000,4.000000,42.000000,0.000000,0.118752,-0.403076,0.788574,0.448975,0.544442,-0.618173,0.560555,11.973972,-49.021282,54.132751,,,,,,,,,,,,,,,,,,,,,,,,,
1577742877.663514,85.000000,0.000000,4022.051270,4176.410156,4028.205078,3915.897461,4029.743652,450.000000,4.000000,,,,0.000000,4.000000,4.000000,4.000000,4.000000,4.000000,,,,,,,,,,,,,,,,,,,,,,,,,,,,,,,,,,,,,
1577742877.671410,86.000000,0.000000,4061.538574,4179.487305,4069.230713,3977.948730,4076.410156,450.000000,4.000000,,,,0.000000,4.000000,4.000000,4.000000,4.000000,4.000000,43.000000,0.000000,0.119578,-0.402832,0.788574,0.448975,0.546395,-0.617197,0.573251,7.785806,-48.904381,54.820644,,,,,,,,,,,,,,,,,,,,,,,,,
1577742877.679207,87.000000,0.000000,4047.179443,4167.179688,4050.769287,3983.076904,4062.564209,16221.000000,4.000000,,,,0.000000,4.000000,4.000000,4.000000,4.000000,4.000000,,,,,,,,,,,,,,,,,,,,,,,,,,,,,,,,,,,,,
1577742877.687103,88.000000,0.000000,4007.692383,4149.230957,4012.307617,3937.948730,4025.128174,450.000000,4.000000,,,,0.000000,4.000000,4.000000,4.000000,4.000000,4.000000,44.000000,0.000000,0.118657,-0.402832,0.788574,0.449219,0.549813,-0.615244,0.561532,10.596148,-48.918804,53.346207,,,,,,,,,,,,,,,,,,,,,,,,,
1577742877.694900,89.000000,0.000000,3998.974365,4150.769043,4011.281982,3928.205078,4024.102539,450.000000,4.000000,,,,0.000000,4.000000,4.000000,4.000000,4.000000,4.000000,,,,,,,,,,,,,,,,,,,,,,,,,,,,,,,,,,,,,
1577742877.702796,90.000000,0.000000,4018.974365,4162.051270,4027.179443,3956.410156,4045.128174,450.000000,4.000000,,,,0.000000,4.000000,4.000000,4.000000,4.000000,4.000000,45.000000,0.000000,0.118657,-0.402832,0.788574,0.449219,0.542977,-0.612314,0.557137,10.194502,-48.991600,53.873493,,,,,,,,,,,,,,,,,,,,,,,,,
1577742877.710593,91.000000,0.000000,4021.538574,4155.384766,4021.538574,3960.512939,4041.538574,16221.000000,4.000000,,,,0.000000,4.000000,4.000000,4.000000,4.000000,4.000000,,,,,,,,,,,,,6.922194,6.000979,4.355856,5.518422,4.418375,2.045318,0.604941,1.373587,2.245987,2.618032,3.247380,5.205633,3.340845,3.363931,3.580929,3.109106,4.897519,5.861643,5.855006,5.115055,6.337869,6.487124,6.130115,5.812545,4.580242
1577742877.718489,92.000000,0.000000,3976.923096,4133.846191,3986.666748,3911.281982,3993.846191,450.000000,4.000000,,,,0.000000,4.000000,4.000000,4.000000,4.000000,4.000000,46.000000,0.000000,0.118657,-0.402832,0.788574,0.449219,0.541512,-0.610361,0.558602,12.823789,-48.997299,54.647125,,,,,,,,,,,,,,,,,,,,,,,,,
1577742877.726286,93.000000,0.000000,3936.923096,4138.974121,3969.743652,3868.205078,3955.897461,450.000000,4.000000,,,,0.000000,4.000000,4.000000,4.000000,4.000000,4.000000,,,,,,,,,,,,,,,,,,,,,,,,,,,,,,,,,,,,,
1577742877.734182,94.000000,0.000000,3975.897461,4169.743652,4016.923096,3906.153809,3994.871826,450.000000,4.000000,,,,0.000000,4.000000,4.000000,4.000000,4.000000,4.000000,47.000000,0.000000,0.118657,-0.402832,0.788574,0.449219,0.544930,-0.611826,0.574716,12.378825,-49.181873,55.104134,,,,,,,,,,,,,,,,,,,,,,,,,
1577742877.741978,95.000000,0.000000,4048.718018,4177.436035,4074.358887,3967.179443,4064.615479,16221.000000,4.000000,,,,0.000000,4.000000,4.000000,4.000000,4.000000,4.000000,,,,,,,,,,,,,,,,,,,,,,,,,,,,,,,,,,,,,
1577742877.749875,96.000000,0.000000,4040.000000,4163.077148,4058.974365,3945.641113,4050.256348,450.000000,4.000000,,,,0.000000,4.000000,4.000000,4.000000,4.000000,4.000000,48.000000,0.000000,0.118657,-0.402832,0.788574,0.449219,0.552254,-0.625498,0.565438,11.918543,-49.228363,53.661167,,,,,,,,,,,,,,,,,,,,,,,,,
1577742877.757671,97.000000,0.000000,3991.794922,4167.692383,4018.461426,3904.615479,3997.948730,450.000000,4.000000,,,,0.000000,4.000000,4.000000,4.000000,4.000000,4.000000,,,,,,,,,,,,,,,,,,,,,,,,,,,,,,,,,,,,,
1577742877.765568,98.000000,0.000000,4015.897461,4187.692383,4029.230713,3934.871826,4024.102539,450.000000,4.000000,,,,0.000000,4.000000,4.000000,4.000000,4.000000,4.000000,49.000000,0.000000,0.118657,-0.402832,0.788574,0.449219,0.538582,-0.615732,0.575692,7.735920,-49.270203,54.216770,,,,,,,,,,,,,,,,,,,,,,,,,
1577742877.773364,99.000000,0.000000,4072.820557,4195.384766,4063.589844,3980.512939,4082.564209,16221.000000,4.000000,,,,0.000000,4.000000,4.000000,4.000000,4.000000,4.000000,,,,,,,,,,,,,,,,,,,,,,,,,,,,,,,,,,,,,
1577742877.781261,100.000000,0.000000,4083.076904,4195.384766,4076.410156,3983.589844,4088.718018,450.000000,4.000000,,,,0.000000,4.000000,4.000000,4.000000,4.000000,4.000000,50.000000,0.000000,0.118657,-0.402832,0.788574,0.449219,0.544930,-0.626963,0.561044,7.799743,-49.367672,52.982170,,,,,,,,,,,,,,,,,,,,,,,,,
1577742877.789057,101.000000,0.000000,4046.153809,4167.179688,4050.256348,3951.281982,4049.230713,450.000000,4.000000,,,,0.000000,4.000000,4.000000,4.000000,4.000000,4.000000,,,,,,,,,,,,,,,,,,,,,,,,,,,,,,,,,,,,,
1577742877.796954,102.000000,0.000000,4004.102539,4135.897461,4011.794922,3906.153809,4008.205078,450.000000,4.000000,,,,0.000000,4.000000,4.000000,4.000000,4.000000,4.000000,51.000000,0.000000,0.117023,-0.402832,0.788818,0.449219,0.552254,-0.609384,0.572763,6.900138,-49.395580,53.605675,,,,,,,,,,,,,,,,,,,,,,,,,
