title:sc2, start timestamp:2019-12-27T07:30:48.671047+03:00, stop timestamp:2019-12-27T07:31:19.240818+03:00, headset type:INSIGHT, headset serial:A2D200FB, headset firmware:930, subject name:Qasim, channels:44, sampling rate:eeg_128;pow_8, samples:3924      , version:2.0
Timestamp,EEG.Counter,EEG.Interpolated,EEG.AF3,EEG.T7,EEG.Pz,EEG.T8,EEG.AF4,EEG.RawCq,EEG.Battery,MarkerIndex,MarkerType,MarkerValueInt,EEG.MarkerHardware,CQ.AF3,CQ.T7,CQ.Pz,CQ.T8,CQ.AF4,POW.AF3.Theta,POW.AF3.Alpha,POW.AF3.BetaL,POW.AF3.BetaH,POW.AF3.Gamma,POW.T7.Theta,POW.T7.Alpha,POW.T7.BetaL,POW.T7.BetaH,POW.T7.Gamma,POW.Pz.Theta,POW.Pz.Alpha,POW.Pz.BetaL,POW.Pz.BetaH,POW.Pz.Gamma,POW.T8.Theta,POW.T8.Alpha,POW.T8.BetaL,POW.T8.BetaH,POW.T8.Gamma,POW.AF4.Theta,POW.AF4.Alpha,POW.AF4.BetaL,POW.AF4.BetaH,POW.AF4.Gamma
1577421048.671047,44.000000,0.000000,4193.846191,4186.666504,4156.922852,4178.974121,4201.025879,0.000000,4.000000,,,,0.000000,4.000000,4.000000,4.000000,4.000000,4.000000,,,,,,,,,,,,,,,,,,,,,,,,,
1577421048.678744,45.000000,0.000000,4223.589844,4200.512695,4171.282227,4186.153809,4218.461426,0.000000,4.000000,,,,0.000000,4.000000,4.000000,4.000000,4.000000,4.000000,,,,,,,,,,,,,,,,,,,,,,,,,
1577421048.686541,46.000000,0.000000,4194.358887,4176.410156,4146.153809,4149.230957,4196.410156,0.000000,4.000000,,,,0.000000,4.000000,4.000000,4.000000,4.000000,4.000000,,,,,,,,,,,,,,,,,,,,,,,,,
1577421048.694238,47.000000,0.000000,4169.230957,4149.743652,4120.000000,4146.153809,4183.589844,0.000000,4.000000,,,,0.000000,4.000000,4.000000,4.000000,4.000000,4.000000,,,,,,,,,,,,,,,,,,,,,,,,,
1577421048.702035,48.000000,0.000000,4177.948730,4160.000000,4132.820313,4161.025879,4187.692383,0.000000,4.000000,,,,0.000000,4.000000,4.000000,4.000000,4.000000,4.000000,,,,,,,,,,,,,,,,,,,,,,,,,
1577421048.709733,49.000000,0.000000,4168.205078,4168.717773,4128.205078,4151.282227,4181.538574,0.000000,4.000000,,,,0.000000,4.000000,4.000000,4.000000,4.000000,4.000000,,,,,,,,,,,,,,,,,,,,,,,,,
1577421048.717630,50.000000,0.000000,4171.794922,4169.743652,4105.641113,4133.333496,4187.692383,0.000000,4.000000,,,,0.000000,4.000000,4.000000,4.000000,4.000000,4.000000,,,,,,,,,,,,,,,,,,,,,,,,,
1577421048.725427,51.000000,0.000000,4184.615234,4181.025879,4095.897461,4118.974121,4193.333496,0.000000,4.000000,,,,0.000000,4.000000,4.000000,4.000000,4.000000,4.000000,,,,,,,,,,,,,,,,,,,,,,,,,
1577421048.733324,52.000000,0.000000,4177.436035,4206.666504,4110.769043,4123.589844,4180.512695,0.000000,4.000000,,,,0.000000,4.000000,4.000000,4.000000,4.000000,4.000000,,,,,,,,,,,,,,,,,,,,,,,,,
1577421048.741221,53.000000,0.000000,4152.820313,4232.820313,4105.128418,4117.948730,4150.769043,0.000000,4.000000,,,,0.000000,4.000000,4.000000,4.000000,4.000000,4.000000,,,,,,,,,,,,,,,,,,,,,,,,,
1577421048.749018,54.000000,0.000000,4121.538574,4270.256348,4050.256348,4109.230957,4135.384766,0.000000,4.000000,,,,0.000000,4.000000,4.000000,4.000000,4.000000,4.000000,,,,,,,,,,,,,,,,,,,,,,,,,
1577421048.756816,55.000000,0.000000,4203.589844,4408.717773,4107.692383,4184.615234,4228.205078,0.000000,4.000000,,,,0.000000,4.000000,4.000000,4.000000,4.000000,4.000000,,,,,,,,,,,,,,,,,,,,,,,,,
1577421048.764713,56.000000,0.000000,4226.666504,4453.333496,4153.333496,4149.743652,4220.000000,0.000000,4.000000,,,,0.000000,4.000000,4.000000,4.000000,4.000000,4.000000,,,,,,,,,,,,,,,,,,,,,,,,,
1577421048.772510,57.000000,0.000000,4020.000000,4305.128418,4034.358887,4059.487061,4066.666748,0.000000,4.000000,,,,0.000000,4.000000,4.000000,4.000000,4.000000,4.000000,6.334202,10.707932,1.973211,2.995135,1.848842,191.494751,8.372659,3.921754,4.048829,1.581277,81.592194,4.211537,3.085248,2.028203,0.864285,7.422571,7.868026,1.867601,2.459728,1.807749,6.825692,10.275061,1.578592,2.720156,1.600212
1577421048.780207,58.000000,0.000000,4315.384766,4613.846191,4376.922852,4283.077148,4344.615234,0.000000,4.000000,,,,0.000000,4.000000,4.000000,4.000000,4.000000,4.000000,,,,,,,,,,,,,,,,,,,,,,,,,
1577421048.788004,59.000000,0.000000,4310.256348,4615.897461,4403.077148,4023.076904,4215.384766,0.000000,4.000000,,,,0.000000,4.000000,4.000000,4.000000,4.000000,4.000000,,,,,,,,,,,,,,,,,,,,,,,,,
1577421048.795701,60.000000,0.000000,3802.564209,4222.563965,3986.153809,3894.358887,3880.512939,0.000000,4.000000,,,,0.000000,4.000000,4.000000,4.000000,4.000000,4.000000,,,,,,,,,,,,,,,,,,,,,,,,,
1577421048.803498,61.000000,0.000000,4188.205078,4604.615234,4378.461426,4418.974121,4313.333496,0.000000,4.000000,,,,0.000000,4.000000,4.000000,4.000000,4.000000,4.000000,,,,,,,,,,,,,,,,,,,,,,,,,
1577421048.811195,62.000000,0.000000,4234.358887,4644.615234,4430.256348,4121.025879,4160.000000,0.000000,4.000000,,,,0.000000,4.000000,4.000000,4.000000,4.000000,4.000000,,,,,,,,,,,,,,,,,,,,,,,,,
1577421048.818992,63.000000,0.000000,3904.615479,4401.025879,4133.333496,3913.846191,3897.948730,0.000000,4.000000,,,,0.000000,4.000000,4.000000,4.000000,4.000000,4.000000,,,,,,,,,,,,,,,,,,,,,,,,,
1577421048.826690,64.000000,0.000000,4136.922852,4610.769043,4310.256348,4201.538574,4165.128418,450.000000,4.000000,,,,0.000000,4.000000,4.000000,4.000000,4.000000,4.000000,,,,,,,,,,,,,,,,,,,,,,,,,
1577421048.834487,65.000000,0.000000,4124.102539,4591.794922,4257.948730,4095.384521,4091.794922,450.000000,4.000000,,,,0.000000,4.000000,4.000000,4.000000,4.000000,4.000000,,,,,,,,,,,,,,,,,,,,,,,,,
1577421048.842184,66.000000,0.000000,4101.538574,4582.051270,4215.897461,4120.512695,4099.487305,16166.000000,4.000000,,,,0.000000,4.000000,4.000000,4.000000,4.000000,4.000000,,,,,,,,,,,,,,,,,,,,,,,,,
1577421048.850081,67.000000,0.000000,4140.512695,4600.000000,4225.641113,4134.871582,4133.846191,450.000000,4.000000,,,,0.000000,4.000000,4.000000,4.000000,4.000000,4.000000,,,,,,,,,,,,,,,,,,,,,,,,,
1577421048.857878,68.000000,0.000000,4108.205078,4574.871582,4167.179688,4095.897461,4092.820557,16157.000000,4.000000,,,,0.000000,4.000000,4.000000,4.000000,4.000000,4.000000,,,,,,,,,,,,,,,,,,,,,,,,,
1577421048.865675,69.000000,0.000000,4136.922852,4598.461426,4167.179688,4132.307617,4121.538574,450.000000,4.000000,,,,0.000000,4.000000,4.000000,4.000000,4.000000,4.000000,,,,,,,,,,,,,,,,,,,,,,,,,
1577421048.873372,70.000000,0.000000,4140.512695,4581.025879,4153.333496,4130.256348,4123.589844,16088.000000,4.000000,,,,0.000000,4.000000,4.000000,4.000000,4.000000,4.000000,,,,,,,,,,,,,,,,,,,,,,,,,
1577421048.881270,71.000000,0.000000,4161.025879,4592.820313,4163.077148,4138.461426,4141.025879,450.000000,4.000000,,,,0.000000,4.000000,4.000000,4.000000,4.000000,4.000000,,,,,,,,,,,,,,,,,,,,,,,,,
1577421048.889067,72.000000,0.000000,4165.128418,4601.025879,4168.205078,4130.256348,4138.461426,450.000000,4.000000,,,,0.000000,4.000000,4.000000,4.000000,4.000000,4.000000,,,,,,,,,,,,,,,,,,,,,,,,,
1577421048.896964,73.000000,0.000000,4158.461426,4584.615234,4165.641113,4126.666504,4133.846191,16120.000000,4.000000,,,,0.000000,4.000000,4.000000,4.000000,4.000000,4.000000,6.343122,9.640911,1.646182,2.803990,1.880502,157.046906,5.395022,2.942730,3.764431,1.558563,75.736687,3.984671,3.338558,1.822281,0.798697,7.268887,6.351496,1.899054,2.372744,1.775740,9.107891,8.487095,1.436717,2.788390,1.577528
1577421048.904761,74.000000,0.000000,4150.256348,4562.563965,4157.436035,4120.512695,4129.230957,450.000000,4.000000,,,,0.000000,4.000000,4.000000,4.000000,4.000000,4.000000,,,,,,,,,,,,,,,,,,,,,,,,,
1577421048.912658,75.000000,0.000000,4123.077148,4548.205078,4140.000000,4100.000000,4103.077148,16179.000000,4.000000,,,,0.000000,4.000000,4.000000,4.000000,4.000000,4.000000,,,,,,,,,,,,,,,,,,,,,,,,,
1577421048.920456,76.000000,0.000000,4123.077148,4557.436035,4156.410156,4096.410156,4100.512695,450.000000,4.000000,,,,0.000000,4.000000,4.000000,4.000000,4.000000,4.000000,,,,,,,,,,,,,,,,,,,,,,,,,
1577421048.928353,77.000000,0.000000,4158.461426,4574.871582,4207.179688,4121.538574,4136.922852,450.000000,4.000000,,,,0.000000,4.000000,4.000000,4.000000,4.000000,4.000000,,,,,,,,,,,,,,,,,,,,,,,,,
1577421048.936150,78.000000,0.000000,4175.384766,4586.153809,4245.641113,4142.051270,4154.871582,450.000000,4.000000,,,,0.000000,4.000000,4.000000,4.000000,4.000000,4.000000,,,,,,,,,,,,,,,,,,,,,,,,,
1577421048.944047,79.000000,0.000000,4171.282227,4587.692383,4264.102539,4135.384766,4146.153809,16179.000000,4.000000,,,,0.000000,4.000000,4.000000,4.000000,4.000000,4.000000,,,,,,,,,,,,,,,,,,,,,,,,,
1577421048.951844,80.000000,0.000000,4166.666504,4575.897461,4279.487305,4116.410156,4143.077148,450.000000,4.000000,,,,0.000000,4.000000,4.000000,4.000000,4.000000,4.000000,,,,,,,,,,,,,,,,,,,,,,,,,
1577421048.959642,81.000000,0.000000,4163.589844,4564.615234,4290.769043,4125.128418,4150.769043,450.000000,4.000000,,,,0.000000,4.000000,4.000000,4.000000,4.000000,4.000000,,,,,,,,,,,,,,,,,,,,,,,,,
1577421048.967439,82.000000,0.000000,4173.333496,4569.230957,4298.974121,4160.000000,4156.410156,450.000000,4.000000,,,,0.000000,4.000000,4.000000,4.000000,4.000000,4.000000,,,,,,,,,,,,,,,,,,,,,,,,,
1577421048.975236,83.000000,0.000000,4182.563965,4578.461426,4292.307617,4162.563965,4157.948730,16179.000000,4.000000,,,,0.000000,4.000000,4.000000,4.000000,4.000000,4.000000,,,,,,,,,,,,,,,,,,,,,,,,,
1577421048.982933,84.000000,0.000000,4173.333496,4577.436035,4264.102539,4137.948730,4153.846191,450.000000,4.000000,,,,0.000000,4.000000,4.000000,4.000000,4.000000,4.000000,,,,,,,,,,,,,,,,,,,,,,,,,
1577421048.990730,85.000000,0.000000,4162.563965,4563.077148,4239.487305,4130.769043,4144.615234,450.000000,4.000000,,,,0.000000,4.000000,4.000000,4.000000,4.000000,4.000000,,,,,,,,,,,,,,,,,,,,,,,,,
1577421048.998427,86.000000,0.000000,4175.897461,4551.794922,4234.871582,4140.000000,4151.282227,450.000000,4.000000,,,,0.000000,4.000000,4.000000,4.000000,4.000000,4.000000,,,,,,,,,,,,,,,,,,,,,,,,,
1577421049.006124,87.000000,0.000000,4186.153809,4556.410156,4227.179688,4145.641113,4154.358887,16179.000000,4.000000,,,,0.000000,4.000000,4.000000,4.000000,4.000000,4.000000,,,,,,,,,,,,,,,,,,,,,,,,,
1577421049.013921,88.000000,0.000000,4175.384766,4556.410156,4209.230957,4132.820313,4136.922852,450.000000,4.000000,,,,0.000000,4.000000,4.000000,4.000000,4.000000,4.000000,,,,,,,,,,,,,,,,,,,,,,,,,
1577421049.021618,89.000000,0.000000,4177.436035,4544.102539,4209.230957,4120.512695,4137.436035,450.000000,4.000000,,,,0.000000,4.000000,4.000000,4.000000,4.000000,4.000000,6.644070,9.085091,1.522815,2.625779,2.351974,111.548882,3.468143,2.187810,3.308432,1.831541,64.635078,4.168978,3.702542,1.632192,1.215147,6.757074,4.856780,1.962602,2.309468,2.133490,11.532192,7.114925,1.386021,2.799770,1.912014
1577421049.029415,90.000000,0.000000,4180.512695,4537.436035,4204.102539,4120.000000,4138.974121,450.000000,4.000000,,,,0.000000,4.000000,4.000000,4.000000,4.000000,4.000000,,,,,,,,,,,,,,,,,,,,,,,,,
1577421049.037113,91.000000,0.000000,4163.589844,4534.358887,4182.051270,4122.051270,4123.589844,16179.000000,4.000000,,,,0.000000,4.000000,4.000000,4.000000,4.000000,4.000000,,,,,,,,,,,,,,,,,,,,,,,,,
1577421049.045010,92.000000,0.000000,4186.153809,4544.102539,4194.871582,4132.820313,4147.179688,450.000000,4.000000,,,,0.000000,4.000000,4.000000,4.000000,4.000000,4.000000,,,,,,,,,,,,,,,,,,,,,,,,,
1577421049.052807,93.000000,0.000000,4221.025879,4552.307617,4208.717773,4143.589844,4183.077148,450.000000,4.000000,,,,0.000000,4.000000,4.000000,4.000000,4.000000,4.000000,,,,,,,,,,,,,,,,,,,,,,,,,
1577421049.060704,94.000000,0.000000,4206.153809,4534.871582,4176.410156,4144.615234,4169.743652,450.000000,4.000000,,,,0.000000,4.000000,4.000000,4.000000,4.000000,4.000000,,,,,,,,,,,,,,,,,,,,,,,,,
1577421049.068501,95.000000,0.000000,4186.153809,4514.871582,4157.948730,4137.948730,4151.794922,16179.000000,4.000000,,,,0.000000,4.000000,4.000000,4.000000,4.000000,4.000000,,,,,,,,,,,,,,,,,,,,,,,,,
1577421049.076398,96.000000,0.000000,4212.307617,4516.410156,4185.128418,4140.512695,4180.512695,450.000000,4.000000,,,,0.000000,4.000000,4.000000,4.000000,4.000000,4.000000,,,,,,,,,,,,,,,,,,,,,,,,,
1577421049.084196,97.000000,0.000000,4235.384766,4506.666504,4194.871582,4156.410156,4200.000000,450.000000,4.000000,,,,0.000000,4.000000,4.000000,4.000000,4.000000,4.000000,,,,,,,,,,,,,,,,,,,,,,,,,
1577421049.091993,98.000000,0.000000,4209.743652,4471.794922,4169.230957,4158.461426,4172.820313,450.000000,4.000000,,,,0.000000,4.000000,4.000000,4.000000,4.000000,4.000000,,,,,,,,,,,,,,,,,,,,,,,,,
1577421049.099690,99.000000,0.000000,4199.487305,4473.333496,4164.615234,4154.871582,4170.769043,16179.000000,4.000000,,,,0.000000,4.000000,4.000000,4.000000,4.000000,4.000000,,,,,,,,,,,,,,,,,,,,,,,,,
1577421049.107587,100.000000,0.000000,4228.205078,4494.358887,4162.563965,4152.307617,4194.871582,450.000000,4.000000,,,,0.000000,4.000000,4.000000,4.000000,4.000000,4.000000,,,,,,,,,,,,,,,,,,,,,,,,,
1577421049.115384,101.000000,0.000000,4224.615234,4477.948730,4141.538574,4150.769043,4185.641113,450.000000,4.000000,,,,0.000000,4.000000,4.000000,4.000000,4.000000,4.000000,,,,,,,,,,,,,,,,,,,,,,,,,
1577421049.123282,102.000000,0.000000,4187.179688,4445.128418,4123.077148,4145.641113,4158.461426,450.000000,4.000000,,,,0.000000,4.000000,4.000000,4.000000,4.000000,4.000000,,,,,,,,,,,,,,,,,,,,,,,,,
1577421049.131079,103.000000,0.000000,4175.384766,4428.717773,4097.436035,4126.666504,4153.846191,16179.000000,4.000000,,,,0.000000,4.000000,4.000000,4.000000,4.000000,4.000000,,,,,,,,,,,,,,,,,,,,,,,,,
1577421049.138976,104.000000,0.000000,4204.615234,4426.666504,4077.435791,4126.153809,4179.487305,450.000000,4.000000,,,,0.000000,4.000000,4.000000,4.000000,4.000000,4.000000,,,,,,,,,,,,,,,,,,,,,,,,,
1577421049.146773,105.000000,0.000000,4221.025879,4422.563965,4074.871826,4130.256348,4198.974121,450.000000,4.000000,,,,0.000000,4.000000,4.000000,4.000000,4.000000,4.000000,7.058068,9.039699,1.622859,2.541702,4.389216,72.182236,3.054721,1.865022,2.845995,3.295379,54.780548,5.177704,3.817506,1.556939,3.060912,5.966119,3.668958,1.986735,2.399877,3.958976,13.326702,6.382041,1.399228,2.760930,3.482178
1577421049.154670,106.000000,0.000000,4234.358887,4413.333496,4074.871826,4130.769043,4212.307617,450.000000,4.000000,,,,0.000000,4.000000,4.000000,4.000000,4.000000,4.000000,,,,,,,,,,,,,,,,,,,,,,,,,
1577421049.162468,107.000000,0.000000,4268.205078,4421.025879,4084.102539,4157.436035,4240.512695,16179.000000,4.000000,,,,0.000000,4.000000,4.000000,4.000000,4.000000,4.000000,,,,,,,,,,,,,,,,,,,,,,,,,
1577421049.170165,108.000000,0.000000,4259.487305,4418.974121,4081.025635,4168.717773,4233.333496,450.000000,4.000000,,,,0.000000,4.000000,4.000000,4.000000,4.000000,4.000000,,,,,,,,,,,,,,,,,,,,,,,,,
1577421049.178062,109.000000,0.000000,4229.743652,4386.153809,4062.051270,4142.563965,4207.692383,450.000000,4.000000,,,,0.000000,4.000000,4.000000,4.000000,4.000000,4.000000,,,,,,,,,,,,,,,,,,,,,,,,,
1577421049.185859,110.000000,0.000000,4245.128418,4374.358887,4065.128174,4139.487305,4216.922852,450.000000,4.000000,,,,0.000000,4.000000,4.000000,4.000000,4.000000,4.000000,,,,,,,,,,,,,,,,,,,,,,,,,
1577421049.193756,111.000000,0.000000,4272.820313,4395.897461,4083.076904,4171.282227,4241.538574,16179.000000,4.000000,,,,0.000000,4.000000,4.000000,4.000000,4.000000,4.000000,,,,,,,,,,,,,,,,,,,,,,,,,
1577421049.201553,112.000000,0.000000,4276.922852,4396.922852,4088.205078,4180.000000,4255.384766,450.000000,4.000000,,,,0.000000,4.000000,4.000000,4.000000,4.000000,4.000000,,,,,,,,,,,,,,,,,,,,,,,,,
1577421049.209351,113.000000,0.000000,4271.794922,4369.230957,4087.692383,4164.615234,4254.358887,450.000000,4.000000,,,,0.000000,4.000000,4.000000,4.000000,4.000000,4.000000,,,,,,,,,,,,,,,,,,,,,,,,,
1577421049.217048,114.000000,0.000000,4276.410156,4349.230957,4094.871826,4176.922852,4260.512695,450.000000,4.000000,,,,0.000000,4.000000,4.000000,4.000000,4.000000,4.000000,,,,,,,,,,,,,,,,,,,,,,,,,
1577421049.224845,115.000000,0.000000,4260.000000,4328.717773,4080.512939,4168.205078,4248.205078,16179.000000,4.000000,,,,0.000000,4.000000,4.000000,4.000000,4.000000,4.000000,,,,,,,,,,,,,,,,,,,,,,,,,
1577421049.232542,116.000000,0.000000,4206.153809,4294.871582,4033.333252,4101.025879,4195.897461,450.000000,4.000000,,,,0.000000,4.000000,4.000000,4.000000,4.000000,4.000000,,,,,,,,,,,,,,,,,,,,,,,,,
1577421049.240339,117.000000,0.000000,4225.641113,4312.307617,4047.692383,4127.179688,4216.922852,450.000000,4.000000,,,,0.000000,4.000000,4.000000,4.000000,4.000000,4.000000,,,,,,,,,,,,,,,,,,,,,,,,,
1577421049.248036,118.000000,0.000000,4314.871582,4356.922852,4111.282227,4238.974121,4308.205078,450.000000,4.000000,,,,0.000000,4.000000,4.000000,4.000000,4.000000,4.000000,,,,,,,,,,,,,,,,,,,,,,,,,
1577421049.255833,119.000000,0.000000,4312.820313,4337.948730,4090.769287,4226.666504,4304.102539,16179.000000,4.000000,,,,0.000000,4.000000,4.000000,4.000000,4.000000,4.000000,,,,,,,,,,,,,,,,,,,,,,,,,
1577421049.263530,120.000000,0.000000,4240.512695,4290.256348,4018.461426,4140.000000,4229.230957,450.000000,4.000000,,,,0.000000,4.000000,4.000000,4.000000,4.000000,4.000000,,,,,,,,,,,,,,,,,,,,,,,,,
1577421049.271327,121.000000,0.000000,4227.179688,4282.563965,4003.589844,4138.461426,4216.922852,450.000000,4.000000,,,,0.000000,4.000000,4.000000,4.000000,4.000000,4.000000,7.660328,9.405477,1.960763,2.643063,8.989647,51.052170,4.121521,2.006336,2.527010,6.731531,53.610615,7.149561,3.592048,1.676867,7.146598,5.081697,2.994147,1.935957,2.764927,8.228805,14.320210,6.378974,1.488792,2.724000,7.071599
1577421049.279024,122.000000,0.000000,4244.102539,4292.820313,4018.461426,4164.102539,4233.333496,450.000000,4.000000,,,,0.000000,4.000000,4.000000,4.000000,4.000000,4.000000,,,,,,,,,,,,,,,,,,,,,,,,,
1577421049.286821,123.000000,0.000000,4240.000000,4293.846191,4022.051270,4164.615234,4225.641113,16179.000000,4.000000,,,,0.000000,4.000000,4.000000,4.000000,4.000000,4.000000,,,,,,,,,,,,,,,,,,,,,,,,,
1577421049.294518,124.000000,0.000000,4233.846191,4298.974121,4026.153809,4168.205078,4220.512695,450.000000,4.000000,,,,0.000000,4.000000,4.000000,4.000000,4.000000,4.000000,,,,,,,,,,,,,,,,,,,,,,,,,
1577421049.302415,125.000000,0.000000,4236.410156,4298.974121,4031.281982,4157.948730,4224.615234,450.000000,4.000000,,,,0.000000,4.000000,4.000000,4.000000,4.000000,4.000000,,,,,,,,,,,,,,,,,,,,,,,,,
1577421049.310213,126.000000,0.000000,4243.589844,4285.128418,4034.871826,4155.897461,4228.205078,450.000000,4.000000,,,,0.000000,4.000000,4.000000,4.000000,4.000000,4.000000,,,,,,,,,,,,,,,,,,,,,,,,,
1577421049.318110,127.000000,0.000000,4243.077148,4284.615234,4035.897461,4171.794922,4228.205078,235.000000,4.000000,,,,0.000000,4.000000,4.000000,4.000000,4.000000,4.000000,,,,,,,,,,,,,,,,,,,,,,,,,
1577421049.325907,0.000000,0.000000,4229.743652,4279.487305,4031.281982,4161.538574,4214.871582,450.000000,4.000000,,,,0.000000,4.000000,4.000000,4.000000,4.000000,4.000000,,,,,,,,,,,,,,,,,,,,,,,,,
1577421049.333804,1.000000,0.000000,4221.538574,4250.769043,4035.897461,4135.897461,4205.128418,450.000000,4.000000,,,,0.000000,4.000000,4.000000,4.000000,4.000000,4.000000,,,,,,,,,,,,,,,,,,,,,,,,,
1577421049.341601,2.000000,0.000000,4227.692383,4239.487305,4055.897461,4141.538574,4208.205078,16208.000000,4.000000,,,,0.000000,4.000000,4.000000,4.000000,4.000000,4.000000,,,,,,,,,,,,,,,,,,,,,,,,,
1577421049.349499,3.000000,0.000000,4226.153809,4248.205078,4069.230713,4164.102539,4198.974121,450.000000,4.000000,,,,0.000000,4.000000,4.000000,4.000000,4.000000,4.000000,,,,,,,,,,,,,,,,,,,,,,,,,
1577421049.357296,4.000000,0.000000,4217.948730,4249.743652,4071.794922,4153.846191,4195.384766,16181.000000,4.000000,,,,0.000000,4.000000,4.000000,4.000000,4.000000,4.000000,,,,,,,,,,,,,,,,,,,,,,,,,
1577421049.364993,5.000000,0.000000,4220.512695,4260.000000,4079.487061,4137.436035,4208.717773,450.000000,4.000000,,,,0.000000,4.000000,4.000000,4.000000,4.000000,4.000000,,,,,,,,,,,,,,,,,,,,,,,,,
1577421049.372790,6.000000,0.000000,4196.922852,4260.000000,4054.358887,4130.769043,4183.589844,16124.000000,4.000000,,,,0.000000,4.000000,4.000000,4.000000,4.000000,4.000000,,,,,,,,,,,,,,,,,,,,,,,,,
1577421049.380487,7.000000,0.000000,4184.615234,4268.205078,4029.230713,4135.897461,4168.717773,450.000000,4.000000,,,,0.000000,4.000000,4.000000,4.000000,4.000000,4.000000,,,,,,,,,,,,,,,,,,,,,,,,,
1577421049.388284,8.000000,0.000000,4249.743652,4329.230957,4081.025635,4182.051270,4235.384766,450.000000,4.000000,,,,0.000000,4.000000,4.000000,4.000000,4.000000,4.000000,,,,,,,,,,,,,,,,,,,,,,,,,
1577421049.395982,9.000000,0.000000,4305.128418,4370.256348,4129.743652,4230.256348,4293.846191,16158.000000,4.000000,,,,0.000000,4.000000,4.000000,4.000000,4.000000,4.000000,8.448143,10.070827,2.501132,2.977187,16.118855,50.070358,6.218703,2.484626,2.425406,12.109007,63.900566,9.945081,3.236583,1.989393,13.397593,4.284268,2.928517,1.830147,3.437573,14.943001,14.618853,7.083060,1.679147,2.768944,12.661031
1577421049.403779,10.000000,0.000000,4281.538574,4344.102539,4100.512695,4215.384766,4268.717773,450.000000,4.000000,,,,0.000000,4.000000,4.000000,4.000000,4.000000,4.000000,,,,,,,,,,,,,,,,,,,,,,,,,
1577421049.411476,11.000000,0.000000,4251.282227,4316.410156,4064.615479,4175.897461,4234.871582,16204.000000,4.000000,,,,0.000000,4.000000,4.000000,4.000000,4.000000,4.000000,,,,,,,,,,,,,,,,,,,,,,,,,
1577421049.419273,12.000000,0.000000,4245.641113,4315.897461,4065.641113,4173.846191,4235.384766,450.000000,4.000000,,,,0.000000,4.000000,4.000000,4.000000,4.000000,4.000000,,,,,,,,,,,,,,,,,,,,,,,,,
1577421049.426970,13.000000,0.000000,4230.769043,4315.897461,4065.641113,4177.948730,4225.641113,450.000000,4.000000,,,,0.000000,4.000000,4.000000,4.000000,4.000000,4.000000,,,,,,,,,,,,,,,,,,,,,,,,,
1577421049.434867,14.000000,0.000000,4223.589844,4306.153809,4053.333252,4163.589844,4209.743652,450.000000,4.000000,,,,0.000000,4.000000,4.000000,4.000000,4.000000,4.000000,,,,,,,,,,,,,,,,,,,,,,,,,
1577421049.442664,15.000000,0.000000,4223.077148,4292.820313,4052.307617,4157.436035,4205.128418,16204.000000,4.000000,,,,0.000000,4.000000,4.000000,4.000000,4.000000,4.000000,,,,,,,,,,,,,,,,,,,,,,,,,
1577421049.450561,16.000000,0.000000,4204.102539,4291.794922,4064.615479,4152.820313,4194.358887,0.000000,4.000000,,,,0.000000,4.000000,4.000000,4.000000,4.000000,4.000000,,,,,,,,,,,,,,,,,,,,,,,,,
1577421049.458359,17.000000,0.000000,4204.615234,4302.563965,4071.794922,4149.743652,4194.358887,0.000000,4.000000,,,,0.000000,4.000000,4.000000,4.000000,4.000000,4.000000,,,,,,,,,,,,,,,,,,,,,,,,,
1577421049.466256,18.000000,0.000000,4253.846191,4312.307617,4085.128174,4174.871582,4225.641113,0.000000,4.000000,,,,0.000000,4.000000,4.000000,4.000000,4.000000,4.000000,,,,,,,,,,,,,,,,,,,,,,,,,
1577421049.474053,19.000000,0.000000,4283.589844,4321.538574,4099.487305,4194.871582,4250.769043,0.000000,4.000000,,,,0.000000,4.000000,4.000000,4.000000,4.000000,4.000000,,,,,,,,,,,,,,,,,,,,,,,,,
1577421049.481950,20.000000,0.000000,4257.436035,4326.666504,4089.743652,4176.410156,4237.948730,0.000000,4.000000,,,,0.000000,4.000000,4.000000,4.000000,4.000000,4.000000,,,,,,,,,,,,,,,,,,,,,,,,,
1577421049.489747,21.000000,0.000000,4236.410156,4323.589844,4072.820557,4164.102539,4216.410156,0.000000,4.000000,,,,0.000000,4.000000,4.000000,4.000000,4.000000,4.000000,,,,,,,,,,,,,,,,,,,,,,,,,
1577421049.497644,22.000000,0.000000,4234.871582,4311.282227,4068.205078,4162.563965,4204.615234,0.000000,4.000000,,,,0.000000,4.000000,4.000000,4.000000,4.000000,4.000000,,,,,,,,,,,,,,,,,,,,,,,,,
1577421049.505442,23.000000,0.000000,4229.743652,4312.820313,4072.307617,4162.051270,4203.077148,0.000000,4.000000,,,,0.000000,4.000000,4.000000,4.000000,4.000000,4.000000,,,,,,,,,,,,,,,,,,,,,,,,,
1577421049.513339,24.000000,0.000000,4232.307617,4321.025879,4073.333252,4158.974121,4208.717773,0.000000,4.000000,,,,0.000000,4.000000,4.000000,4.000000,4.000000,4.000000,,,,,,,,,,,,,,,,,,,,,,,,,
1577421049.521136,25.000000,0.000000,4233.846191,4321.538574,4070.256348,4159.487305,4212.820313,0.000000,4.000000,,,,0.000000,4.000000,4.000000,4.000000,4.000000,4.000000,9.328458,10.815052,3.088219,3.521272,24.357513,60.193771,8.578434,3.010969,2.529014,18.315397,82.605347,12.898711,3.037719,2.431589,20.556704,3.655261,3.339110,1.707638,4.340175,22.796713,14.505423,8.260080,1.937578,2.982679,19.155155
1577421049.529033,26.000000,0.000000,4223.077148,4327.179688,4070.769287,4161.025879,4205.128418,0.000000,4.000000,,,,0.000000,4.000000,4.000000,4.000000,4.000000,4.000000,,,,,,,,,,,,,,,,,,,,,,,,,
1577421049.536830,27.000000,0.000000,4223.589844,4329.743652,4082.564209,4146.153809,4203.589844,0.000000,4.000000,,,,0.000000,4.000000,4.000000,4.000000,4.000000,4.000000,,,,,,,,,,,,,,,,,,,,,,,,,
1577421049.544628,28.000000,0.000000,4234.871582,4321.538574,4098.974121,4142.563965,4218.461426,0.000000,4.000000,,,,0.000000,4.000000,4.000000,4.000000,4.000000,4.000000,,,,,,,,,,,,,,,,,,,,,,,,,
1577421049.552325,29.000000,0.000000,4223.077148,4317.948730,4093.333252,4155.897461,4207.179688,0.000000,4.000000,,,,0.000000,4.000000,4.000000,4.000000,4.000000,4.000000,,,,,,,,,,,,,,,,,,,,,,,,,
1577421049.560122,30.000000,0.000000,4205.641113,4316.410156,4082.564209,4160.000000,4187.692383,0.000000,4.000000,,,,0.000000,4.000000,4.000000,4.000000,4.000000,4.000000,,,,,,,,,,,,,,,,,,,,,,,,,
1577421049.567819,31.000000,0.000000,4219.487305,4321.538574,4102.563965,4161.025879,4209.743652,0.000000,4.000000,,,,0.000000,4.000000,4.000000,4.000000,4.000000,4.000000,,,,,,,,,,,,,,,,,,,,,,,,,
1577421049.575516,32.000000,0.000000,4233.333496,4333.333496,4124.102539,4165.128418,4228.205078,0.000000,4.000000,,,,0.000000,4.000000,4.000000,4.000000,4.000000,4.000000,,,,,,,,,,,,,,,,,,,,,,,,,
1577421049.583313,33.000000,0.000000,4224.615234,4325.128418,4119.487305,4164.102539,4217.436035,0.000000,4.000000,,,,0.000000,4.000000,4.000000,4.000000,4.000000,4.000000,,,,,,,,,,,,,,,,,,,,,,,,,
1577421049.591010,34.000000,0.000000,4218.461426,4298.974121,4108.717773,4150.256348,4209.743652,0.000000,4.000000,,,,0.000000,4.000000,4.000000,4.000000,4.000000,4.000000,,,,,,,,,,,,,,,,,,,,,,,,,
1577421049.598807,35.000000,0.000000,4222.563965,4300.000000,4097.436035,4136.922852,4209.230957,0.000000,4.000000,,,,0.000000,4.000000,4.000000,4.000000,4.000000,4.000000,,,,,,,,,,,,,,,,,,,,,,,,,
1577421049.606504,36.000000,0.000000,4226.153809,4314.871582,4094.871826,4148.717773,4209.230957,0.000000,4.000000,,,,0.000000,4.000000,4.000000,4.000000,4.000000,4.000000,,,,,,,,,,,,,,,,,,,,,,,,,
1577421049.614401,37.000000,0.000000,4231.282227,4307.692383,4107.179688,4172.820313,4215.384766,0.000000,4.000000,,,,0.000000,4.000000,4.000000,4.000000,4.000000,4.000000,,,,,,,,,,,,,,,,,,,,,,,,,
1577421049.622199,38.000000,0.000000,4246.666504,4301.025879,4120.512695,4180.512695,4230.256348,0.000000,4.000000,,,,0.000000,4.000000,4.000000,4.000000,4.000000,4.000000,,,,,,,,,,,,,,,,,,,,,,,,,
1577421049.630096,39.000000,0.000000,4253.333496,4307.179688,4120.512695,4171.282227,4234.358887,0.000000,4.000000,,,,0.000000,4.000000,4.000000,4.000000,4.000000,4.000000,,,,,,,,,,,,,,,,,,,,,,,,,
1577421049.637893,40.000000,0.000000,4236.410156,4300.512695,4103.589844,4166.666504,4225.128418,0.000000,4.000000,,,,0.000000,4.000000,4.000000,4.000000,4.000000,4.000000,,,,,,,,,,,,,,,,,,,,,,,,,
1577421049.645690,41.000000,0.000000,4227.692383,4295.897461,4088.718018,4154.358887,4222.051270,0.000000,4.000000,,,,0.000000,4.000000,4.000000,4.000000,4.000000,4.000000,10.270618,11.248505,3.619044,4.190202,31.329453,69.885216,10.547750,3.383560,2.762946,23.507240,102.008064,15.039859,3.126401,2.917525,26.564491,3.197712,3.937712,1.650064,5.286147,29.563623,14.246970,9.440732,2.256911,3.399042,24.704067
1577421049.653387,42.000000,0.000000,4222.563965,4290.769043,4085.641113,4124.102539,4208.717773,0.000000,4.000000,,,,0.000000,4.000000,4.000000,4.000000,4.000000,4.000000,,,,,,,,,,,,,,,,,,,,,,,,,
1577421049.661184,43.000000,0.000000,4209.230957,4278.461426,4087.179443,4124.102539,4194.871582,0.000000,4.000000,,,,0.000000,4.000000,4.000000,4.000000,4.000000,4.000000,,,,,,,,,,,,,,,,,,,,,,,,,
1577421049.668881,44.000000,0.000000,4213.846191,4282.563965,4094.871826,4159.487305,4203.077148,0.000000,4.000000,,,,0.000000,4.000000,4.000000,4.000000,4.000000,4.000000,,,,,,,,,,,,,,,,,,,,,,,,,
1577421049.676678,45.000000,0.000000,4220.512695,4284.102539,4092.820557,4171.282227,4205.128418,0.000000,4.000000,,,,0.000000,4.000000,4.000000,4.000000,4.000000,4.000000,,,,,,,,,,,,,,,,,,,,,,,,,
1577421049.684376,46.000000,0.000000,4208.717773,4270.769043,4078.974365,4144.615234,4188.717773,0.000000,4.000000,,,,0.000000,4.000000,4.000000,4.000000,4.000000,4.000000,,,,,,,,,,,,,,,,,,,,,,,,,
1577421049.692173,47.000000,0.000000,4206.153809,4269.230957,4077.435791,4120.000000,4182.563965,0.000000,4.000000,,,,0.000000,4.000000,4.000000,4.000000,4.000000,4.000000,,,,,,,,,,,,,,,,,,,,,,,,,
1577421049.699870,48.000000,0.000000,4225.128418,4277.436035,4094.358887,4137.948730,4203.589844,0.000000,4.000000,,,,0.000000,4.000000,4.000000,4.000000,4.000000,4.000000,,,,,,,,,,,,,,,,,,,,,,,,,
1577421049.707767,49.000000,0.000000,4246.666504,4281.025879,4116.922852,4187.692383,4225.641113,0.000000,4.000000,,,,0.000000,4.000000,4.000000,4.000000,4.000000,4.000000,,,,,,,,,,,,,,,,,,,,,,,,,
1577421049.715564,50.000000,0.000000,4257.436035,4285.641113,4119.487305,4197.436035,4233.846191,0.000000,4.000000,,,,0.000000,4.000000,4.000000,4.000000,4.000000,4.000000,,,,,,,,,,,,,,,,,,,,,,,,,
1577421049.723461,51.000000,0.000000,4252.307617,4289.743652,4096.922852,4150.256348,4228.717773,0.000000,4.000000,,,,0.000000,4.000000,4.000000,4.000000,4.000000,4.000000,,,,,,,,,,,,,,,,,,,,,,,,,
1577421049.731258,52.000000,0.000000,4239.487305,4282.563965,4076.923096,4138.974121,4214.871582,0.000000,4.000000,,,,0.000000,4.000000,4.000000,4.000000,4.000000,4.000000,,,,,,,,,,,,,,,,,,,,,,,,,
1577421049.739156,53.000000,0.000000,4247.179688,4272.307617,4081.025635,4173.333496,4222.563965,0.000000,4.000000,,,,0.000000,4.000000,4.000000,4.000000,4.000000,4.000000,,,,,,,,,,,,,,,,,,,,,,,,,
1577421049.746953,54.000000,0.000000,4258.974121,4264.102539,4081.025635,4170.256348,4236.922852,0.000000,4.000000,,,,0.000000,4.000000,4.000000,4.000000,4.000000,4.000000,,,,,,,,,,,,,,,,,,,,,,,,,
1577421049.754850,55.000000,0.000000,4238.461426,4250.256348,4046.153809,4137.436035,4216.922852,0.000000,4.000000,,,,0.000000,4.000000,4.000000,4.000000,4.000000,4.000000,,,,,,,,,,,,,,,,,,,,,,,,,
1577421049.762647,56.000000,0.000000,4231.794922,4246.153809,4024.615479,4137.948730,4208.717773,0.000000,4.000000,,,,0.000000,4.000000,4.000000,4.000000,4.000000,4.000000,,,,,,,,,,,,,,,,,,,,,,,,,
1577421049.770344,57.000000,0.000000,4246.666504,4247.692383,4027.179443,4157.948730,4222.563965,0.000000,4.000000,,,,0.000000,4.000000,4.000000,4.000000,4.000000,4.000000,11.017802,11.083807,4.163232,4.852582,34.725334,71.807373,11.672795,3.541278,3.026393,25.915659,113.937218,15.754952,3.455208,3.361077,29.442171,2.920522,4.468559,1.790725,6.042132,33.033092,14.036362,10.168482,2.739423,3.954876,27.490250
1577421049.778141,58.000000,0.000000,4228.717773,4233.333496,4010.769287,4144.102539,4208.205078,0.000000,4.000000,,,,0.000000,4.000000,4.000000,4.000000,4.000000,4.000000,,,,,,,,,,,,,,,,,,,,,,,,,
1577421049.785838,59.000000,0.000000,4230.769043,4235.897461,4015.897461,4143.077148,4205.641113,0.000000,4.000000,,,,0.000000,4.000000,4.000000,4.000000,4.000000,4.000000,,,,,,,,,,,,,,,,,,,,,,,,,
1577421049.793635,60.000000,0.000000,4266.666504,4254.871582,4055.897461,4172.307617,4239.487305,0.000000,4.000000,,,,0.000000,4.000000,4.000000,4.000000,4.000000,4.000000,,,,,,,,,,,,,,,,,,,,,,,,,
1577421049.801333,61.000000,0.000000,4246.666504,4239.487305,4056.410156,4154.358887,4231.282227,0.000000,4.000000,,,,0.000000,4.000000,4.000000,4.000000,4.000000,4.000000,,,,,,,,,,,,,,,,,,,,,,,,,
1577421049.809130,62.000000,0.000000,4202.051270,4215.384766,4030.769287,4119.487305,4186.666504,0.000000,4.000000,,,,0.000000,4.000000,4.000000,4.000000,4.000000,4.000000,,,,,,,,,,,,,,,,,,,,,,,,,
1577421049.816827,63.000000,0.000000,4222.563965,4230.769043,4045.128174,4152.307617,4201.025879,0.000000,4.000000,,,,0.000000,4.000000,4.000000,4.000000,4.000000,4.000000,,,,,,,,,,,,,,,,,,,,,,,,,
1577421049.824624,64.000000,0.000000,4260.512695,4245.641113,4066.666748,4193.333496,4238.461426,450.000000,4.000000,,,,0.000000,4.000000,4.000000,4.000000,4.000000,4.000000,,,,,,,,,,,,,,,,,,,,,,,,,
1577421049.832321,65.000000,0.000000,4247.692383,4226.153809,4056.923096,4156.922852,4222.563965,450.000000,4.000000,,,,0.000000,4.000000,4.000000,4.000000,4.000000,4.000000,,,,,,,,,,,,,,,,,,,,,,,,,
1577421049.840118,66.000000,0.000000,4224.102539,4217.948730,4051.281982,4121.025879,4200.000000,16219.000000,4.000000,,,,0.000000,4.000000,4.000000,4.000000,4.000000,4.000000,,,,,,,,,,,,,,,,,,,,,,,,,
1577421049.847815,67.000000,0.000000,4220.512695,4234.358887,4061.025635,4130.769043,4200.000000,450.000000,4.000000,,,,0.000000,4.000000,4.000000,4.000000,4.000000,4.000000,,,,,,,,,,,,,,,,,,,,,,,,,
1577421049.855712,68.000000,0.000000,4231.282227,4246.666504,4082.051270,4137.948730,4209.230957,16196.000000,4.000000,,,,0.000000,4.000000,4.000000,4.000000,4.000000,4.000000,,,,,,,,,,,,,,,,,,,,,,,,,
1577421049.863509,69.000000,0.000000,4250.256348,4254.871582,4111.282227,4157.436035,4225.128418,450.000000,4.000000,,,,0.000000,4.000000,4.000000,4.000000,4.000000,4.000000,,,,,,,,,,,,,,,,,,,,,,,,,
1577421049.871406,70.000000,0.000000,4251.794922,4253.846191,4122.051270,4180.512695,4224.102539,16148.000000,4.000000,,,,0.000000,4.000000,4.000000,4.000000,4.000000,4.000000,,,,,,,,,,,,,,,,,,,,,,,,,
1577421049.879204,71.000000,0.000000,4240.512695,4240.512695,4109.743652,4173.333496,4217.436035,450.000000,4.000000,,,,0.000000,4.000000,4.000000,4.000000,4.000000,4.000000,,,,,,,,,,,,,,,,,,,,,,,,,
1577421049.887101,72.000000,0.000000,4229.743652,4234.358887,4090.256348,4149.230957,4208.205078,450.000000,4.000000,,,,0.000000,4.000000,4.000000,4.000000,4.000000,4.000000,,,,,,,,,,,,,,,,,,,,,,,,,
1577421049.894898,73.000000,0.000000,4220.000000,4231.282227,4078.974365,4125.641113,4187.692383,16162.000000,4.000000,,,,0.000000,4.000000,4.000000,4.000000,4.000000,4.000000,11.140120,10.293489,4.880057,5.360885,33.382961,64.772926,11.881906,3.551119,3.225230,24.680716,113.200775,14.826103,3.850106,3.695926,28.215864,2.865486,4.783311,2.220592,6.421608,32.046669,13.781160,10.183704,3.516367,4.506117,26.580191
1577421049.902795,74.000000,0.000000,4238.974121,4234.871582,4100.512695,4133.333496,4197.948730,450.000000,4.000000,,,,0.000000,4.000000,4.000000,4.000000,4.000000,4.000000,,,,,,,,,,,,,,,,,,,,,,,,,
1577421049.910592,75.000000,0.000000,4249.230957,4234.871582,4108.717773,4149.743652,4206.666504,16213.000000,4.000000,,,,0.000000,4.000000,4.000000,4.000000,4.000000,4.000000,,,,,,,,,,,,,,,,,,,,,,,,,
1577421049.918490,76.000000,0.000000,4223.077148,4221.538574,4076.410156,4131.282227,4176.922852,450.000000,4.000000,,,,0.000000,4.000000,4.000000,4.000000,4.000000,4.000000,,,,,,,,,,,,,,,,,,,,,,,,,
1577421049.926287,77.000000,0.000000,4232.820313,4226.666504,4082.564209,4136.922852,4186.666504,450.000000,4.000000,,,,0.000000,4.000000,4.000000,4.000000,4.000000,4.000000,,,,,,,,,,,,,,,,,,,,,,,,,
1577421049.934184,78.000000,0.000000,4268.205078,4234.871582,4114.871582,4169.230957,4226.666504,450.000000,4.000000,,,,0.000000,4.000000,4.000000,4.000000,4.000000,4.000000,,,,,,,,,,,,,,,,,,,,,,,,,
1577421049.941981,79.000000,0.000000,4267.179688,4227.692383,4106.666504,4164.102539,4227.692383,16213.000000,4.000000,,,,0.000000,4.000000,4.000000,4.000000,4.000000,4.000000,,,,,,,,,,,,,,,,,,,,,,,,,
1577421049.949878,80.000000,0.000000,4254.358887,4224.102539,4096.410156,4147.179688,4218.461426,450.000000,4.000000,,,,0.000000,4.000000,4.000000,4.000000,4.000000,4.000000,,,,,,,,,,,,,,,,,,,,,,,,,
1577421049.957676,81.000000,0.000000,4255.384766,4217.948730,4109.230957,4154.871582,4227.692383,450.000000,4.000000,,,,0.000000,4.000000,4.000000,4.000000,4.000000,4.000000,,,,,,,,,,,,,,,,,,,,,,,,,
1577421049.965373,82.000000,0.000000,4254.871582,4203.077148,4109.230957,4160.512695,4224.102539,450.000000,4.000000,,,,0.000000,4.000000,4.000000,4.000000,4.000000,4.000000,,,,,,,,,,,,,,,,,,,,,,,,,
1577421049.973170,83.000000,0.000000,4255.897461,4188.717773,4104.615234,4151.282227,4218.974121,16213.000000,4.000000,,,,0.000000,4.000000,4.000000,4.000000,4.000000,4.000000,,,,,,,,,,,,,,,,,,,,,,,,,
1577421049.980867,84.000000,0.000000,4264.615234,4178.461426,4110.256348,4150.256348,4232.307617,450.000000,4.000000,,,,0.000000,4.000000,4.000000,4.000000,4.000000,4.000000,,,,,,,,,,,,,,,,,,,,,,,,,
1577421049.988664,85.000000,0.000000,4257.436035,4168.717773,4097.436035,4150.769043,4227.692383,450.000000,4.000000,,,,0.000000,4.000000,4.000000,4.000000,4.000000,4.000000,,,,,,,,,,,,,,,,,,,,,,,,,
1577421049.996361,86.000000,0.000000,4249.743652,4153.846191,4084.615479,4158.461426,4218.461426,450.000000,4.000000,,,,0.000000,4.000000,4.000000,4.000000,4.000000,4.000000,,,,,,,,,,,,,,,,,,,,,,,,,
1577421050.004258,87.000000,0.000000,4272.307617,4142.563965,4104.102539,4174.871582,4240.000000,16213.000000,4.000000,,,,0.000000,4.000000,4.000000,4.000000,4.000000,4.000000,,,,,,,,,,,,,,,,,,,,,,,,,
1577421050.012055,88.000000,0.000000,4288.717773,4126.666504,4113.846191,4166.666504,4257.948730,450.000000,4.000000,,,,0.000000,4.000000,4.000000,4.000000,4.000000,4.000000,,,,,,,,,,,,,,,,,,,,,,,,,
1577421050.019952,89.000000,0.000000,4264.615234,4089.230713,4092.307617,4142.051270,4237.948730,450.000000,4.000000,,,,0.000000,4.000000,4.000000,4.000000,4.000000,4.000000,10.493191,9.088408,5.843053,5.584474,27.837946,50.626312,11.439205,3.562853,3.274658,20.259933,99.396027,12.637062,4.150821,3.874518,23.379660,3.021889,4.823737,2.916853,6.359190,27.050728,13.133375,9.486366,4.602728,4.882673,22.364424
1577421050.027750,90.000000,0.000000,4235.384766,4050.769287,4080.000000,4133.333496,4206.666504,450.000000,4.000000,,,,0.000000,4.000000,4.000000,4.000000,4.000000,4.000000,,,,,,,,,,,,,,,,,,,,,,,,,
1577421050.035647,91.000000,0.000000,4230.256348,4026.666748,4086.153809,4128.205078,4198.974121,16213.000000,4.000000,,,,0.000000,4.000000,4.000000,4.000000,4.000000,4.000000,,,,,,,,,,,,,,,,,,,,,,,,,
1577421050.043444,92.000000,0.000000,4233.846191,4001.025635,4097.436035,4120.512695,4210.769043,450.000000,4.000000,,,,0.000000,4.000000,4.000000,4.000000,4.000000,4.000000,,,,,,,,,,,,,,,,,,,,,,,,,
1577421050.051341,93.000000,0.000000,4224.615234,3968.718018,4095.897461,4125.641113,4204.615234,450.000000,4.000000,,,,0.000000,4.000000,4.000000,4.000000,4.000000,4.000000,,,,,,,,,,,,,,,,,,,,,,,,,
1577421050.059138,94.000000,0.000000,4211.794922,3953.846191,4089.743652,4141.025879,4185.128418,450.000000,4.000000,,,,0.000000,4.000000,4.000000,4.000000,4.000000,4.000000,,,,,,,,,,,,,,,,,,,,,,,,,
1577421050.067035,95.000000,0.000000,4212.820313,3958.974365,4104.102539,4137.948730,4188.717773,16213.000000,4.000000,,,,0.000000,4.000000,4.000000,4.000000,4.000000,4.000000,,,,,,,,,,,,,,,,,,,,,,,,,
1577421050.074833,96.000000,0.000000,4202.051270,3946.153809,4102.563965,4108.717773,4184.102539,450.000000,4.000000,,,,0.000000,4.000000,4.000000,4.000000,4.000000,4.000000,,,,,,,,,,,,,,,,,,,,,,,,,
1577421050.082630,97.000000,0.000000,4181.025879,3931.281982,4078.461426,4102.051270,4159.487305,450.000000,4.000000,,,,0.000000,4.000000,4.000000,4.000000,4.000000,4.000000,,,,,,,,,,,,,,,,,,,,,,,,,
1577421050.090327,98.000000,0.000000,4198.974121,3952.307617,4088.205078,4123.589844,4172.307617,450.000000,4.000000,,,,0.000000,4.000000,4.000000,4.000000,4.000000,4.000000,,,,,,,,,,,,,,,,,,,,,,,,,
1577421050.098224,99.000000,0.000000,4225.128418,3975.384521,4103.589844,4116.410156,4201.538574,16213.000000,4.000000,,,,0.000000,4.000000,4.000000,4.000000,4.000000,4.000000,,,,,,,,,,,,,,,,,,,,,,,,,
1577421050.106021,100.000000,0.000000,4191.282227,3956.410156,4075.897461,4090.769287,4167.692383,450.000000,4.000000,,,,0.000000,4.000000,4.000000,4.000000,4.000000,4.000000,,,,,,,,,,,,,,,,,,,,,,,,,
1577421050.113919,101.000000,0.000000,4157.948730,3943.589844,4065.128174,4095.384521,4133.333496,450.000000,4.000000,,,,0.000000,4.000000,4.000000,4.000000,4.000000,4.000000,,,,,,,,,,,,,,,,,,,,,,,,,
1577421050.121716,102.000000,0.000000,4201.538574,3979.487061,4109.230957,4124.102539,4185.641113,450.000000,4.000000,,,,0.000000,4.000000,4.000000,4.000000,4.000000,4.000000,,,,,,,,,,,,,,,,,,,,,,,,,
1577421050.129613,103.000000,0.000000,4248.205078,4007.179443,4128.717773,4144.102539,4231.282227,16213.000000,4.000000,,,,0.000000,4.000000,4.000000,4.000000,4.000000,4.000000,,,,,,,,,,,,,,,,,,,,,,,,,
1577421050.137410,104.000000,0.000000,4235.384766,3997.948730,4104.102539,4153.846191,4212.307617,450.000000,4.000000,,,,0.000000,4.000000,4.000000,4.000000,4.000000,4.000000,,,,,,,,,,,,,,,,,,,,,,,,,
1577421050.145108,105.000000,0.000000,4223.589844,3994.358887,4103.589844,4157.436035,4204.102539,450.000000,4.000000,,,,0.000000,4.000000,4.000000,4.000000,4.000000,4.000000,9.402148,7.812346,6.919367,5.460259,20.050453,33.779545,10.623652,3.673937,3.119693,14.193474,76.794128,10.093910,4.284634,3.887192,16.649872,3.281148,4.649629,3.743914,5.954216,19.863638,12.053791,8.332335,5.824195,4.957746,16.346302
1577421050.152905,106.000000,0.000000,4228.205078,3989.230713,4109.230957,4141.538574,4207.179688,450.000000,4.000000,,,,0.000000,4.000000,4.000000,4.000000,4.000000,4.000000,,,,,,,,,,,,,,,,,,,,,,,,,
1577421050.160602,107.000000,0.000000,4216.410156,3980.512939,4093.846191,4112.307617,4192.820313,16213.000000,4.000000,,,,0.000000,4.000000,4.000000,4.000000,4.000000,4.000000,,,,,,,,,,,,,,,,,,,,,,,,,
1577421050.168399,108.000000,0.000000,4211.794922,3993.333252,4095.897461,4100.512695,4188.205078,450.000000,4.000000,,,,0.000000,4.000000,4.000000,4.000000,4.000000,4.000000,,,,,,,,,,,,,,,,,,,,,,,,,
1577421050.176096,109.000000,0.000000,4214.358887,3999.487061,4103.077148,4113.333496,4188.205078,450.000000,4.000000,,,,0.000000,4.000000,4.000000,4.000000,4.000000,4.000000,,,,,,,,,,,,,,,,,,,,,,,,,
1577421050.183994,110.000000,0.000000,4222.051270,4005.641113,4110.256348,4131.794922,4192.307617,450.000000,4.000000,,,,0.000000,4.000000,4.000000,4.000000,4.000000,4.000000,,,,,,,,,,,,,,,,,,,,,,,,,
1577421050.191791,111.000000,0.000000,4234.358887,4030.769287,4129.230957,4135.384766,4204.102539,16213.000000,4.000000,,,,0.000000,4.000000,4.000000,4.000000,4.000000,4.000000,,,,,,,,,,,,,,,,,,,,,,,,,
1577421050.199588,112.000000,0.000000,4238.974121,4051.794922,4145.641113,4139.487305,4214.871582,450.000000,4.000000,,,,0.000000,4.000000,4.000000,4.000000,4.000000,4.000000,,,,,,,,,,,,,,,,,,,,,,,,,
1577421050.207285,113.000000,0.000000,4241.025879,4055.897461,4157.948730,4150.769043,4222.563965,450.000000,4.000000,,,,0.000000,4.000000,4.000000,4.000000,4.000000,4.000000,,,,,,,,,,,,,,,,,,,,,,,,,
1577421050.215082,114.000000,0.000000,4219.487305,4038.974365,4151.282227,4130.256348,4197.436035,450.000000,4.000000,,,,0.000000,4.000000,4.000000,4.000000,4.000000,4.000000,,,,,,,,,,,,,,,,,,,,,,,,,
1577421050.222779,115.000000,0.000000,4200.000000,4034.358887,4144.615234,4109.743652,4172.307617,16213.000000,4.000000,,,,0.000000,4.000000,4.000000,4.000000,4.000000,4.000000,,,,,,,,,,,,,,,,,,,,,,,,,
1577421050.230576,116.000000,0.000000,4216.922852,4061.538574,4162.563965,4132.307617,4186.153809,450.000000,4.000000,,,,0.000000,4.000000,4.000000,4.000000,4.000000,4.000000,,,,,,,,,,,,,,,,,,,,,,,,,
1577421050.238273,117.000000,0.000000,4235.897461,4082.564209,4180.000000,4151.282227,4207.179688,450.000000,4.000000,,,,0.000000,4.000000,4.000000,4.000000,4.000000,4.000000,,,,,,,,,,,,,,,,,,,,,,,,,
1577421050.246070,118.000000,0.000000,4235.897461,4083.589844,4180.000000,4146.153809,4207.692383,450.000000,4.000000,,,,0.000000,4.000000,4.000000,4.000000,4.000000,4.000000,,,,,,,,,,,,,,,,,,,,,,,,,
1577421050.253768,119.000000,0.000000,4234.871582,4080.512939,4178.461426,4142.563965,4201.538574,16213.000000,4.000000,,,,0.000000,4.000000,4.000000,4.000000,4.000000,4.000000,,,,,,,,,,,,,,,,,,,,,,,,,
1577421050.261565,120.000000,0.000000,4242.051270,4076.410156,4191.282227,4145.128418,4209.743652,450.000000,4.000000,,,,0.000000,4.000000,4.000000,4.000000,4.000000,4.000000,,,,,,,,,,,,,,,,,,,,,,,,,
1577421050.269262,121.000000,0.000000,4251.794922,4077.435791,4202.563965,4143.077148,4219.487305,450.000000,4.000000,,,,0.000000,4.000000,4.000000,4.000000,4.000000,4.000000,8.249757,6.708148,7.792807,4.991039,12.461030,19.319904,9.638923,3.869291,2.763404,8.359302,52.367100,8.013163,4.320870,3.737138,10.136917,3.500835,4.333870,4.507323,5.383515,12.779549,10.775887,7.046358,6.855809,4.672420,10.416380
1577421050.277059,122.000000,0.000000,4254.871582,4084.102539,4191.794922,4148.205078,4217.436035,450.000000,4.000000,,,,0.000000,4.000000,4.000000,4.000000,4.000000,4.000000,,,,,,,,,,,,,,,,,,,,,,,,,
1577421050.284756,123.000000,0.000000,4245.128418,4083.076904,4171.282227,4147.179688,4201.538574,16213.000000,4.000000,,,,0.000000,4.000000,4.000000,4.000000,4.000000,4.000000,,,,,,,,,,,,,,,,,,,,,,,,,
1577421050.292653,124.000000,0.000000,4246.666504,4082.051270,4172.820313,4139.487305,4200.512695,450.000000,4.000000,,,,0.000000,4.000000,4.000000,4.000000,4.000000,4.000000,,,,,,,,,,,,,,,,,,,,,,,,,
1577421050.300450,125.000000,0.000000,4258.461426,4085.128174,4187.692383,4148.205078,4223.077148,450.000000,4.000000,,,,0.000000,4.000000,4.000000,4.000000,4.000000,4.000000,,,,,,,,,,,,,,,,,,,,,,,,,
1577421050.308347,126.000000,0.000000,4248.205078,4079.487061,4179.487305,4149.230957,4216.922852,450.000000,4.000000,,,,0.000000,4.000000,4.000000,4.000000,4.000000,4.000000,,,,,,,,,,,,,,,,,,,,,,,,,
1577421050.316145,127.000000,0.000000,4244.102539,4082.564209,4168.717773,4145.128418,4203.077148,235.000000,4.000000,,,,0.000000,4.000000,4.000000,4.000000,4.000000,4.000000,,,,,,,,,,,,,,,,,,,,,,,,,
1577421050.324042,0.000000,0.000000,4270.769043,4098.461426,4178.974121,4160.000000,4225.641113,450.000000,4.000000,,,,0.000000,4.000000,4.000000,4.000000,4.000000,4.000000,,,,,,,,,,,,,,,,,,,,,,,,,
1577421050.331839,1.000000,0.000000,4268.205078,4084.615479,4178.974121,4156.410156,4229.230957,450.000000,4.000000,,,,0.000000,4.000000,4.000000,4.000000,4.000000,4.000000,,,,,,,,,,,,,,,,,,,,,,,,,
1577421050.339736,2.000000,0.000000,4238.461426,4061.538574,4161.538574,4129.230957,4205.128418,16218.000000,4.000000,,,,0.000000,4.000000,4.000000,4.000000,4.000000,4.000000,,,,,,,,,,,,,,,,,,,,,,,,,
1577421050.347533,3.000000,0.000000,4238.974121,4080.512939,4158.974121,4130.256348,4202.563965,450.000000,4.000000,,,,0.000000,4.000000,4.000000,4.000000,4.000000,4.000000,,,,,,,,,,,,,,,,,,,,,,,,,
1577421050.355230,4.000000,0.000000,4248.717773,4103.077148,4169.230957,4138.974121,4208.717773,16201.000000,4.000000,,,,0.000000,4.000000,4.000000,4.000000,4.000000,4.000000,,,,,,,,,,,,,,,,,,,,,,,,,
1577421050.363027,5.000000,0.000000,4252.307617,4098.461426,4183.589844,4136.410156,4213.333496,450.000000,4.000000,,,,0.000000,4.000000,4.000000,4.000000,4.000000,4.000000,,,,,,,,,,,,,,,,,,,,,,,,,
1577421050.370724,6.000000,0.000000,4254.358887,4091.281982,4193.333496,4150.256348,4218.974121,16150.000000,4.000000,,,,0.000000,4.000000,4.000000,4.000000,4.000000,4.000000,,,,,,,,,,,,,,,,,,,,,,,,,
1577421050.378521,7.000000,0.000000,4248.205078,4095.384521,4191.794922,4153.846191,4218.461426,450.000000,4.000000,,,,0.000000,4.000000,4.000000,4.000000,4.000000,4.000000,,,,,,,,,,,,,,,,,,,,,,,,,
1577421050.386219,8.000000,0.000000,4246.666504,4108.205078,4193.846191,4148.717773,4218.461426,450.000000,4.000000,,,,0.000000,4.000000,4.000000,4.000000,4.000000,4.000000,,,,,,,,,,,,,,,,,,,,,,,,,
1577421050.394016,9.000000,0.000000,4240.512695,4110.256348,4192.820313,4152.307617,4208.205078,16163.000000,4.000000,,,,0.000000,4.000000,4.000000,4.000000,4.000000,4.000000,7.304242,5.815332,8.098073,4.263076,6.894523,11.620174,8.584435,4.020073,2.268410,4.131072,32.435291,6.671620,4.365312,3.436801,5.395620,3.583609,3.928723,5.064828,4.821459,7.517415,9.482047,5.851049,7.372788,4.083468,6.013329
1577421050.401713,10.000000,0.000000,4229.230957,4105.128418,4192.820313,4150.256348,4196.410156,450.000000,4.000000,,,,0.000000,4.000000,4.000000,4.000000,4.000000,4.000000,,,,,,,,,,,,,,,,,,,,,,,,,
1577421050.409510,11.000000,0.000000,4246.666504,4120.512695,4221.025879,4155.897461,4215.897461,16219.000000,4.000000,,,,0.000000,4.000000,4.000000,4.000000,4.000000,4.000000,,,,,,,,,,,,,,,,,,,,,,,,,
1577421050.417207,12.000000,0.000000,4276.410156,4139.487305,4253.333496,4177.436035,4249.230957,450.000000,4.000000,,,,0.000000,4.000000,4.000000,4.000000,4.000000,4.000000,,,,,,,,,,,,,,,,,,,,,,,,,
1577421050.425104,13.000000,0.000000,4265.128418,4132.307617,4246.153809,4163.589844,4238.974121,450.000000,4.000000,,,,0.000000,4.000000,4.000000,4.000000,4.000000,4.000000,,,,,,,,,,,,,,,,,,,,,,,,,
1577421050.432901,14.000000,0.000000,4249.230957,4128.717773,4233.333496,4130.769043,4216.922852,450.000000,4.000000,,,,0.000000,4.000000,4.000000,4.000000,4.000000,4.000000,,,,,,,,,,,,,,,,,,,,,,,,,
1577421050.440798,15.000000,0.000000,4272.307617,4142.051270,4243.589844,4155.384766,4238.461426,16219.000000,4.000000,,,,0.000000,4.000000,4.000000,4.000000,4.000000,4.000000,,,,,,,,,,,,,,,,,,,,,,,,,
1577421050.448596,16.000000,0.000000,4288.717773,4142.563965,4248.717773,4190.769043,4257.436035,0.000000,4.000000,,,,0.000000,4.000000,4.000000,4.000000,4.000000,4.000000,,,,,,,,,,,,,,,,,,,,,,,,,
1577421050.456493,17.000000,0.000000,4283.589844,4134.358887,4242.051270,4180.512695,4247.692383,0.000000,4.000000,,,,0.000000,4.000000,4.000000,4.000000,4.000000,4.000000,,,,,,,,,,,,,,,,,,,,,,,,,
1577421050.464290,18.000000,0.000000,4282.563965,4141.538574,4237.436035,4171.282227,4246.666504,0.000000,4.000000,,,,0.000000,4.000000,4.000000,4.000000,4.000000,4.000000,,,,,,,,,,,,,,,,,,,,,,,,,
1577421050.472087,19.000000,0.000000,4264.102539,4142.563965,4222.051270,4159.487305,4235.384766,0.000000,4.000000,,,,0.000000,4.000000,4.000000,4.000000,4.000000,4.000000,,,,,,,,,,,,,,,,,,,,,,,,,
1577421050.479784,20.000000,0.000000,4233.333496,4127.179688,4200.000000,4135.384766,4207.179688,0.000000,4.000000,,,,0.000000,4.000000,4.000000,4.000000,4.000000,4.000000,,,,,,,,,,,,,,,,,,,,,,,,,
1577421050.487681,21.000000,0.000000,4238.974121,4123.077148,4205.128418,4143.589844,4209.743652,0.000000,4.000000,,,,0.000000,4.000000,4.000000,4.000000,4.000000,4.000000,,,,,,,,,,,,,,,,,,,,,,,,,
1577421050.495479,22.000000,0.000000,4240.000000,4114.871582,4201.538574,4140.000000,4213.333496,0.000000,4.000000,,,,0.000000,4.000000,4.000000,4.000000,4.000000,4.000000,,,,,,,,,,,,,,,,,,,,,,,,,
1577421050.503376,23.000000,0.000000,4199.487305,4098.974121,4163.589844,4090.769287,4175.897461,0.000000,4.000000,,,,0.000000,4.000000,4.000000,4.000000,4.000000,4.000000,,,,,,,,,,,,,,,,,,,,,,,,,
1577421050.511173,24.000000,0.000000,4203.077148,4122.563965,4166.666504,4101.538574,4173.846191,0.000000,4.000000,,,,0.000000,4.000000,4.000000,4.000000,4.000000,4.000000,,,,,,,,,,,,,,,,,,,,,,,,,
1577421050.519070,25.000000,0.000000,4262.563965,4164.102539,4216.410156,4179.487305,4228.205078,0.000000,4.000000,,,,0.000000,4.000000,4.000000,4.000000,4.000000,4.000000,6.905953,5.020927,7.639441,3.425365,3.888170,11.990191,7.495542,3.973525,1.745829,1.887777,19.987711,5.877763,4.433154,3.012466,2.866388,3.547922,3.466816,5.387259,4.369915,4.586088,8.516741,4.817746,7.215208,3.340589,3.593026
1577421050.526867,26.000000,0.000000,4278.974121,4165.128418,4224.615234,4198.461426,4243.589844,0.000000,4.000000,,,,0.000000,4.000000,4.000000,4.000000,4.000000,4.000000,,,,,,,,,,,,,,,,,,,,,,,,,
1577421050.534765,27.000000,0.000000,4250.256348,4148.717773,4197.436035,4153.846191,4216.922852,0.000000,4.000000,,,,0.000000,4.000000,4.000000,4.000000,4.000000,4.000000,,,,,,,,,,,,,,,,,,,,,,,,,
1577421050.542562,28.000000,0.000000,4246.153809,4153.333496,4198.974121,4142.051270,4211.794922,0.000000,4.000000,,,,0.000000,4.000000,4.000000,4.000000,4.000000,4.000000,,,,,,,,,,,,,,,,,,,,,,,,,
1577421050.550359,29.000000,0.000000,4248.717773,4154.358887,4211.794922,4153.846191,4206.153809,0.000000,4.000000,,,,0.000000,4.000000,4.000000,4.000000,4.000000,4.000000,,,,,,,,,,,,,,,,,,,,,,,,,
1577421050.558156,30.000000,0.000000,4236.410156,4150.769043,4212.820313,4141.025879,4193.846191,0.000000,4.000000,,,,0.000000,4.000000,4.000000,4.000000,4.000000,4.000000,,,,,,,,,,,,,,,,,,,,,,,,,
1577421050.565853,31.000000,0.000000,4249.230957,4176.410156,4226.153809,4138.974121,4210.769043,0.000000,4.000000,,,,0.000000,4.000000,4.000000,4.000000,4.000000,4.000000,,,,,,,,,,,,,,,,,,,,,,,,,
1577421050.573751,32.000000,0.000000,4264.102539,4198.461426,4227.179688,4155.897461,4222.563965,0.000000,4.000000,,,,0.000000,4.000000,4.000000,4.000000,4.000000,4.000000,,,,,,,,,,,,,,,,,,,,,,,,,
1577421050.581548,33.000000,0.000000,4251.794922,4189.230957,4195.384766,4148.205078,4210.769043,0.000000,4.000000,,,,0.000000,4.000000,4.000000,4.000000,4.000000,4.000000,,,,,,,,,,,,,,,,,,,,,,,,,
1577421050.589445,34.000000,0.000000,4256.410156,4185.641113,4175.384766,4138.974121,4216.922852,0.000000,4.000000,,,,0.000000,4.000000,4.000000,4.000000,4.000000,4.000000,,,,,,,,,,,,,,,,,,,,,,,,,
1577421050.597242,35.000000,0.000000,4295.384766,4200.512695,4182.051270,4153.846191,4247.179688,0.000000,4.000000,,,,0.000000,4.000000,4.000000,4.000000,4.000000,4.000000,,,,,,,,,,,,,,,,,,,,,,,,,
1577421050.605139,36.000000,0.000000,4346.666504,4205.128418,4188.717773,4162.563965,4280.512695,0.000000,4.000000,,,,0.000000,4.000000,4.000000,4.000000,4.000000,4.000000,,,,,,,,,,,,,,,,,,,,,,,,,
1577421050.612937,37.000000,0.000000,4385.128418,4190.769043,4171.282227,4140.512695,4294.871582,0.000000,4.000000,,,,0.000000,4.000000,4.000000,4.000000,4.000000,4.000000,,,,,,,,,,,,,,,,,,,,,,,,,
1577421050.620834,38.000000,0.000000,4430.256348,4195.384766,4168.717773,4130.769043,4317.948730,0.000000,4.000000,,,,0.000000,4.000000,4.000000,4.000000,4.000000,4.000000,,,,,,,,,,,,,,,,,,,,,,,,,
1577421050.628631,39.000000,0.000000,4500.512695,4220.000000,4193.333496,4154.871582,4367.179688,0.000000,4.000000,,,,0.000000,4.000000,4.000000,4.000000,4.000000,4.000000,,,,,,,,,,,,,,,,,,,,,,,,,
1577421050.636428,40.000000,0.000000,4552.307617,4221.025879,4193.333496,4158.461426,4402.051270,0.000000,4.000000,,,,0.000000,4.000000,4.000000,4.000000,4.000000,4.000000,,,,,,,,,,,,,,,,,,,,,,,,,
1577421050.644125,41.000000,0.000000,4587.179688,4213.333496,4193.333496,4160.512695,4429.743652,0.000000,4.000000,,,,0.000000,4.000000,4.000000,4.000000,4.000000,4.000000,7.226739,4.170838,6.528431,2.638019,2.785761,17.508183,6.357775,3.644820,1.307307,1.109033,14.318349,5.224267,4.474140,2.505587,1.969302,3.462322,2.953621,5.537501,4.009041,3.370910,8.205489,3.875578,6.471393,2.621506,2.680832
1577421050.651922,42.000000,0.000000,4613.333496,4223.077148,4210.769043,4170.256348,4455.897461,0.000000,4.000000,,,,0.000000,4.000000,4.000000,4.000000,4.000000,4.000000,,,,,,,,,,,,,,,,,,,,,,,,,
1577421050.659619,43.000000,0.000000,4615.384766,4228.717773,4202.051270,4168.205078,4460.000000,0.000000,4.000000,,,,0.000000,4.000000,4.000000,4.000000,4.000000,4.000000,,,,,,,,,,,,,,,,,,,,,,,,,
1577421050.667416,44.000000,0.000000,4594.871582,4211.794922,4171.794922,4160.512695,4441.025879,0.000000,4.000000,,,,0.000000,4.000000,4.000000,4.000000,4.000000,4.000000,,,,,,,,,,,,,,,,,,,,,,,,,
1577421050.675113,45.000000,0.000000,4563.589844,4191.282227,4158.461426,4132.307617,4415.897461,0.000000,4.000000,,,,0.000000,4.000000,4.000000,4.000000,4.000000,4.000000,,,,,,,,,,,,,,,,,,,,,,,,,
1577421050.683011,46.000000,0.000000,4546.666504,4196.410156,4165.641113,4120.512695,4403.077148,0.000000,4.000000,,,,0.000000,4.000000,4.000000,4.000000,4.000000,4.000000,,,,,,,,,,,,,,,,,,,,,,,,,
1577421050.690808,47.000000,0.000000,4541.538574,4206.666504,4171.282227,4156.922852,4397.436035,0.000000,4.000000,,,,0.000000,4.000000,4.000000,4.000000,4.000000,4.000000,,,,,,,,,,,,,,,,,,,,,,,,,
1577421050.698705,48.000000,0.000000,4532.307617,4192.820313,4176.410156,4190.256348,4397.436035,0.000000,4.000000,,,,0.000000,4.000000,4.000000,4.000000,4.000000,4.000000,,,,,,,,,,,,,,,,,,,,,,,,,
1577421050.706502,49.000000,0.000000,4518.974121,4185.128418,4182.051270,4183.589844,4396.410156,0.000000,4.000000,,,,0.000000,4.000000,4.000000,4.000000,4.000000,4.000000,,,,,,,,,,,,,,,,,,,,,,,,,
1577421050.714399,50.000000,0.000000,4492.820313,4190.769043,4172.307617,4176.410156,4376.410156,0.000000,4.000000,,,,0.000000,4.000000,4.000000,4.000000,4.000000,4.000000,,,,,,,,,,,,,,,,,,,,,,,,,
1577421050.722197,51.000000,0.000000,4452.820313,4179.487305,4150.256348,4176.410156,4340.512695,0.000000,4.000000,,,,0.000000,4.000000,4.000000,4.000000,4.000000,4.000000,,,,,,,,,,,,,,,,,,,,,,,,,
1577421050.730094,52.000000,0.000000,4415.897461,4164.615234,4142.051270,4157.436035,4313.333496,0.000000,4.000000,,,,0.000000,4.000000,4.000000,4.000000,4.000000,4.000000,,,,,,,,,,,,,,,,,,,,,,,,,
1577421050.737991,53.000000,0.000000,4385.641113,4161.538574,4141.538574,4143.589844,4295.897461,0.000000,4.000000,,,,0.000000,4.000000,4.000000,4.000000,4.000000,4.000000,,,,,,,,,,,,,,,,,,,,,,,,,
1577421050.745788,54.000000,0.000000,4362.051270,4156.410156,4135.384766,4145.128418,4280.000000,0.000000,4.000000,,,,0.000000,4.000000,4.000000,4.000000,4.000000,4.000000,,,,,,,,,,,,,,,,,,,,,,,,,
1577421050.753585,55.000000,0.000000,4340.000000,4155.897461,4133.333496,4141.025879,4263.077148,0.000000,4.000000,,,,0.000000,4.000000,4.000000,4.000000,4.000000,4.000000,,,,,,,,,,,,,,,,,,,,,,,,,
1577421050.761282,56.000000,0.000000,4315.384766,4165.641113,4132.307617,4126.153809,4247.179688,0.000000,4.000000,,,,0.000000,4.000000,4.000000,4.000000,4.000000,4.000000,,,,,,,,,,,,,,,,,,,,,,,,,
1577421050.769079,57.000000,0.000000,4310.256348,4176.922852,4135.384766,4132.307617,4248.717773,0.000000,4.000000,,,,0.000000,4.000000,4.000000,4.000000,4.000000,4.000000,8.178659,3.425607,5.152309,2.030462,2.488690,24.380524,5.234529,3.099113,1.029385,0.952293,12.450720,4.406766,4.409516,1.985597,1.750766,3.471108,2.443354,5.660097,3.676000,2.857439,8.577845,3.067882,5.458720,2.069788,2.439075
1577421050.776777,58.000000,0.000000,4290.256348,4168.205078,4128.717773,4136.922852,4231.282227,0.000000,4.000000,,,,0.000000,4.000000,4.000000,4.000000,4.000000,4.000000,,,,,,,,,,,,,,,,,,,,,,,,,
1577421050.784574,59.000000,0.000000,4248.717773,4160.000000,4118.974121,4120.000000,4191.282227,0.000000,4.000000,,,,0.000000,4.000000,4.000000,4.000000,4.000000,4.000000,,,,,,,,,,,,,,,,,,,,,,,,,
1577421050.792271,60.000000,0.000000,4265.641113,4179.487305,4148.717773,4137.948730,4209.743652,0.000000,4.000000,,,,0.000000,4.000000,4.000000,4.000000,4.000000,4.000000,,,,,,,,,,,,,,,,,,,,,,,,,
1577421050.800068,61.000000,0.000000,4307.692383,4191.794922,4189.230957,4182.051270,4256.410156,0.000000,4.000000,,,,0.000000,4.000000,4.000000,4.000000,4.000000,4.000000,,,,,,,,,,,,,,,,,,,,,,,,,
1577421050.807765,62.000000,0.000000,4294.358887,4178.461426,4188.205078,4189.743652,4240.512695,0.000000,4.000000,,,,0.000000,4.000000,4.000000,4.000000,4.000000,4.000000,,,,,,,,,,,,,,,,,,,,,,,,,
1577421050.815562,63.000000,0.000000,4258.461426,4176.410156,4168.205078,4164.102539,4207.692383,0.000000,4.000000,,,,0.000000,4.000000,4.000000,4.000000,4.000000,4.000000,,,,,,,,,,,,,,,,,,,,,,,,,
1577421050.823259,64.000000,0.000000,4259.487305,4200.000000,4185.641113,4163.589844,4227.692383,450.000000,4.000000,,,,0.000000,4.000000,4.000000,4.000000,4.000000,4.000000,,,,,,,,,,,,,,,,,,,,,,,,,
1577421050.831056,65.000000,0.000000,4256.410156,4195.897461,4198.974121,4178.974121,4232.820313,450.000000,4.000000,,,,0.000000,4.000000,4.000000,4.000000,4.000000,4.000000,,,,,,,,,,,,,,,,,,,,,,,,,
1577421050.838753,66.000000,0.000000,4222.563965,4165.641113,4173.846191,4156.922852,4195.897461,16217.000000,4.000000,,,,0.000000,4.000000,4.000000,4.000000,4.000000,4.000000,,,,,,,,,,,,,,,,,,,,,,,,,
1577421050.846650,67.000000,0.000000,4207.692383,4163.589844,4164.102539,4134.358887,4181.025879,450.000000,4.000000,,,,0.000000,4.000000,4.000000,4.000000,4.000000,4.000000,,,,,,,,,,,,,,,,,,,,,,,,,
1577421050.854447,68.000000,0.000000,4201.538574,4165.641113,4158.461426,4133.333496,4175.897461,16198.000000,4.000000,,,,0.000000,4.000000,4.000000,4.000000,4.000000,4.000000,,,,,,,,,,,,,,,,,,,,,,,,,
1577421050.862345,69.000000,0.000000,4189.230957,4164.615234,4147.692383,4134.358887,4168.717773,450.000000,4.000000,,,,0.000000,4.000000,4.000000,4.000000,4.000000,4.000000,,,,,,,,,,,,,,,,,,,,,,,,,
1577421050.870142,70.000000,0.000000,4192.307617,4176.410156,4166.153809,4136.410156,4172.820313,16140.000000,4.000000,,,,0.000000,4.000000,4.000000,4.000000,4.000000,4.000000,,,,,,,,,,,,,,,,,,,,,,,,,
1577421050.878039,71.000000,0.000000,4193.333496,4184.102539,4190.256348,4138.461426,4171.794922,450.000000,4.000000,,,,0.000000,4.000000,4.000000,4.000000,4.000000,4.000000,,,,,,,,,,,,,,,,,,,,,,,,,
1577421050.885836,72.000000,0.000000,4181.025879,4189.230957,4190.256348,4133.333496,4161.538574,450.000000,4.000000,,,,0.000000,4.000000,4.000000,4.000000,4.000000,4.000000,,,,,,,,,,,,,,,,,,,,,,,,,
1577421050.893733,73.000000,0.000000,4183.077148,4200.512695,4187.692383,4127.179688,4160.512695,16159.000000,4.000000,,,,0.000000,4.000000,4.000000,4.000000,4.000000,4.000000,12.318769,3.351900,3.987919,1.693811,2.340144,29.343254,4.315258,2.523524,0.945980,0.921882,12.120273,3.700877,4.167256,1.563116,1.647876,3.652609,2.073392,5.902028,3.344846,2.469063,10.683443,2.640647,4.565834,1.762836,2.347211
1577421050.901531,74.000000,0.000000,4194.871582,4217.436035,4195.384766,4135.897461,4170.769043,450.000000,4.000000,,,,0.000000,4.000000,4.000000,4.000000,4.000000,4.000000,,,,,,,,,,,,,,,,,,,,,,,,,
1577421050.909428,75.000000,0.000000,4191.282227,4240.512695,4193.333496,4144.102539,4173.846191,16208.000000,4.000000,,,,0.000000,4.000000,4.000000,4.000000,4.000000,4.000000,,,,,,,,,,,,,,,,,,,,,,,,,
1577421050.917225,76.000000,0.000000,4183.589844,4253.333496,4183.589844,4140.000000,4171.282227,450.000000,4.000000,,,,0.000000,4.000000,4.000000,4.000000,4.000000,4.000000,,,,,,,,,,,,,,,,,,,,,,,,,
1577421050.924922,77.000000,0.000000,4180.512695,4254.358887,4176.922852,4131.794922,4164.102539,450.000000,4.000000,,,,0.000000,4.000000,4.000000,4.000000,4.000000,4.000000,,,,,,,,,,,,,,,,,,,,,,,,,
1577421050.932720,78.000000,0.000000,4174.358887,4262.051270,4171.794922,4134.871582,4152.820313,450.000000,4.000000,,,,0.000000,4.000000,4.000000,4.000000,4.000000,4.000000,,,,,,,,,,,,,,,,,,,,,,,,,
1577421050.940417,79.000000,0.000000,4183.077148,4276.922852,4178.461426,4162.563965,4163.077148,16208.000000,4.000000,,,,0.000000,4.000000,4.000000,4.000000,4.000000,4.000000,,,,,,,,,,,,,,,,,,,,,,,,,
1577421050.948214,80.000000,0.000000,4188.205078,4280.512695,4181.025879,4167.692383,4168.717773,450.000000,4.000000,,,,0.000000,4.000000,4.000000,4.000000,4.000000,4.000000,,,,,,,,,,,,,,,,,,,,,,,,,
1577421050.955911,81.000000,0.000000,4173.333496,4298.974121,4173.333496,4135.897461,4153.846191,450.000000,4.000000,,,,0.000000,4.000000,4.000000,4.000000,4.000000,4.000000,,,,,,,,,,,,,,,,,,,,,,,,,
1577421050.963708,82.000000,0.000000,4190.256348,4345.641113,4193.333496,4140.000000,4171.282227,450.000000,4.000000,,,,0.000000,4.000000,4.000000,4.000000,4.000000,4.000000,,,,,,,,,,,,,,,,,,,,,,,,,
1577421050.971405,83.000000,0.000000,4216.410156,4351.794922,4220.000000,4172.307617,4198.974121,16208.000000,4.000000,,,,0.000000,4.000000,4.000000,4.000000,4.000000,4.000000,,,,,,,,,,,,,,,,,,,,,,,,,
1577421050.979202,84.000000,0.000000,4201.538574,4308.717773,4214.358887,4175.897461,4188.205078,450.000000,4.000000,,,,0.000000,4.000000,4.000000,4.000000,4.000000,4.000000,,,,,,,,,,,,,,,,,,,,,,,,,
1577421050.986899,85.000000,0.000000,4190.769043,4286.666504,4206.666504,4159.487305,4174.358887,450.000000,4.000000,,,,0.000000,4.000000,4.000000,4.000000,4.000000,4.000000,,,,,,,,,,,,,,,,,,,,,,,,,
1577421050.994797,86.000000,0.000000,4208.205078,4295.384766,4219.487305,4150.256348,4185.128418,450.000000,4.000000,,,,0.000000,4.000000,4.000000,4.000000,4.000000,4.000000,,,,,,,,,,,,,,,,,,,,,,,,,
1577421051.002594,87.000000,0.000000,4207.692383,4292.307617,4225.128418,4144.102539,4193.333496,16208.000000,4.000000,,,,0.000000,4.000000,4.000000,4.000000,4.000000,4.000000,,,,,,,,,,,,,,,,,,,,,,,,,
1577421051.010491,88.000000,0.000000,4172.307617,4266.153809,4205.128418,4128.717773,4168.205078,450.000000,4.000000,,,,0.000000,4.000000,4.000000,4.000000,4.000000,4.000000,,,,,,,,,,,,,,,,,,,,,,,,,
1577421051.018288,89.000000,0.000000,4145.128418,4247.179688,4180.512695,4112.307617,4136.922852,450.000000,4.000000,,,,0.000000,4.000000,4.000000,4.000000,4.000000,4.000000,24.268202,4.605352,3.310658,1.644154,2.238618,32.746906,3.669045,2.063733,1.036299,0.941559,12.767364,3.396595,3.756688,1.336546,1.585144,3.917047,1.968547,6.262423,3.077485,2.181591,16.497196,2.862589,3.992703,1.708416,2.304708
1577421051.026185,90.000000,0.000000,4162.051270,4262.563965,4188.717773,4126.666504,4149.230957,450.000000,4.000000,,,,0.000000,4.000000,4.000000,4.000000,4.000000,4.000000,,,,,,,,,,,,,,,,,,,,,,,,,
1577421051.033983,91.000000,0.000000,4181.025879,4296.410156,4203.589844,4146.666504,4168.717773,16208.000000,4.000000,,,,0.000000,4.000000,4.000000,4.000000,4.000000,4.000000,,,,,,,,,,,,,,,,,,,,,,,,,
1577421051.041880,92.000000,0.000000,4156.410156,4309.743652,4180.512695,4132.820313,4145.128418,450.000000,4.000000,,,,0.000000,4.000000,4.000000,4.000000,4.000000,4.000000,,,,,,,,,,,,,,,,,,,,,,,,,
1577421051.049677,93.000000,0.000000,4157.948730,4333.846191,4181.025879,4136.410156,4147.692383,450.000000,4.000000,,,,0.000000,4.000000,4.000000,4.000000,4.000000,4.000000,,,,,,,,,,,,,,,,,,,,,,,,,
1577421051.057574,94.000000,0.000000,4213.846191,4386.153809,4229.230957,4175.384766,4206.153809,450.000000,4.000000,,,,0.000000,4.000000,4.000000,4.000000,4.000000,4.000000,,,,,,,,,,,,,,,,,,,,,,,,,
1577421051.065371,95.000000,0.000000,4227.692383,4413.333496,4245.641113,4194.871582,4225.128418,16208.000000,4.000000,,,,0.000000,4.000000,4.000000,4.000000,4.000000,4.000000,,,,,,,,,,,,,,,,,,,,,,,,,
1577421051.073268,96.000000,0.000000,4187.179688,4394.358887,4212.820313,4158.974121,4185.128418,450.000000,4.000000,,,,0.000000,4.000000,4.000000,4.000000,4.000000,4.000000,,,,,,,,,,,,,,,,,,,,,,,,,
1577421051.081066,97.000000,0.000000,4177.436035,4375.384766,4200.512695,4113.333496,4176.922852,450.000000,4.000000,,,,0.000000,4.000000,4.000000,4.000000,4.000000,4.000000,,,,,,,,,,,,,,,,,,,,,,,,,
1577421051.088963,98.000000,0.000000,4205.128418,4386.666504,4227.179688,4140.000000,4205.641113,450.000000,4.000000,,,,0.000000,4.000000,4.000000,4.000000,4.000000,4.000000,,,,,,,,,,,,,,,,,,,,,,,,,
1577421051.096760,99.000000,0.000000,4204.615234,4393.846191,4229.230957,4185.641113,4201.538574,16208.000000,4.000000,,,,0.000000,4.000000,4.000000,4.000000,4.000000,4.000000,,,,,,,,,,,,,,,,,,,,,,,,,
1577421051.104657,100.000000,0.000000,4171.794922,4378.461426,4194.358887,4159.487305,4163.589844,450.000000,4.000000,,,,0.000000,4.000000,4.000000,4.000000,4.000000,4.000000,,,,,,,,,,,,,,,,,,,,,,,,,
1577421051.112454,101.000000,0.000000,4165.128418,4373.333496,4188.717773,4124.615234,4150.256348,450.000000,4.000000,,,,0.000000,4.000000,4.000000,4.000000,4.000000,4.000000,,,,,,,,,,,,,,,,,,,,,,,,,
1577421051.120352,102.000000,0.000000,4189.743652,4380.512695,4220.000000,4153.333496,4175.384766,450.000000,4.000000,,,,0.000000,4.000000,4.000000,4.000000,4.000000,4.000000,,,,,,,,,,,,,,,,,,,,,,,,,
1577421051.128149,103.000000,0.000000,4180.000000,4373.333496,4221.025879,4161.025879,4173.846191,16208.000000,4.000000,,,,0.000000,4.000000,4.000000,4.000000,4.000000,4.000000,,,,,,,,,,,,,,,,,,,,,,,,,
1577421051.135846,104.000000,0.000000,4156.410156,4367.179688,4206.666504,4135.384766,4156.410156,450.000000,4.000000,,,,0.000000,4.000000,4.000000,4.000000,4.000000,4.000000,,,,,,,,,,,,,,,,,,,,,,,,,
1577421051.143643,105.000000,0.000000,4180.000000,4376.410156,4227.179688,4156.410156,4184.615234,450.000000,4.000000,,,,0.000000,4.000000,4.000000,4.000000,4.000000,4.000000,47.550922,7.406356,3.083018,1.789573,2.148669,32.406406,3.171959,1.754789,1.218483,0.982302,13.881583,3.613095,3.257733,1.314083,1.544991,4.214083,2.260223,6.559016,2.916676,2.026469,27.576031,3.818591,3.659168,1.821608,2.261808
1577421051.151341,106.000000,0.000000,4198.974121,4370.769043,4242.563965,4166.666504,4197.948730,450.000000,4.000000,,,,0.000000,4.000000,4.000000,4.000000,4.000000,4.000000,,,,,,,,,,,,,,,,,,,,,,,,,
1577421051.159138,107.000000,0.000000,4181.025879,4356.922852,4225.128418,4132.820313,4169.230957,16208.000000,4.000000,,,,0.000000,4.000000,4.000000,4.000000,4.000000,4.000000,,,,,,,,,,,,,,,,,,,,,,,,,
1577421051.166835,108.000000,0.000000,4172.307617,4364.615234,4216.410156,4131.794922,4161.538574,450.000000,4.000000,,,,0.000000,4.000000,4.000000,4.000000,4.000000,4.000000,,,,,,,,,,,,,,,,,,,,,,,,,
1577421051.174632,109.000000,0.000000,4169.743652,4362.563965,4218.461426,4151.794922,4163.589844,450.000000,4.000000,,,,0.000000,4.000000,4.000000,4.000000,4.000000,4.000000,,,,,,,,,,,,,,,,,,,,,,,,,
1577421051.182329,110.000000,0.000000,4156.410156,4346.666504,4212.307617,4132.820313,4150.769043,450.000000,4.000000,,,,0.000000,4.000000,4.000000,4.000000,4.000000,4.000000,,,,,,,,,,,,,,,,,,,,,,,,,
1577421051.190126,111.000000,0.000000,4161.538574,4354.358887,4214.871582,4117.948730,4154.358887,16208.000000,4.000000,,,,0.000000,4.000000,4.000000,4.000000,4.000000,4.000000,,,,,,,,,,,,,,,,,,,,,,,,,
1577421051.197823,112.000000,0.000000,4171.282227,4361.025879,4216.922852,4138.974121,4164.102539,450.000000,4.000000,,,,0.000000,4.000000,4.000000,4.000000,4.000000,4.000000,,,,,,,,,,,,,,,,,,,,,,,,,
1577421051.205620,113.000000,0.000000,4161.025879,4355.384766,4205.641113,4144.615234,4151.794922,450.000000,4.000000,,,,0.000000,4.000000,4.000000,4.000000,4.000000,4.000000,,,,,,,,,,,,,,,,,,,,,,,,,
1577421051.213317,114.000000,0.000000,4155.384766,4364.102539,4207.179688,4131.794922,4143.589844,450.000000,4.000000,,,,0.000000,4.000000,4.000000,4.000000,4.000000,4.000000,,,,,,,,,,,,,,,,,,,,,,,,,
1577421051.221114,115.000000,0.000000,4179.487305,4375.897461,4228.205078,4152.820313,4174.358887,16208.000000,4.000000,,,,0.000000,4.000000,4.000000,4.000000,4.000000,4.000000,,,,,,,,,,,,,,,,,,,,,,,,,
1577421051.228812,116.000000,0.000000,4206.666504,4372.820313,4239.487305,4192.307617,4210.256348,450.000000,4.000000,,,,0.000000,4.000000,4.000000,4.000000,4.000000,4.000000,,,,,,,,,,,,,,,,,,,,,,,,,
1577421051.236609,117.000000,0.000000,4208.205078,4366.153809,4228.717773,4180.000000,4210.256348,450.000000,4.000000,,,,0.000000,4.000000,4.000000,4.000000,4.000000,4.000000,,,,,,,,,,,,,,,,,,,,,,,,,
1577421051.244306,118.000000,0.000000,4208.717773,4360.512695,4223.077148,4150.769043,4207.692383,450.000000,4.000000,,,,0.000000,4.000000,4.000000,4.000000,4.000000,4.000000,,,,,,,,,,,,,,,,,,,,,,,,,
1577421051.252103,119.000000,0.000000,4199.487305,4340.000000,4212.820313,4153.846191,4200.000000,16208.000000,4.000000,,,,0.000000,4.000000,4.000000,4.000000,4.000000,4.000000,,,,,,,,,,,,,,,,,,,,,,,,,
1577421051.259800,120.000000,0.000000,4164.615234,4317.948730,4182.563965,4147.179688,4165.128418,450.000000,4.000000,,,,0.000000,4.000000,4.000000,4.000000,4.000000,4.000000,,,,,,,,,,,,,,,,,,,,,,,,,
1577421051.267697,121.000000,0.000000,4150.769043,4309.743652,4166.666504,4123.589844,4145.128418,450.000000,4.000000,,,,0.000000,4.000000,4.000000,4.000000,4.000000,4.000000,80.543800,11.325990,3.074694,2.000624,2.048339,29.470869,2.802584,1.598589,1.408336,1.018038,14.927558,4.406826,2.805954,1.437787,1.509532,4.522645,3.035878,6.579001,2.863132,1.991294,43.003719,5.356465,3.380302,1.995214,2.187138
1577421051.275494,122.000000,0.000000,4167.179688,4305.641113,4175.897461,4123.589844,4160.000000,450.000000,4.000000,,,,0.000000,4.000000,4.000000,4.000000,4.000000,4.000000,,,,,,,,,,,,,,,,,,,,,,,,,
1577421051.283391,123.000000,0.000000,4177.948730,4305.641113,4181.025879,4135.384766,4173.846191,16208.000000,4.000000,,,,0.000000,4.000000,4.000000,4.000000,4.000000,4.000000,,,,,,,,,,,,,,,,,,,,,,,,,
1577421051.291189,124.000000,0.000000,4166.153809,4289.743652,4167.179688,4121.538574,4158.461426,450.000000,4.000000,,,,0.000000,4.000000,4.000000,4.000000,4.000000,4.000000,,,,,,,,,,,,,,,,,,,,,,,,,
1577421051.299086,125.000000,0.000000,4170.769043,4257.948730,4166.666504,4126.153809,4158.974121,450.000000,4.000000,,,,0.000000,4.000000,4.000000,4.000000,4.000000,4.000000,,,,,,,,,,,,,,,,,,,,,,,,,
1577421051.306883,126.000000,0.000000,4212.307617,4258.461426,4191.794922,4161.538574,4196.410156,450.000000,4.000000,,,,0.000000,4.000000,4.000000,4.000000,4.000000,4.000000,,,,,,,,,,,,,,,,,,,,,,,,,
1577421051.314780,127.000000,0.000000,4219.487305,4272.307617,4189.743652,4149.230957,4202.051270,235.000000,4.000000,,,,0.000000,4.000000,4.000000,4.000000,4.000000,4.000000,,,,,,,,,,,,,,,,,,,,,,,,,
1577421051.322577,0.000000,0.000000,4183.077148,4267.179688,4165.128418,4112.307617,4170.769043,450.000000,4.000000,,,,0.000000,4.000000,4.000000,4.000000,4.000000,4.000000,,,,,,,,,,,,,,,,,,,,,,,,,
1577421051.330375,1.000000,0.000000,4163.077148,4266.666504,4161.538574,4114.871582,4150.769043,450.000000,4.000000,,,,0.000000,4.000000,4.000000,4.000000,4.000000,4.000000,,,,,,,,,,,,,,,,,,,,,,,,,
1577421051.338172,2.000000,0.000000,4154.358887,4283.589844,4162.563965,4116.922852,4137.948730,16214.000000,4.000000,,,,0.000000,4.000000,4.000000,4.000000,4.000000,4.000000,,,,,,,,,,,,,,,,,,,,,,,,,
1577421051.345869,3.000000,0.000000,4155.384766,4315.384766,4168.205078,4109.743652,4135.384766,450.000000,4.000000,,,,0.000000,4.000000,4.000000,4.000000,4.000000,4.000000,,,,,,,,,,,,,,,,,,,,,,,,,
1577421051.353666,4.000000,0.000000,4164.615234,4342.563965,4174.871582,4121.538574,4145.641113,16195.000000,4.000000,,,,0.000000,4.000000,4.000000,4.000000,4.000000,4.000000,,,,,,,,,,,,,,,,,,,,,,,,,
1577421051.361363,5.000000,0.000000,4174.871582,4351.794922,4177.436035,4138.974121,4159.487305,450.000000,4.000000,,,,0.000000,4.000000,4.000000,4.000000,4.000000,4.000000,,,,,,,,,,,,,,,,,,,,,,,,,
1577421051.369160,6.000000,0.000000,4200.512695,4354.871582,4197.436035,4159.487305,4180.000000,16142.000000,4.000000,,,,0.000000,4.000000,4.000000,4.000000,4.000000,4.000000,,,,,,,,,,,,,,,,,,,,,,,,,
1577421051.376858,7.000000,0.000000,4228.205078,4367.179688,4218.974121,4181.025879,4200.512695,450.000000,4.000000,,,,0.000000,4.000000,4.000000,4.000000,4.000000,4.000000,,,,,,,,,,,,,,,,,,,,,,,,,
1577421051.384655,8.000000,0.000000,4214.871582,4372.307617,4208.717773,4169.230957,4191.794922,450.000000,4.000000,,,,0.000000,4.000000,4.000000,4.000000,4.000000,4.000000,,,,,,,,,,,,,,,,,,,,,,,,,
1577421051.392352,9.000000,0.000000,4174.871582,4348.205078,4187.692383,4129.743652,4158.461426,16171.000000,4.000000,,,,0.000000,4.000000,4.000000,4.000000,4.000000,4.000000,115.708786,15.380220,3.076364,2.150342,1.954940,25.842932,2.854667,1.638137,1.544291,1.042734,15.518308,5.646120,2.533601,1.596767,1.483179,4.848141,4.213503,6.210326,2.859529,2.056645,59.200108,7.133741,3.067180,2.119891,2.098306
1577421051.400149,10.000000,0.000000,4176.922852,4329.743652,4190.769043,4132.820313,4162.051270,450.000000,4.000000,,,,0.000000,4.000000,4.000000,4.000000,4.000000,4.000000,,,,,,,,,,,,,,,,,,,,,,,,,
1577421051.407846,11.000000,0.000000,4200.512695,4337.948730,4198.974121,4150.769043,4181.025879,16210.000000,4.000000,,,,0.000000,4.000000,4.000000,4.000000,4.000000,4.000000,,,,,,,,,,,,,,,,,,,,,,,,,
1577421051.415743,12.000000,0.000000,4182.563965,4332.820313,4186.666504,4126.153809,4161.538574,450.000000,4.000000,,,,0.000000,4.000000,4.000000,4.000000,4.000000,4.000000,,,,,,,,,,,,,,,,,,,,,,,,,
1577421051.423540,13.000000,0.000000,4160.512695,4304.102539,4175.897461,4111.794922,4146.666504,450.000000,4.000000,,,,0.000000,4.000000,4.000000,4.000000,4.000000,4.000000,,,,,,,,,,,,,,,,,,,,,,,,,
1577421051.431437,14.000000,0.000000,4183.589844,4279.487305,4190.769043,4145.641113,4175.384766,450.000000,4.000000,,,,0.000000,4.000000,4.000000,4.000000,4.000000,4.000000,,,,,,,,,,,,,,,,,,,,,,,,,
1577421051.439235,15.000000,0.000000,4209.230957,4267.179688,4214.358887,4165.641113,4202.051270,16210.000000,4.000000,,,,0.000000,4.000000,4.000000,4.000000,4.000000,4.000000,,,,,,,,,,,,,,,,,,,,,,,,,
1577421051.447132,16.000000,0.000000,4203.077148,4252.820313,4213.846191,4148.205078,4195.897461,0.000000,4.000000,,,,0.000000,4.000000,4.000000,4.000000,4.000000,4.000000,,,,,,,,,,,,,,,,,,,,,,,,,
1577421051.454929,17.000000,0.000000,4199.487305,4227.692383,4204.615234,4150.769043,4194.871582,0.000000,4.000000,,,,0.000000,4.000000,4.000000,4.000000,4.000000,4.000000,,,,,,,,,,,,,,,,,,,,,,,,,
1577421051.462826,18.000000,0.000000,4205.128418,4208.717773,4204.615234,4157.948730,4205.128418,0.000000,4.000000,,,,0.000000,4.000000,4.000000,4.000000,4.000000,4.000000,,,,,,,,,,,,,,,,,,,,,,,,,
1577421051.470623,19.000000,0.000000,4188.717773,4204.102539,4190.769043,4129.230957,4193.333496,0.000000,4.000000,,,,0.000000,4.000000,4.000000,4.000000,4.000000,4.000000,,,,,,,,,,,,,,,,,,,,,,,,,
1577421051.478520,20.000000,0.000000,4169.743652,4196.922852,4170.769043,4110.769043,4175.897461,0.000000,4.000000,,,,0.000000,4.000000,4.000000,4.000000,4.000000,4.000000,,,,,,,,,,,,,,,,,,,,,,,,,
1577421051.486318,21.000000,0.000000,4169.743652,4184.615234,4170.256348,4123.589844,4168.717773,0.000000,4.000000,,,,0.000000,4.000000,4.000000,4.000000,4.000000,4.000000,,,,,,,,,,,,,,,,,,,,,,,,,
1577421051.494215,22.000000,0.000000,4172.820313,4200.512695,4183.077148,4126.666504,4168.717773,0.000000,4.000000,,,,0.000000,4.000000,4.000000,4.000000,4.000000,4.000000,,,,,,,,,,,,,,,,,,,,,,,,,
1577421051.502012,23.000000,0.000000,4173.846191,4258.974121,4191.282227,4119.487305,4176.922852,0.000000,4.000000,,,,0.000000,4.000000,4.000000,4.000000,4.000000,4.000000,,,,,,,,,,,,,,,,,,,,,,,,,
1577421051.509909,24.000000,0.000000,4172.820313,4311.282227,4186.153809,4124.615234,4173.333496,0.000000,4.000000,,,,0.000000,4.000000,4.000000,4.000000,4.000000,4.000000,,,,,,,,,,,,,,,,,,,,,,,,,
1577421051.517706,25.000000,0.000000,4193.333496,4341.538574,4201.538574,4145.128418,4189.743652,0.000000,4.000000,,,,0.000000,4.000000,4.000000,4.000000,4.000000,4.000000,142.758682,18.333258,3.185211,2.173821,1.906318,23.477249,3.569155,1.956896,1.595554,1.065315,14.936110,7.005508,2.600898,1.697226,1.481476,5.248605,5.527397,5.581680,2.834363,2.190728,71.488998,8.685054,2.943342,2.140604,2.042094
1577421051.525504,26.000000,0.000000,4224.615234,4357.436035,4241.538574,4163.077148,4227.692383,0.000000,4.000000,,,,0.000000,4.000000,4.000000,4.000000,4.000000,4.000000,,,,,,,,,,,,,,,,,,,,,,,,,
1577421051.533301,27.000000,0.000000,4202.051270,4339.487305,4238.461426,4137.948730,4206.153809,0.000000,4.000000,,,,0.000000,4.000000,4.000000,4.000000,4.000000,4.000000,,,,,,,,,,,,,,,,,,,,,,,,,
1577421051.540998,28.000000,0.000000,4173.333496,4327.692383,4214.871582,4106.666504,4170.769043,0.000000,4.000000,,,,0.000000,4.000000,4.000000,4.000000,4.000000,4.000000,,,,,,,,,,,,,,,,,,,,,,,,,
1577421051.548796,29.000000,0.000000,4201.538574,4335.384766,4230.769043,4135.384766,4195.897461,0.000000,4.000000,,,,0.000000,4.000000,4.000000,4.000000,4.000000,4.000000,,,,,,,,,,,,,,,,,,,,,,,,,
1577421051.556493,30.000000,0.000000,4215.384766,4300.000000,4237.948730,4165.128418,4215.897461,0.000000,4.000000,,,,0.000000,4.000000,4.000000,4.000000,4.000000,4.000000,,,,,,,,,,,,,,,,,,,,,,,,,
1577421051.564390,31.000000,0.000000,4202.563965,4252.820313,4226.666504,4152.820313,4201.025879,0.000000,4.000000,,,,0.000000,4.000000,4.000000,4.000000,4.000000,4.000000,,,,,,,,,,,,,,,,,,,,,,,,,
1577421051.572187,32.000000,0.000000,4202.051270,4224.615234,4218.461426,4134.358887,4191.794922,0.000000,4.000000,,,,0.000000,4.000000,4.000000,4.000000,4.000000,4.000000,,,,,,,,,,,,,,,,,,,,,,,,,
1577421051.580084,33.000000,0.000000,4195.897461,4180.000000,4199.487305,4131.794922,4188.717773,0.000000,4.000000,,,,0.000000,4.000000,4.000000,4.000000,4.000000,4.000000,,,,,,,,,,,,,,,,,,,,,,,,,
1577421051.587881,34.000000,0.000000,4205.641113,4155.897461,4204.615234,4151.794922,4203.077148,0.000000,4.000000,,,,0.000000,4.000000,4.000000,4.000000,4.000000,4.000000,,,,,,,,,,,,,,,,,,,,,,,,,
1577421051.595779,35.000000,0.000000,4229.743652,4172.307617,4218.974121,4165.128418,4227.692383,0.000000,4.000000,,,,0.000000,4.000000,4.000000,4.000000,4.000000,4.000000,,,,,,,,,,,,,,,,,,,,,,,,,
1577421051.603576,36.000000,0.000000,4214.871582,4171.282227,4192.820313,4150.769043,4214.871582,0.000000,4.000000,,,,0.000000,4.000000,4.000000,4.000000,4.000000,4.000000,,,,,,,,,,,,,,,,,,,,,,,,,
1577421051.611473,37.000000,0.000000,4188.717773,4154.871582,4160.512695,4120.512695,4186.666504,0.000000,4.000000,,,,0.000000,4.000000,4.000000,4.000000,4.000000,4.000000,,,,,,,,,,,,,,,,,,,,,,,,,
1577421051.619270,38.000000,0.000000,4200.000000,4154.358887,4161.538574,4112.820313,4193.846191,0.000000,4.000000,,,,0.000000,4.000000,4.000000,4.000000,4.000000,4.000000,,,,,,,,,,,,,,,,,,,,,,,,,
1577421051.627167,39.000000,0.000000,4227.179688,4169.230957,4172.820313,4143.077148,4216.922852,0.000000,4.000000,,,,0.000000,4.000000,4.000000,4.000000,4.000000,4.000000,,,,,,,,,,,,,,,,,,,,,,,,,
1577421051.634965,40.000000,0.000000,4218.974121,4181.538574,4163.589844,4151.282227,4203.589844,0.000000,4.000000,,,,0.000000,4.000000,4.000000,4.000000,4.000000,4.000000,,,,,,,,,,,,,,,,,,,,,,,,,
1577421051.642862,41.000000,0.000000,4187.179688,4186.666504,4150.256348,4130.256348,4170.256348,0.000000,4.000000,,,,0.000000,4.000000,4.000000,4.000000,4.000000,4.000000,151.965485,19.214581,3.729469,2.082563,1.928301,24.285946,4.851792,2.559533,1.570389,1.092568,13.281896,8.043166,3.090611,1.679273,1.510669,5.721506,6.589393,5.044865,2.723136,2.350676,75.311981,9.563675,3.412616,2.071752,2.050048
1577421051.650659,42.000000,0.000000,4181.538574,4193.333496,4160.512695,4127.692383,4169.230957,0.000000,4.000000,,,,0.000000,4.000000,4.000000,4.000000,4.000000,4.000000,,,,,,,,,,,,,,,,,,,,,,,,,
1577421051.658456,43.000000,0.000000,4200.512695,4197.948730,4184.615234,4141.538574,4193.846191,0.000000,4.000000,,,,0.000000,4.000000,4.000000,4.000000,4.000000,4.000000,,,,,,,,,,,,,,,,,,,,,,,,,
1577421051.666153,44.000000,0.000000,4210.256348,4207.179688,4198.974121,4150.769043,4202.051270,0.000000,4.000000,,,,0.000000,4.000000,4.000000,4.000000,4.000000,4.000000,,,,,,,,,,,,,,,,,,,,,,,,,
1577421051.674050,45.000000,0.000000,4207.692383,4221.538574,4202.563965,4156.922852,4197.948730,0.000000,4.000000,,,,0.000000,4.000000,4.000000,4.000000,4.000000,4.000000,,,,,,,,,,,,,,,,,,,,,,,,,
1577421051.681848,46.000000,0.000000,4220.512695,4226.666504,4218.974121,4166.153809,4216.922852,0.000000,4.000000,,,,0.000000,4.000000,4.000000,4.000000,4.000000,4.000000,,,,,,,,,,,,,,,,,,,,,,,,,
1577421051.689745,47.000000,0.000000,4244.615234,4221.538574,4234.871582,4180.000000,4237.948730,0.000000,4.000000,,,,0.000000,4.000000,4.000000,4.000000,4.000000,4.000000,,,,,,,,,,,,,,,,,,,,,,,,,
1577421051.697542,48.000000,0.000000,4242.563965,4219.487305,4213.846191,4182.563965,4229.743652,0.000000,4.000000,,,,0.000000,4.000000,4.000000,4.000000,4.000000,4.000000,,,,,,,,,,,,,,,,,,,,,,,,,
1577421051.705439,49.000000,0.000000,4224.102539,4222.563965,4181.025879,4158.461426,4216.410156,0.000000,4.000000,,,,0.000000,4.000000,4.000000,4.000000,4.000000,4.000000,,,,,,,,,,,,,,,,,,,,,,,,,
1577421051.713236,50.000000,0.000000,4214.358887,4205.128418,4168.717773,4134.871582,4203.589844,0.000000,4.000000,,,,0.000000,4.000000,4.000000,4.000000,4.000000,4.000000,,,,,,,,,,,,,,,,,,,,,,,,,
1577421051.721034,51.000000,0.000000,4205.641113,4181.538574,4158.974121,4133.333496,4184.102539,0.000000,4.000000,,,,0.000000,4.000000,4.000000,4.000000,4.000000,4.000000,,,,,,,,,,,,,,,,,,,,,,,,,
1577421051.728731,52.000000,0.000000,4198.461426,4185.641113,4153.333496,4140.512695,4175.897461,0.000000,4.000000,,,,0.000000,4.000000,4.000000,4.000000,4.000000,4.000000,,,,,,,,,,,,,,,,,,,,,,,,,
1577421051.736428,53.000000,0.000000,4193.333496,4185.128418,4158.974121,4144.102539,4176.410156,0.000000,4.000000,,,,0.000000,4.000000,4.000000,4.000000,4.000000,4.000000,,,,,,,,,,,,,,,,,,,,,,,,,
1577421051.744225,54.000000,0.000000,4183.077148,4157.436035,4158.461426,4126.153809,4166.666504,0.000000,4.000000,,,,0.000000,4.000000,4.000000,4.000000,4.000000,4.000000,,,,,,,,,,,,,,,,,,,,,,,,,
1577421051.751922,55.000000,0.000000,4170.769043,4133.333496,4142.051270,4098.461426,4153.846191,0.000000,4.000000,,,,0.000000,4.000000,4.000000,4.000000,4.000000,4.000000,,,,,,,,,,,,,,,,,,,,,,,,,
1577421051.759719,56.000000,0.000000,4161.538574,4128.205078,4130.256348,4101.025879,4149.743652,0.000000,4.000000,,,,0.000000,4.000000,4.000000,4.000000,4.000000,4.000000,,,,,,,,,,,,,,,,,,,,,,,,,
1577421051.767417,57.000000,0.000000,4152.820313,4127.692383,4137.948730,4116.922852,4144.615234,0.000000,4.000000,,,,0.000000,4.000000,4.000000,4.000000,4.000000,4.000000,140.143600,17.767862,4.948310,1.906804,2.010766,30.155882,6.447913,3.366034,1.499740,1.121485,10.925626,8.428367,3.961281,1.523583,1.556027,6.185688,7.064038,4.958389,2.491885,2.498060,69.228996,9.530190,4.724008,1.940862,2.112886
1577421051.775214,58.000000,0.000000,4140.000000,4116.410156,4136.922852,4096.410156,4130.769043,0.000000,4.000000,,,,0.000000,4.000000,4.000000,4.000000,4.000000,4.000000,,,,,,,,,,,,,,,,,,,,,,,,,
1577421051.782911,59.000000,0.000000,4137.436035,4114.871582,4130.769043,4086.153809,4129.230957,0.000000,4.000000,,,,0.000000,4.000000,4.000000,4.000000,4.000000,4.000000,,,,,,,,,,,,,,,,,,,,,,,,,
1577421051.790708,60.000000,0.000000,4164.102539,4141.025879,4148.717773,4116.922852,4155.384766,0.000000,4.000000,,,,0.000000,4.000000,4.000000,4.000000,4.000000,4.000000,,,,,,,,,,,,,,,,,,,,,,,,,
1577421051.798405,61.000000,0.000000,4201.538574,4162.563965,4158.974121,4130.769043,4193.333496,0.000000,4.000000,,,,0.000000,4.000000,4.000000,4.000000,4.000000,4.000000,,,,,,,,,,,,,,,,,,,,,,,,,
1577421051.806202,62.000000,0.000000,4194.358887,4153.846191,4118.461426,4116.922852,4188.205078,0.000000,4.000000,,,,0.000000,4.000000,4.000000,4.000000,4.000000,4.000000,,,,,,,,,,,,,,,,,,,,,,,,,
1577421051.813899,63.000000,0.000000,4137.948730,4128.717773,4069.743652,4088.718018,4133.333496,0.000000,4.000000,,,,0.000000,4.000000,4.000000,4.000000,4.000000,4.000000,,,,,,,,,,,,,,,,,,,,,,,,,
1577421051.821696,64.000000,0.000000,4117.948730,4115.384766,4071.281982,4068.718018,4112.307617,450.000000,4.000000,,,,0.000000,4.000000,4.000000,4.000000,4.000000,4.000000,,,,,,,,,,,,,,,,,,,,,,,,,
1577421051.829393,65.000000,0.000000,4169.230957,4134.358887,4108.717773,4098.461426,4155.897461,450.000000,4.000000,,,,0.000000,4.000000,4.000000,4.000000,4.000000,4.000000,,,,,,,,,,,,,,,,,,,,,,,,,
1577421051.837190,66.000000,0.000000,4211.282227,4166.666504,4134.871582,4142.051270,4198.461426,16202.000000,4.000000,,,,0.000000,4.000000,4.000000,4.000000,4.000000,4.000000,,,,,,,,,,,,,,,,,,,,,,,,,
1577421051.844887,67.000000,0.000000,4198.974121,4165.641113,4132.307617,4128.205078,4189.743652,450.000000,4.000000,,,,0.000000,4.000000,4.000000,4.000000,4.000000,4.000000,,,,,,,,,,,,,,,,,,,,,,,,,
1577421051.852784,68.000000,0.000000,4175.897461,4134.871582,4115.897461,4092.820557,4160.512695,16204.000000,4.000000,,,,0.000000,4.000000,4.000000,4.000000,4.000000,4.000000,,,,,,,,,,,,,,,,,,,,,,,,,
1577421051.860581,69.000000,0.000000,4179.487305,4134.871582,4121.025879,4102.563965,4166.153809,450.000000,4.000000,,,,0.000000,4.000000,4.000000,4.000000,4.000000,4.000000,,,,,,,,,,,,,,,,,,,,,,,,,
1577421051.868479,70.000000,0.000000,4193.333496,4154.871582,4149.230957,4131.282227,4184.102539,16141.000000,4.000000,,,,0.000000,4.000000,4.000000,4.000000,4.000000,4.000000,,,,,,,,,,,,,,,,,,,,,,,,,
1577421051.876276,71.000000,0.000000,4191.282227,4149.230957,4162.563965,4133.846191,4174.871582,450.000000,4.000000,,,,0.000000,4.000000,4.000000,4.000000,4.000000,4.000000,,,,,,,,,,,,,,,,,,,,,,,,,
1577421051.884173,72.000000,0.000000,4182.563965,4145.128418,4169.230957,4123.589844,4166.153809,450.000000,4.000000,,,,0.000000,4.000000,4.000000,4.000000,4.000000,4.000000,,,,,,,,,,,,,,,,,,,,,,,,,
1577421051.891970,73.000000,0.000000,4189.230957,4163.589844,4188.205078,4122.563965,4177.948730,16160.000000,4.000000,,,,0.000000,4.000000,4.000000,4.000000,4.000000,4.000000,111.250938,14.535000,6.801266,1.699446,2.123312,42.159607,8.282501,4.192565,1.425660,1.139733,8.841510,8.052092,4.998008,1.275848,1.594861,6.520404,6.827342,5.487909,2.162306,2.623029,55.212658,8.645221,6.784855,1.790059,2.199501
1577421051.899668,74.000000,0.000000,4194.871582,4169.743652,4186.666504,4117.948730,4181.025879,450.000000,4.000000,,,,0.000000,4.000000,4.000000,4.000000,4.000000,4.000000,,,,,,,,,,,,,,,,,,,,,,,,,
1577421051.907465,75.000000,0.000000,4162.563965,4159.487305,4152.820313,4087.692383,4146.153809,16208.000000,4.000000,,,,0.000000,4.000000,4.000000,4.000000,4.000000,4.000000,,,,,,,,,,,,,,,,,,,,,,,,,
1577421051.915362,76.000000,0.000000,4132.307617,4163.077148,4130.769043,4066.153809,4116.410156,450.000000,4.000000,,,,0.000000,4.000000,4.000000,4.000000,4.000000,4.000000,,,,,,,,,,,,,,,,,,,,,,,,,
1577421051.923159,77.000000,0.000000,4168.717773,4187.692383,4163.077148,4108.205078,4155.384766,450.000000,4.000000,,,,0.000000,4.000000,4.000000,4.000000,4.000000,4.000000,,,,,,,,,,,,,,,,,,,,,,,,,
1577421051.930856,78.000000,0.000000,4199.487305,4201.538574,4194.871582,4142.051270,4191.794922,450.000000,4.000000,,,,0.000000,4.000000,4.000000,4.000000,4.000000,4.000000,,,,,,,,,,,,,,,,,,,,,,,,,
1577421051.938653,79.000000,0.000000,4161.025879,4197.948730,4177.436035,4101.538574,4155.897461,16208.000000,4.000000,,,,0.000000,4.000000,4.000000,4.000000,4.000000,4.000000,,,,,,,,,,,,,,,,,,,,,,,,,
1577421051.946350,80.000000,0.000000,4152.820313,4217.948730,4184.615234,4092.307617,4140.000000,450.000000,4.000000,,,,0.000000,4.000000,4.000000,4.000000,4.000000,4.000000,,,,,,,,,,,,,,,,,,,,,,,,,
1577421051.954147,81.000000,0.000000,4204.615234,4276.922852,4249.743652,4142.051270,4182.563965,450.000000,4.000000,,,,0.000000,4.000000,4.000000,4.000000,4.000000,4.000000,,,,,,,,,,,,,,,,,,,,,,,,,
1577421051.961844,82.000000,0.000000,4217.436035,4342.051270,4285.128418,4145.641113,4196.922852,450.000000,4.000000,,,,0.000000,4.000000,4.000000,4.000000,4.000000,4.000000,,,,,,,,,,,,,,,,,,,,,,,,,
1577421051.969641,83.000000,0.000000,4184.102539,4389.743652,4271.794922,4114.358887,4167.179688,16208.000000,4.000000,,,,0.000000,4.000000,4.000000,4.000000,4.000000,4.000000,,,,,,,,,,,,,,,,,,,,,,,,,
1577421051.977339,84.000000,0.000000,4169.230957,4411.794922,4268.717773,4116.410156,4153.333496,450.000000,4.000000,,,,0.000000,4.000000,4.000000,4.000000,4.000000,4.000000,,,,,,,,,,,,,,,,,,,,,,,,,
1577421051.985236,85.000000,0.000000,4172.820313,4418.974121,4275.897461,4124.102539,4158.974121,450.000000,4.000000,,,,0.000000,4.000000,4.000000,4.000000,4.000000,4.000000,,,,,,,,,,,,,,,,,,,,,,,,,
1577421051.993033,86.000000,0.000000,4175.384766,4426.153809,4272.820313,4121.538574,4162.563965,450.000000,4.000000,,,,0.000000,4.000000,4.000000,4.000000,4.000000,4.000000,,,,,,,,,,,,,,,,,,,,,,,,,
1577421052.000930,87.000000,0.000000,4186.666504,4433.333496,4270.256348,4134.358887,4174.871582,16208.000000,4.000000,,,,0.000000,4.000000,4.000000,4.000000,4.000000,4.000000,,,,,,,,,,,,,,,,,,,,,,,,,
1577421052.008727,88.000000,0.000000,4184.615234,4424.615234,4254.871582,4131.794922,4169.230957,450.000000,4.000000,,,,0.000000,4.000000,4.000000,4.000000,4.000000,4.000000,,,,,,,,,,,,,,,,,,,,,,,,,
1577421052.016624,89.000000,0.000000,4162.051270,4400.000000,4228.717773,4100.512695,4145.641113,450.000000,4.000000,,,,0.000000,4.000000,4.000000,4.000000,4.000000,4.000000,75.385078,10.547379,8.914618,1.542698,2.232732,60.069450,10.345474,4.851236,1.398041,1.135480,7.847067,7.149052,5.976990,1.029796,1.610305,6.692985,5.978966,6.493290,1.819942,2.718606,38.138069,7.221366,9.150369,1.680058,2.276054
1577421052.024422,90.000000,0.000000,4181.538574,4402.563965,4243.589844,4108.717773,4168.205078,450.000000,4.000000,,,,0.000000,4.000000,4.000000,4.000000,4.000000,4.000000,,,,,,,,,,,,,,,,,,,,,,,,,
1577421052.032319,91.000000,0.000000,4236.922852,4431.794922,4286.666504,4165.128418,4221.538574,16208.000000,4.000000,,,,0.000000,4.000000,4.000000,4.000000,4.000000,4.000000,,,,,,,,,,,,,,,,,,,,,,,,,
1577421052.040116,92.000000,0.000000,4249.230957,4414.871582,4289.230957,4189.743652,4230.769043,450.000000,4.000000,,,,0.000000,4.000000,4.000000,4.000000,4.000000,4.000000,,,,,,,,,,,,,,,,,,,,,,,,,
1577421052.048013,93.000000,0.000000,4217.436035,4353.846191,4258.461426,4153.846191,4197.436035,450.000000,4.000000,,,,0.000000,4.000000,4.000000,4.000000,4.000000,4.000000,,,,,,,,,,,,,,,,,,,,,,,,,
1577421052.055811,94.000000,0.000000,4209.743652,4319.487305,4244.102539,4123.077148,4185.128418,450.000000,4.000000,,,,0.000000,4.000000,4.000000,4.000000,4.000000,4.000000,,,,,,,,,,,,,,,,,,,,,,,,,
1577421052.063708,95.000000,0.000000,4235.897461,4324.615234,4252.820313,4140.512695,4207.179688,16208.000000,4.000000,,,,0.000000,4.000000,4.000000,4.000000,4.000000,4.000000,,,,,,,,,,,,,,,,,,,,,,,,,
1577421052.071505,96.000000,0.000000,4237.436035,4327.179688,4252.820313,4160.512695,4205.641113,450.000000,4.000000,,,,0.000000,4.000000,4.000000,4.000000,4.000000,4.000000,,,,,,,,,,,,,,,,,,,,,,,,,
1577421052.079402,97.000000,0.000000,4203.589844,4306.666504,4235.897461,4139.487305,4176.410156,450.000000,4.000000,,,,0.000000,4.000000,4.000000,4.000000,4.000000,4.000000,,,,,,,,,,,,,,,,,,,,,,,,,
1577421052.087199,98.000000,0.000000,4186.666504,4288.717773,4229.743652,4108.717773,4164.615234,450.000000,4.000000,,,,0.000000,4.000000,4.000000,4.000000,4.000000,4.000000,,,,,,,,,,,,,,,,,,,,,,,,,
1577421052.094997,99.000000,0.000000,4198.974121,4312.307617,4238.974121,4122.051270,4173.846191,16208.000000,4.000000,,,,0.000000,4.000000,4.000000,4.000000,4.000000,4.000000,,,,,,,,,,,,,,,,,,,,,,,,,
1577421052.102794,100.000000,0.000000,4207.179688,4369.743652,4246.666504,4156.410156,4181.538574,450.000000,4.000000,,,,0.000000,4.000000,4.000000,4.000000,4.000000,4.000000,,,,,,,,,,,,,,,,,,,,,,,,,
1577421052.110491,101.000000,0.000000,4175.384766,4391.794922,4227.179688,4127.692383,4152.307617,450.000000,4.000000,,,,0.000000,4.000000,4.000000,4.000000,4.000000,4.000000,,,,,,,,,,,,,,,,,,,,,,,,,
1577421052.118288,102.000000,0.000000,4144.615234,4374.871582,4208.205078,4084.615479,4120.000000,450.000000,4.000000,,,,0.000000,4.000000,4.000000,4.000000,4.000000,4.000000,,,,,,,,,,,,,,,,,,,,,,,,,
1577421052.125985,103.000000,0.000000,4185.641113,4389.230957,4243.077148,4125.641113,4157.436035,16208.000000,4.000000,,,,0.000000,4.000000,4.000000,4.000000,4.000000,4.000000,,,,,,,,,,,,,,,,,,,,,,,,,
1577421052.133782,104.000000,0.000000,4228.717773,4415.384766,4274.358887,4165.641113,4201.025879,450.000000,4.000000,,,,0.000000,4.000000,4.000000,4.000000,4.000000,4.000000,,,,,,,,,,,,,,,,,,,,,,,,,
1577421052.141480,105.000000,0.000000,4217.436035,4418.461426,4258.461426,4147.179688,4194.871582,450.000000,4.000000,,,,0.000000,4.000000,4.000000,4.000000,4.000000,4.000000,42.628834,6.985411,10.695913,1.525988,2.321696,80.968124,12.601529,5.187996,1.461835,1.106034,8.397262,6.331245,6.683762,0.905039,1.601233,6.744280,4.854992,7.578236,1.574307,2.779465,22.810495,5.757309,11.143826,1.681535,2.330735
1577421052.149277,106.000000,0.000000,4217.948730,4410.769043,4251.282227,4149.230957,4195.897461,450.000000,4.000000,,,,0.000000,4.000000,4.000000,4.000000,4.000000,4.000000,,,,,,,,,,,,,,,,,,,,,,,,,
1577421052.156974,107.000000,0.000000,4235.897461,4395.897461,4260.512695,4157.948730,4210.256348,16208.000000,4.000000,,,,0.000000,4.000000,4.000000,4.000000,4.000000,4.000000,,,,,,,,,,,,,,,,,,,,,,,,,
1577421052.164871,108.000000,0.000000,4227.179688,4386.153809,4256.922852,4141.025879,4201.538574,450.000000,4.000000,,,,0.000000,4.000000,4.000000,4.000000,4.000000,4.000000,,,,,,,,,,,,,,,,,,,,,,,,,
1577421052.172668,109.000000,0.000000,4220.512695,4389.230957,4260.000000,4144.102539,4196.922852,450.000000,4.000000,,,,0.000000,4.000000,4.000000,4.000000,4.000000,4.000000,,,,,,,,,,,,,,,,,,,,,,,,,
1577421052.180565,110.000000,0.000000,4229.743652,4384.615234,4268.205078,4157.436035,4204.102539,450.000000,4.000000,,,,0.000000,4.000000,4.000000,4.000000,4.000000,4.000000,,,,,,,,,,,,,,,,,,,,,,,,,
1577421052.188362,111.000000,0.000000,4223.077148,4367.179688,4257.948730,4153.333496,4192.307617,16208.000000,4.000000,,,,0.000000,4.000000,4.000000,4.000000,4.000000,4.000000,,,,,,,,,,,,,,,,,,,,,,,,,
1577421052.196160,112.000000,0.000000,4219.487305,4355.897461,4253.333496,4148.717773,4193.846191,450.000000,4.000000,,,,0.000000,4.000000,4.000000,4.000000,4.000000,4.000000,,,,,,,,,,,,,,,,,,,,,,,,,
1577421052.203857,113.000000,0.000000,4218.974121,4342.563965,4245.641113,4127.692383,4197.948730,450.000000,4.000000,,,,0.000000,4.000000,4.000000,4.000000,4.000000,4.000000,,,,,,,,,,,,,,,,,,,,,,,,,
1577421052.211654,114.000000,0.000000,4206.153809,4338.974121,4231.794922,4114.358887,4178.461426,450.000000,4.000000,,,,0.000000,4.000000,4.000000,4.000000,4.000000,4.000000,,,,,,,,,,,,,,,,,,,,,,,,,
1577421052.219351,115.000000,0.000000,4217.436035,4362.051270,4250.769043,4155.897461,4195.897461,16208.000000,4.000000,,,,0.000000,4.000000,4.000000,4.000000,4.000000,4.000000,,,,,,,,,,,,,,,,,,,,,,,,,
1577421052.227248,116.000000,0.000000,4251.282227,4367.692383,4273.333496,4187.692383,4238.974121,450.000000,4.000000,,,,0.000000,4.000000,4.000000,4.000000,4.000000,4.000000,,,,,,,,,,,,,,,,,,,,,,,,,
1577421052.235045,117.000000,0.000000,4248.717773,4329.743652,4246.666504,4161.538574,4229.230957,450.000000,4.000000,,,,0.000000,4.000000,4.000000,4.000000,4.000000,4.000000,,,,,,,,,,,,,,,,,,,,,,,,,
1577421052.242842,118.000000,0.000000,4220.000000,4292.307617,4204.615234,4137.948730,4196.922852,450.000000,4.000000,,,,0.000000,4.000000,4.000000,4.000000,4.000000,4.000000,,,,,,,,,,,,,,,,,,,,,,,,,
1577421052.250540,119.000000,0.000000,4217.948730,4287.692383,4192.820313,4135.897461,4200.000000,16208.000000,4.000000,,,,0.000000,4.000000,4.000000,4.000000,4.000000,4.000000,,,,,,,,,,,,,,,,,,,,,,,,,
1577421052.258337,120.000000,0.000000,4236.410156,4292.820313,4194.871582,4143.077148,4218.461426,450.000000,4.000000,,,,0.000000,4.000000,4.000000,4.000000,4.000000,4.000000,,,,,,,,,,,,,,,,,,,,,,,,,
1577421052.266034,121.000000,0.000000,4252.820313,4288.717773,4200.000000,4178.974121,4228.717773,450.000000,4.000000,,,,0.000000,4.000000,4.000000,4.000000,4.000000,4.000000,20.340490,4.706028,11.535564,1.708714,2.411860,101.082809,14.994776,5.183990,1.636665,1.075987,10.074661,6.241156,6.921735,1.002458,1.591707,6.772713,3.863233,8.212727,1.516851,2.825214,12.631402,4.762065,12.109123,1.843609,2.394886
1577421052.273931,122.000000,0.000000,4236.410156,4259.487305,4189.230957,4178.461426,4212.307617,450.000000,4.000000,,,,0.000000,4.000000,4.000000,4.000000,4.000000,4.000000,,,,,,,,,,,,,,,,,,,,,,,,,
1577421052.281728,123.000000,0.000000,4211.282227,4236.922852,4168.205078,4137.436035,4190.769043,16208.000000,4.000000,,,,0.000000,4.000000,4.000000,4.000000,4.000000,4.000000,,,,,,,,,,,,,,,,,,,,,,,,,
1577421052.289625,124.000000,0.000000,4232.820313,4252.307617,4177.436035,4152.820313,4208.205078,450.000000,4.000000,,,,0.000000,4.000000,4.000000,4.000000,4.000000,4.000000,,,,,,,,,,,,,,,,,,,,,,,,,
1577421052.297422,125.000000,0.000000,4260.000000,4256.410156,4188.717773,4191.794922,4232.307617,450.000000,4.000000,,,,0.000000,4.000000,4.000000,4.000000,4.000000,4.000000,,,,,,,,,,,,,,,,,,,,,,,,,
1577421052.305320,126.000000,0.000000,4250.256348,4236.410156,4171.282227,4177.948730,4225.128418,450.000000,4.000000,,,,0.000000,4.000000,4.000000,4.000000,4.000000,4.000000,,,,,,,,,,,,,,,,,,,,,,,,,
1577421052.313117,127.000000,0.000000,4221.025879,4228.205078,4140.000000,4139.487305,4198.974121,235.000000,4.000000,,,,0.000000,4.000000,4.000000,4.000000,4.000000,4.000000,,,,,,,,,,,,,,,,,,,,,,,,,
1577421052.320814,0.000000,0.000000,4206.666504,4235.384766,4119.487305,4127.179688,4182.563965,450.000000,4.000000,,,,0.000000,4.000000,4.000000,4.000000,4.000000,4.000000,,,,,,,,,,,,,,,,,,,,,,,,,
1577421052.328611,1.000000,0.000000,4209.743652,4231.282227,4118.974121,4123.589844,4181.025879,450.000000,4.000000,,,,0.000000,4.000000,4.000000,4.000000,4.000000,4.000000,,,,,,,,,,,,,,,,,,,,,,,,,
1577421052.336309,2.000000,0.000000,4224.615234,4224.615234,4134.358887,4133.333496,4197.948730,16216.000000,4.000000,,,,0.000000,4.000000,4.000000,4.000000,4.000000,4.000000,,,,,,,,,,,,,,,,,,,,,,,,,
1577421052.344106,3.000000,0.000000,4248.205078,4248.717773,4161.538574,4170.769043,4229.230957,450.000000,4.000000,,,,0.000000,4.000000,4.000000,4.000000,4.000000,4.000000,,,,,,,,,,,,,,,,,,,,,,,,,
1577421052.351803,4.000000,0.000000,4249.743652,4266.153809,4167.179688,4176.922852,4232.820313,16204.000000,4.000000,,,,0.000000,4.000000,4.000000,4.000000,4.000000,4.000000,,,,,,,,,,,,,,,,,,,,,,,,,
1577421052.359600,5.000000,0.000000,4232.820313,4245.641113,4149.230957,4143.589844,4212.820313,450.000000,4.000000,,,,0.000000,4.000000,4.000000,4.000000,4.000000,4.000000,,,,,,,,,,,,,,,,,,,,,,,,,
1577421052.367297,6.000000,0.000000,4243.077148,4240.000000,4156.410156,4151.282227,4222.563965,16143.000000,4.000000,,,,0.000000,4.000000,4.000000,4.000000,4.000000,4.000000,,,,,,,,,,,,,,,,,,,,,,,,,
1577421052.375094,7.000000,0.000000,4258.974121,4260.000000,4173.846191,4182.051270,4238.974121,450.000000,4.000000,,,,0.000000,4.000000,4.000000,4.000000,4.000000,4.000000,,,,,,,,,,,,,,,,,,,,,,,,,
1577421052.382791,8.000000,0.000000,4252.820313,4265.641113,4171.282227,4177.948730,4230.769043,450.000000,4.000000,,,,0.000000,4.000000,4.000000,4.000000,4.000000,4.000000,,,,,,,,,,,,,,,,,,,,,,,,,
1577421052.390588,9.000000,0.000000,4254.358887,4259.487305,4175.384766,4164.102539,4227.179688,16164.000000,4.000000,,,,0.000000,4.000000,4.000000,4.000000,4.000000,4.000000,9.895639,3.937818,11.065107,2.072247,2.546805,118.965424,17.291435,4.986625,1.894059,1.093430,12.708944,7.233173,6.649437,1.350939,1.617954,6.804106,3.310025,8.007381,1.667914,2.907734,8.120749,4.516664,11.677780,2.153571,2.516654
1577421052.398285,10.000000,0.000000,4250.769043,4252.307617,4182.051270,4140.512695,4223.589844,450.000000,4.000000,,,,0.000000,4.000000,4.000000,4.000000,4.000000,4.000000,,,,,,,,,,,,,,,,,,,,,,,,,
1577421052.406082,11.000000,0.000000,4232.307617,4242.563965,4169.230957,4122.563965,4204.615234,16213.000000,4.000000,,,,0.000000,4.000000,4.000000,4.000000,4.000000,4.000000,,,,,,,,,,,,,,,,,,,,,,,,,
1577421052.413779,12.000000,0.000000,4237.436035,4243.589844,4168.205078,4156.410156,4206.666504,450.000000,4.000000,,,,0.000000,4.000000,4.000000,4.000000,4.000000,4.000000,,,,,,,,,,,,,,,,,,,,,,,,,
1577421052.421676,13.000000,0.000000,4244.102539,4243.589844,4173.846191,4169.230957,4213.846191,450.000000,4.000000,,,,0.000000,4.000000,4.000000,4.000000,4.000000,4.000000,,,,,,,,,,,,,,,,,,,,,,,,,
1577421052.429473,14.000000,0.000000,4231.794922,4238.461426,4169.743652,4130.769043,4198.461426,450.000000,4.000000,,,,0.000000,4.000000,4.000000,4.000000,4.000000,4.000000,,,,,,,,,,,,,,,,,,,,,,,,,
1577421052.437371,15.000000,0.000000,4249.230957,4248.717773,4188.205078,4143.589844,4216.922852,16213.000000,4.000000,,,,0.000000,4.000000,4.000000,4.000000,4.000000,4.000000,,,,,,,,,,,,,,,,,,,,,,,,,
1577421052.445168,16.000000,0.000000,4267.179688,4263.077148,4198.974121,4174.358887,4242.563965,0.000000,4.000000,,,,0.000000,4.000000,4.000000,4.000000,4.000000,4.000000,,,,,,,,,,,,,,,,,,,,,,,,,
1577421052.453065,17.000000,0.000000,4242.051270,4250.256348,4170.769043,4153.333496,4221.025879,0.000000,4.000000,,,,0.000000,4.000000,4.000000,4.000000,4.000000,4.000000,,,,,,,,,,,,,,,,,,,,,,,,,
1577421052.460862,18.000000,0.000000,4241.538574,4237.436035,4166.666504,4151.794922,4217.948730,0.000000,4.000000,,,,0.000000,4.000000,4.000000,4.000000,4.000000,4.000000,,,,,,,,,,,,,,,,,,,,,,,,,
1577421052.468759,19.000000,0.000000,4257.436035,4242.051270,4180.512695,4158.461426,4232.820313,0.000000,4.000000,,,,0.000000,4.000000,4.000000,4.000000,4.000000,4.000000,,,,,,,,,,,,,,,,,,,,,,,,,
1577421052.476557,20.000000,0.000000,4242.563965,4242.051270,4166.666504,4142.563965,4222.563965,0.000000,4.000000,,,,0.000000,4.000000,4.000000,4.000000,4.000000,4.000000,,,,,,,,,,,,,,,,,,,,,,,,,
1577421052.484454,21.000000,0.000000,4241.538574,4246.153809,4160.512695,4157.436035,4223.077148,0.000000,4.000000,,,,0.000000,4.000000,4.000000,4.000000,4.000000,4.000000,,,,,,,,,,,,,,,,,,,,,,,,,
1577421052.492251,22.000000,0.000000,4239.487305,4241.538574,4158.974121,4149.743652,4218.461426,0.000000,4.000000,,,,0.000000,4.000000,4.000000,4.000000,4.000000,4.000000,,,,,,,,,,,,,,,,,,,,,,,,,
1577421052.500148,23.000000,0.000000,4227.692383,4232.307617,4151.794922,4114.871582,4202.051270,0.000000,4.000000,,,,0.000000,4.000000,4.000000,4.000000,4.000000,4.000000,,,,,,,,,,,,,,,,,,,,,,,,,
1577421052.507945,24.000000,0.000000,4253.333496,4244.102539,4173.333496,4146.153809,4222.563965,0.000000,4.000000,,,,0.000000,4.000000,4.000000,4.000000,4.000000,4.000000,,,,,,,,,,,,,,,,,,,,,,,,,
1577421052.515643,25.000000,0.000000,4243.589844,4236.410156,4166.666504,4150.769043,4215.897461,0.000000,4.000000,,,,0.000000,4.000000,4.000000,4.000000,4.000000,4.000000,7.656262,4.433992,9.398081,2.512555,2.757348,132.302277,19.088118,4.816553,2.168022,1.202663,15.873403,9.079261,6.009395,1.887107,1.706227,6.766168,3.319884,6.948860,1.964139,3.085105,7.404603,5.049388,9.975975,2.529891,2.724553
1577421052.523440,26.000000,0.000000,4195.897461,4224.102539,4133.846191,4107.692383,4175.384766,0.000000,4.000000,,,,0.000000,4.000000,4.000000,4.000000,4.000000,4.000000,,,,,,,,,,,,,,,,,,,,,,,,,
1577421052.531137,27.000000,0.000000,4221.538574,4248.717773,4155.384766,4133.333496,4198.974121,0.000000,4.000000,,,,0.000000,4.000000,4.000000,4.000000,4.000000,4.000000,,,,,,,,,,,,,,,,,,,,,,,,,
1577421052.538935,28.000000,0.000000,4261.538574,4264.102539,4184.102539,4157.948730,4237.948730,0.000000,4.000000,,,,0.000000,4.000000,4.000000,4.000000,4.000000,4.000000,,,,,,,,,,,,,,,,,,,,,,,,,
1577421052.546632,29.000000,0.000000,4236.410156,4246.666504,4169.743652,4134.871582,4215.384766,0.000000,4.000000,,,,0.000000,4.000000,4.000000,4.000000,4.000000,4.000000,,,,,,,,,,,,,,,,,,,,,,,,,
1577421052.554429,30.000000,0.000000,4214.358887,4236.410156,4157.436035,4131.282227,4186.666504,0.000000,4.000000,,,,0.000000,4.000000,4.000000,4.000000,4.000000,4.000000,,,,,,,,,,,,,,,,,,,,,,,,,
1577421052.562126,31.000000,0.000000,4225.128418,4244.102539,4172.820313,4136.410156,4193.846191,0.000000,4.000000,,,,0.000000,4.000000,4.000000,4.000000,4.000000,4.000000,,,,,,,,,,,,,,,,,,,,,,,,,
1577421052.570023,32.000000,0.000000,4223.077148,4251.794922,4186.153809,4127.179688,4195.897461,0.000000,4.000000,,,,0.000000,4.000000,4.000000,4.000000,4.000000,4.000000,,,,,,,,,,,,,,,,,,,,,,,,,
1577421052.577820,33.000000,0.000000,4212.307617,4254.358887,4184.615234,4129.743652,4190.769043,0.000000,4.000000,,,,0.000000,4.000000,4.000000,4.000000,4.000000,4.000000,,,,,,,,,,,,,,,,,,,,,,,,,
1577421052.585717,34.000000,0.000000,4209.743652,4243.077148,4180.000000,4132.820313,4188.717773,0.000000,4.000000,,,,0.000000,4.000000,4.000000,4.000000,4.000000,4.000000,,,,,,,,,,,,,,,,,,,,,,,,,
1577421052.593514,35.000000,0.000000,4219.487305,4229.230957,4181.538574,4127.179688,4195.384766,0.000000,4.000000,,,,0.000000,4.000000,4.000000,4.000000,4.000000,4.000000,,,,,,,,,,,,,,,,,,,,,,,,,
1577421052.601412,36.000000,0.000000,4254.871582,4250.256348,4204.615234,4158.974121,4235.384766,0.000000,4.000000,,,,0.000000,4.000000,4.000000,4.000000,4.000000,4.000000,,,,,,,,,,,,,,,,,,,,,,,,,
1577421052.609209,37.000000,0.000000,4268.717773,4272.820313,4203.589844,4172.820313,4248.717773,0.000000,4.000000,,,,0.000000,4.000000,4.000000,4.000000,4.000000,4.000000,,,,,,,,,,,,,,,,,,,,,,,,,
1577421052.617106,38.000000,0.000000,4236.922852,4248.205078,4158.461426,4130.256348,4211.282227,0.000000,4.000000,,,,0.000000,4.000000,4.000000,4.000000,4.000000,4.000000,,,,,,,,,,,,,,,,,,,,,,,,,
1577421052.624903,39.000000,0.000000,4218.461426,4223.077148,4136.410156,4121.025879,4191.794922,0.000000,4.000000,,,,0.000000,4.000000,4.000000,4.000000,4.000000,4.000000,,,,,,,,,,,,,,,,,,,,,,,,,
1577421052.632700,40.000000,0.000000,4224.615234,4225.641113,4139.487305,4141.025879,4196.922852,0.000000,4.000000,,,,0.000000,4.000000,4.000000,4.000000,4.000000,4.000000,,,,,,,,,,,,,,,,,,,,,,,,,
1577421052.640398,41.000000,0.000000,4215.384766,4215.384766,4118.974121,4122.563965,4188.205078,0.000000,4.000000,,,,0.000000,4.000000,4.000000,4.000000,4.000000,4.000000,8.301910,5.719682,7.104003,2.893260,3.033396,140.410873,19.933588,4.817919,2.382919,1.411205,19.054018,11.065883,5.277337,2.478109,1.853051,6.530362,3.764530,5.424631,2.308800,3.389242,7.901460,6.155730,7.602802,2.864238,2.999933
1577421052.648195,42.000000,0.000000,4219.487305,4207.692383,4107.179688,4115.384766,4188.717773,0.000000,4.000000,,,,0.000000,4.000000,4.000000,4.000000,4.000000,4.000000,,,,,,,,,,,,,,,,,,,,,,,,,
1577421052.655892,43.000000,0.000000,4254.871582,4237.436035,4136.410156,4155.897461,4221.538574,0.000000,4.000000,,,,0.000000,4.000000,4.000000,4.000000,4.000000,4.000000,,,,,,,,,,,,,,,,,,,,,,,,,
1577421052.663789,44.000000,0.000000,4274.358887,4254.871582,4154.871582,4171.282227,4242.563965,0.000000,4.000000,,,,0.000000,4.000000,4.000000,4.000000,4.000000,4.000000,,,,,,,,,,,,,,,,,,,,,,,,,
1577421052.671586,45.000000,0.000000,4262.051270,4226.666504,4140.000000,4147.179688,4224.615234,0.000000,4.000000,,,,0.000000,4.000000,4.000000,4.000000,4.000000,4.000000,,,,,,,,,,,,,,,,,,,,,,,,,
1577421052.679383,46.000000,0.000000,4245.641113,4202.051270,4128.717773,4140.512695,4209.743652,0.000000,4.000000,,,,0.000000,4.000000,4.000000,4.000000,4.000000,4.000000,,,,,,,,,,,,,,,,,,,,,,,,,
1577421052.687080,47.000000,0.000000,4233.846191,4205.128418,4130.769043,4141.025879,4209.230957,0.000000,4.000000,,,,0.000000,4.000000,4.000000,4.000000,4.000000,4.000000,,,,,,,,,,,,,,,,,,,,,,,,,
1577421052.694877,48.000000,0.000000,4210.769043,4201.538574,4123.077148,4113.846191,4188.205078,0.000000,4.000000,,,,0.000000,4.000000,4.000000,4.000000,4.000000,4.000000,,,,,,,,,,,,,,,,,,,,,,,,,
1577421052.702575,49.000000,0.000000,4212.820313,4197.436035,4121.538574,4098.461426,4187.692383,0.000000,4.000000,,,,0.000000,4.000000,4.000000,4.000000,4.000000,4.000000,,,,,,,,,,,,,,,,,,,,,,,,,
1577421052.710372,50.000000,0.000000,4232.307617,4208.205078,4134.358887,4120.512695,4214.871582,0.000000,4.000000,,,,0.000000,4.000000,4.000000,4.000000,4.000000,4.000000,,,,,,,,,,,,,,,,,,,,,,,,,
1577421052.718069,51.000000,0.000000,4208.717773,4208.205078,4124.102539,4123.589844,4195.384766,0.000000,4.000000,,,,0.000000,4.000000,4.000000,4.000000,4.000000,4.000000,,,,,,,,,,,,,,,,,,,,,,,,,
1577421052.725966,52.000000,0.000000,4206.666504,4215.384766,4123.589844,4123.589844,4180.512695,0.000000,4.000000,,,,0.000000,4.000000,4.000000,4.000000,4.000000,4.000000,,,,,,,,,,,,,,,,,,,,,,,,,
1577421052.733763,53.000000,0.000000,4255.384766,4230.256348,4149.230957,4145.128418,4212.307617,0.000000,4.000000,,,,0.000000,4.000000,4.000000,4.000000,4.000000,4.000000,,,,,,,,,,,,,,,,,,,,,,,,,
1577421052.741561,54.000000,0.000000,4275.897461,4227.179688,4156.410156,4145.128418,4222.563965,0.000000,4.000000,,,,0.000000,4.000000,4.000000,4.000000,4.000000,4.000000,,,,,,,,,,,,,,,,,,,,,,,,,
1577421052.749358,55.000000,0.000000,4276.410156,4231.282227,4156.410156,4132.820313,4212.307617,0.000000,4.000000,,,,0.000000,4.000000,4.000000,4.000000,4.000000,4.000000,,,,,,,,,,,,,,,,,,,,,,,,,
1577421052.757055,56.000000,0.000000,4303.589844,4248.717773,4167.692383,4155.897461,4234.871582,0.000000,4.000000,,,,0.000000,4.000000,4.000000,4.000000,4.000000,4.000000,,,,,,,,,,,,,,,,,,,,,,,,,
1577421052.764852,57.000000,0.000000,4307.179688,4246.153809,4162.563965,4161.538574,4248.717773,0.000000,4.000000,,,,0.000000,4.000000,4.000000,4.000000,4.000000,4.000000,8.962532,7.270959,4.860144,3.085960,3.308509,142.036041,19.482286,4.997248,2.474655,1.674962,21.743624,12.296497,4.699205,2.961590,2.015977,5.989718,4.362997,3.959111,2.599681,3.787378,8.257797,7.440188,5.296564,3.053154,3.268238
1577421052.772549,58.000000,0.000000,4269.743652,4231.282227,4138.974121,4110.769043,4217.436035,0.000000,4.000000,,,,0.000000,4.000000,4.000000,4.000000,4.000000,4.000000,,,,,,,,,,,,,,,,,,,,,,,,,
1577421052.780346,59.000000,0.000000,4263.589844,4229.230957,4133.846191,4105.641113,4209.743652,0.000000,4.000000,,,,0.000000,4.000000,4.000000,4.000000,4.000000,4.000000,,,,,,,,,,,,,,,,,,,,,,,,,
1577421052.788043,60.000000,0.000000,4277.436035,4226.153809,4136.410156,4148.205078,4223.077148,0.000000,4.000000,,,,0.000000,4.000000,4.000000,4.000000,4.000000,4.000000,,,,,,,,,,,,,,,,,,,,,,,,,
1577421052.795840,61.000000,0.000000,4275.897461,4230.256348,4136.410156,4157.436035,4229.230957,0.000000,4.000000,,,,0.000000,4.000000,4.000000,4.000000,4.000000,4.000000,,,,,,,,,,,,,,,,,,,,,,,,,
1577421052.803537,62.000000,0.000000,4264.102539,4229.230957,4132.820313,4136.410156,4225.641113,0.000000,4.000000,,,,0.000000,4.000000,4.000000,4.000000,4.000000,4.000000,,,,,,,,,,,,,,,,,,,,,,,,,
1577421052.811334,63.000000,0.000000,4223.589844,4188.205078,4101.025879,4094.871826,4185.128418,0.000000,4.000000,,,,0.000000,4.000000,4.000000,4.000000,4.000000,4.000000,,,,,,,,,,,,,,,,,,,,,,,,,
1577421052.819031,64.000000,0.000000,4215.384766,4178.974121,4093.846191,4085.128174,4179.487305,450.000000,4.000000,,,,0.000000,4.000000,4.000000,4.000000,4.000000,4.000000,,,,,,,,,,,,,,,,,,,,,,,,,
1577421052.826828,65.000000,0.000000,4262.051270,4216.922852,4133.846191,4135.384766,4226.666504,450.000000,4.000000,,,,0.000000,4.000000,4.000000,4.000000,4.000000,4.000000,,,,,,,,,,,,,,,,,,,,,,,,,
1577421052.834525,66.000000,0.000000,4286.153809,4224.102539,4150.769043,4164.615234,4242.563965,16219.000000,4.000000,,,,0.000000,4.000000,4.000000,4.000000,4.000000,4.000000,,,,,,,,,,,,,,,,,,,,,,,,,
1577421052.842423,67.000000,0.000000,4254.358887,4201.538574,4116.922852,4115.384766,4208.717773,450.000000,4.000000,,,,0.000000,4.000000,4.000000,4.000000,4.000000,4.000000,,,,,,,,,,,,,,,,,,,,,,,,,
1577421052.850220,68.000000,0.000000,4216.410156,4184.102539,4087.692383,4076.410156,4171.282227,16203.000000,4.000000,,,,0.000000,4.000000,4.000000,4.000000,4.000000,4.000000,,,,,,,,,,,,,,,,,,,,,,,,,
1577421052.858117,69.000000,0.000000,4222.051270,4183.589844,4105.641113,4103.589844,4174.871582,450.000000,4.000000,,,,0.000000,4.000000,4.000000,4.000000,4.000000,4.000000,,,,,,,,,,,,,,,,,,,,,,,,,
1577421052.865914,70.000000,0.000000,4250.256348,4204.102539,4137.436035,4131.282227,4209.743652,16147.000000,4.000000,,,,0.000000,4.000000,4.000000,4.000000,4.000000,4.000000,,,,,,,,,,,,,,,,,,,,,,,,,
1577421052.873811,71.000000,0.000000,4249.230957,4210.769043,4130.256348,4124.102539,4216.410156,450.000000,4.000000,,,,0.000000,4.000000,4.000000,4.000000,4.000000,4.000000,,,,,,,,,,,,,,,,,,,,,,,,,
1577421052.881609,72.000000,0.000000,4216.922852,4193.333496,4099.487305,4109.230957,4183.077148,450.000000,4.000000,,,,0.000000,4.000000,4.000000,4.000000,4.000000,4.000000,,,,,,,,,,,,,,,,,,,,,,,,,
1577421052.889506,73.000000,0.000000,4209.743652,4196.410156,4102.051270,4111.282227,4169.743652,16173.000000,4.000000,,,,0.000000,4.000000,4.000000,4.000000,4.000000,4.000000,8.725209,8.424977,3.214180,3.059076,3.491565,136.442474,17.700203,5.180809,2.426895,1.916658,23.507242,12.143172,4.391719,3.217207,2.135004,5.089353,4.797908,2.964414,2.773722,4.180324,8.038823,8.361538,3.648075,3.066158,3.438191
1577421052.897303,74.000000,0.000000,4238.461426,4216.410156,4135.897461,4129.743652,4203.589844,450.000000,4.000000,,,,0.000000,4.000000,4.000000,4.000000,4.000000,4.000000,,,,,,,,,,,,,,,,,,,,,,,,,
1577421052.905200,75.000000,0.000000,4249.230957,4216.922852,4145.641113,4141.538574,4222.563965,16210.000000,4.000000,,,,0.000000,4.000000,4.000000,4.000000,4.000000,4.000000,,,,,,,,,,,,,,,,,,,,,,,,,
1577421052.912997,76.000000,0.000000,4218.461426,4201.025879,4116.410156,4110.256348,4184.102539,450.000000,4.000000,,,,0.000000,4.000000,4.000000,4.000000,4.000000,4.000000,,,,,,,,,,,,,,,,,,,,,,,,,
1577421052.920694,77.000000,0.000000,4208.717773,4196.922852,4107.179688,4089.743652,4168.205078,450.000000,4.000000,,,,0.000000,4.000000,4.000000,4.000000,4.000000,4.000000,,,,,,,,,,,,,,,,,,,,,,,,,
1577421052.928491,78.000000,0.000000,4243.077148,4209.743652,4134.358887,4122.563965,4203.589844,450.000000,4.000000,,,,0.000000,4.000000,4.000000,4.000000,4.000000,4.000000,,,,,,,,,,,,,,,,,,,,,,,,,
1577421052.936189,79.000000,0.000000,4244.615234,4206.666504,4128.205078,4125.641113,4197.436035,16210.000000,4.000000,,,,0.000000,4.000000,4.000000,4.000000,4.000000,4.000000,,,,,,,,,,,,,,,,,,,,,,,,,
1577421052.943986,80.000000,0.000000,4215.384766,4187.179688,4094.871826,4094.871826,4159.487305,450.000000,4.000000,,,,0.000000,4.000000,4.000000,4.000000,4.000000,4.000000,,,,,,,,,,,,,,,,,,,,,,,,,
1577421052.951683,81.000000,0.000000,4211.794922,4175.897461,4091.281982,4104.102539,4161.025879,450.000000,4.000000,,,,0.000000,4.000000,4.000000,4.000000,4.000000,4.000000,,,,,,,,,,,,,,,,,,,,,,,,,
1577421052.959480,82.000000,0.000000,4217.436035,4174.358887,4094.871826,4122.051270,4174.871582,450.000000,4.000000,,,,0.000000,4.000000,4.000000,4.000000,4.000000,4.000000,,,,,,,,,,,,,,,,,,,,,,,,,
1577421052.967177,83.000000,0.000000,4209.743652,4166.666504,4075.897461,4106.153809,4160.000000,16210.000000,4.000000,,,,0.000000,4.000000,4.000000,4.000000,4.000000,4.000000,,,,,,,,,,,,,,,,,,,,,,,,,
1577421052.975074,84.000000,0.000000,4186.666504,4151.794922,4048.205078,4079.487061,4136.410156,450.000000,4.000000,,,,0.000000,4.000000,4.000000,4.000000,4.000000,4.000000,,,,,,,,,,,,,,,,,,,,,,,,,
1577421052.982871,85.000000,0.000000,4180.512695,4154.358887,4048.205078,4078.974365,4143.589844,450.000000,4.000000,,,,0.000000,4.000000,4.000000,4.000000,4.000000,4.000000,,,,,,,,,,,,,,,,,,,,,,,,,
1577421052.990768,86.000000,0.000000,4205.641113,4166.153809,4068.718018,4111.794922,4173.333496,450.000000,4.000000,,,,0.000000,4.000000,4.000000,4.000000,4.000000,4.000000,,,,,,,,,,,,,,,,,,,,,,,,,
1577421052.998565,87.000000,0.000000,4223.077148,4171.282227,4066.153809,4129.230957,4183.589844,16210.000000,4.000000,,,,0.000000,4.000000,4.000000,4.000000,4.000000,4.000000,,,,,,,,,,,,,,,,,,,,,,,,,
1577421053.006463,88.000000,0.000000,4234.358887,4191.282227,4072.307617,4120.512695,4189.743652,450.000000,4.000000,,,,0.000000,4.000000,4.000000,4.000000,4.000000,4.000000,,,,,,,,,,,,,,,,,,,,,,,,,
1577421053.014260,89.000000,0.000000,4250.769043,4197.436035,4097.948730,4132.820313,4205.641113,450.000000,4.000000,,,,0.000000,4.000000,4.000000,4.000000,4.000000,4.000000,7.665408,8.792394,2.443637,2.888601,3.513973,123.346832,14.952846,5.159684,2.284458,2.059433,24.242813,10.567483,4.336988,3.211728,2.164494,3.976065,4.897976,2.624959,2.827420,4.450195,7.178485,8.527972,2.902660,2.953436,3.449232
1577421053.022157,90.000000,0.000000,4240.512695,4168.205078,4085.641113,4145.128418,4195.897461,450.000000,4.000000,,,,0.000000,4.000000,4.000000,4.000000,4.000000,4.000000,,,,,,,,,,,,,,,,,,,,,,,,,
1577421053.029954,91.000000,0.000000,4205.641113,4156.410156,4047.179443,4114.871582,4165.128418,16210.000000,4.000000,,,,0.000000,4.000000,4.000000,4.000000,4.000000,4.000000,,,,,,,,,,,,,,,,,,,,,,,,,
1577421053.037851,92.000000,0.000000,4195.897461,4165.641113,4048.205078,4092.820557,4163.589844,450.000000,4.000000,,,,0.000000,4.000000,4.000000,4.000000,4.000000,4.000000,,,,,,,,,,,,,,,,,,,,,,,,,
1577421053.045649,93.000000,0.000000,4207.692383,4154.871582,4068.718018,4114.358887,4175.384766,450.000000,4.000000,,,,0.000000,4.000000,4.000000,4.000000,4.000000,4.000000,,,,,,,,,,,,,,,,,,,,,,,,,
1577421053.053546,94.000000,0.000000,4208.205078,4150.256348,4073.846191,4123.077148,4172.307617,450.000000,4.000000,,,,0.000000,4.000000,4.000000,4.000000,4.000000,4.000000,,,,,,,,,,,,,,,,,,,,,,,,,
