title:scary1, start timestamp:2019-12-27T07:30:07.836518+03:00, stop timestamp:2019-12-27T07:30:38.529176+03:00, headset type:INSIGHT, headset serial:A2D200FB, headset firmware:930, subject name:Qasim, channels:44, sampling rate:eeg_128;pow_8, samples:3937      , version:2.0
Timestamp,EEG.Counter,EEG.Interpolated,EEG.AF3,EEG.T7,EEG.Pz,EEG.T8,EEG.AF4,EEG.RawCq,EEG.Battery,MarkerIndex,MarkerType,MarkerValueInt,EEG.MarkerHardware,CQ.AF3,CQ.T7,CQ.Pz,CQ.T8,CQ.AF4,POW.AF3.Theta,POW.AF3.Alpha,POW.AF3.BetaL,POW.AF3.BetaH,POW.AF3.Gamma,POW.T7.Theta,POW.T7.Alpha,POW.T7.BetaL,POW.T7.BetaH,POW.T7.Gamma,POW.Pz.Theta,POW.Pz.Alpha,POW.Pz.BetaL,POW.Pz.BetaH,POW.Pz.Gamma,POW.T8.Theta,POW.T8.Alpha,POW.T8.BetaL,POW.T8.BetaH,POW.T8.Gamma,POW.AF4.Theta,POW.AF4.Alpha,POW.AF4.BetaL,POW.AF4.BetaH,POW.AF4.Gamma
1577421007.836518,57.000000,0.000000,4196.922852,4285.641113,4120.000000,4094.871826,4121.025879,0.000000,4.000000,,,,0.000000,4.000000,4.000000,4.000000,4.000000,4.000000,5.423140,7.259232,2.831237,1.481621,1.073593,6.806522,2.182829,1.053592,1.388173,1.099558,3.935948,4.294675,1.975877,0.730846,0.758753,2.570817,2.843840,2.076056,2.213399,1.720094,8.499767,4.767308,3.147043,1.098005,1.230954
1577421007.844215,58.000000,0.000000,4187.692383,4283.589844,4126.153809,4115.384766,4116.922852,0.000000,4.000000,,,,0.000000,4.000000,4.000000,4.000000,4.000000,4.000000,,,,,,,,,,,,,,,,,,,,,,,,,
1577421007.852011,59.000000,0.000000,4195.384766,4292.820313,4136.922852,4128.205078,4134.871582,0.000000,4.000000,,,,0.000000,4.000000,4.000000,4.000000,4.000000,4.000000,,,,,,,,,,,,,,,,,,,,,,,,,
1577421007.859708,60.000000,0.000000,4220.512695,4313.333496,4146.153809,4116.922852,4158.461426,0.000000,4.000000,,,,0.000000,4.000000,4.000000,4.000000,4.000000,4.000000,,,,,,,,,,,,,,,,,,,,,,,,,
1577421007.867505,61.000000,0.000000,4216.410156,4303.077148,4140.512695,4112.307617,4148.205078,0.000000,4.000000,,,,0.000000,4.000000,4.000000,4.000000,4.000000,4.000000,,,,,,,,,,,,,,,,,,,,,,,,,
1577421007.875301,62.000000,0.000000,4214.358887,4295.384766,4146.666504,4143.589844,4150.256348,0.000000,4.000000,,,,0.000000,4.000000,4.000000,4.000000,4.000000,4.000000,,,,,,,,,,,,,,,,,,,,,,,,,
1577421007.882998,63.000000,0.000000,4217.436035,4292.820313,4152.307617,4148.717773,4164.615234,0.000000,4.000000,,,,0.000000,4.000000,4.000000,4.000000,4.000000,4.000000,,,,,,,,,,,,,,,,,,,,,,,,,
1577421007.890694,64.000000,0.000000,4213.333496,4286.666504,4152.307617,4144.615234,4173.333496,450.000000,4.000000,,,,0.000000,4.000000,4.000000,4.000000,4.000000,4.000000,,,,,,,,,,,,,,,,,,,,,,,,,
1577421007.898490,65.000000,0.000000,4213.846191,4292.820313,4153.846191,4152.820313,4169.230957,450.000000,4.000000,,,,0.000000,4.000000,4.000000,4.000000,4.000000,4.000000,,,,,,,,,,,,,,,,,,,,,,,,,
1577421007.906187,66.000000,0.000000,4187.179688,4285.641113,4129.743652,4134.358887,4137.436035,16204.000000,4.000000,,,,0.000000,4.000000,4.000000,4.000000,4.000000,4.000000,,,,,,,,,,,,,,,,,,,,,,,,,
1577421007.913983,67.000000,0.000000,4181.538574,4292.820313,4124.102539,4124.102539,4133.846191,450.000000,4.000000,,,,0.000000,4.000000,4.000000,4.000000,4.000000,4.000000,,,,,,,,,,,,,,,,,,,,,,,,,
1577421007.921679,68.000000,0.000000,4196.922852,4296.410156,4132.307617,4134.871582,4152.307617,16197.000000,4.000000,,,,0.000000,4.000000,4.000000,4.000000,4.000000,4.000000,,,,,,,,,,,,,,,,,,,,,,,,,
1577421007.929476,69.000000,0.000000,4189.743652,4263.589844,4124.102539,4137.436035,4148.717773,450.000000,4.000000,,,,0.000000,4.000000,4.000000,4.000000,4.000000,4.000000,,,,,,,,,,,,,,,,,,,,,,,,,
1577421007.937172,70.000000,0.000000,4180.000000,4236.410156,4130.256348,4133.333496,4140.512695,16136.000000,4.000000,,,,0.000000,4.000000,4.000000,4.000000,4.000000,4.000000,,,,,,,,,,,,,,,,,,,,,,,,,
1577421007.944968,71.000000,0.000000,4168.205078,4221.538574,4131.794922,4128.205078,4139.487305,450.000000,4.000000,,,,0.000000,4.000000,4.000000,4.000000,4.000000,4.000000,,,,,,,,,,,,,,,,,,,,,,,,,
1577421007.952665,72.000000,0.000000,4172.307617,4223.589844,4125.128418,4126.153809,4153.333496,450.000000,4.000000,,,,0.000000,4.000000,4.000000,4.000000,4.000000,4.000000,,,,,,,,,,,,,,,,,,,,,,,,,
1577421007.960361,73.000000,0.000000,4181.025879,4237.436035,4127.692383,4114.871582,4154.358887,16159.000000,4.000000,,,,0.000000,4.000000,4.000000,4.000000,4.000000,4.000000,5.742509,6.727539,2.572483,1.456105,1.071915,4.869018,1.917313,0.927916,1.318613,1.103443,3.435355,4.251908,2.044819,0.802812,0.734667,2.096110,2.751606,1.749187,2.086105,1.671228,9.381616,4.169517,3.177352,1.181469,1.362863
1577421007.968158,74.000000,0.000000,4178.461426,4242.051270,4134.871582,4124.102539,4142.563965,450.000000,4.000000,,,,0.000000,4.000000,4.000000,4.000000,4.000000,4.000000,,,,,,,,,,,,,,,,,,,,,,,,,
1577421007.975854,75.000000,0.000000,4193.333496,4240.000000,4144.102539,4146.153809,4147.179688,16256.000000,4.000000,,,,0.000000,4.000000,4.000000,4.000000,4.000000,4.000000,,,,,,,,,,,,,,,,,,,,,,,,,
1577421007.983651,76.000000,0.000000,4199.487305,4239.487305,4138.974121,4133.333496,4155.384766,450.000000,4.000000,,,,0.000000,4.000000,4.000000,4.000000,4.000000,4.000000,,,,,,,,,,,,,,,,,,,,,,,,,
1577421007.991348,77.000000,0.000000,4197.436035,4265.641113,4142.563965,4134.871582,4172.307617,450.000000,4.000000,,,,0.000000,4.000000,4.000000,4.000000,4.000000,4.000000,,,,,,,,,,,,,,,,,,,,,,,,,
1577421007.999144,78.000000,0.000000,4193.846191,4272.820313,4151.794922,4134.871582,4175.897461,450.000000,4.000000,,,,0.000000,4.000000,4.000000,4.000000,4.000000,4.000000,,,,,,,,,,,,,,,,,,,,,,,,,
1577421008.006941,79.000000,0.000000,4180.000000,4253.333496,4146.153809,4104.102539,4157.948730,16256.000000,4.000000,,,,0.000000,4.000000,4.000000,4.000000,4.000000,4.000000,,,,,,,,,,,,,,,,,,,,,,,,,
1577421008.014637,80.000000,0.000000,4183.589844,4273.846191,4146.153809,4106.153809,4157.948730,450.000000,4.000000,,,,0.000000,4.000000,4.000000,4.000000,4.000000,4.000000,,,,,,,,,,,,,,,,,,,,,,,,,
1577421008.022433,81.000000,0.000000,4193.333496,4291.282227,4139.487305,4133.846191,4165.128418,450.000000,4.000000,,,,0.000000,4.000000,4.000000,4.000000,4.000000,4.000000,,,,,,,,,,,,,,,,,,,,,,,,,
1577421008.030130,82.000000,0.000000,4206.153809,4283.077148,4142.563965,4149.743652,4173.846191,450.000000,4.000000,,,,0.000000,4.000000,4.000000,4.000000,4.000000,4.000000,,,,,,,,,,,,,,,,,,,,,,,,,
1577421008.037826,83.000000,0.000000,4209.230957,4280.000000,4154.358887,4139.487305,4178.974121,16256.000000,4.000000,,,,0.000000,4.000000,4.000000,4.000000,4.000000,4.000000,,,,,,,,,,,,,,,,,,,,,,,,,
1577421008.045623,84.000000,0.000000,4195.897461,4273.846191,4146.666504,4129.743652,4180.512695,450.000000,4.000000,,,,0.000000,4.000000,4.000000,4.000000,4.000000,4.000000,,,,,,,,,,,,,,,,,,,,,,,,,
1577421008.053419,85.000000,0.000000,4201.538574,4267.692383,4138.461426,4129.743652,4184.102539,450.000000,4.000000,,,,0.000000,4.000000,4.000000,4.000000,4.000000,4.000000,,,,,,,,,,,,,,,,,,,,,,,,,
1577421008.061116,86.000000,0.000000,4206.666504,4252.307617,4127.179688,4132.820313,4176.922852,450.000000,4.000000,,,,0.000000,4.000000,4.000000,4.000000,4.000000,4.000000,,,,,,,,,,,,,,,,,,,,,,,,,
1577421008.068812,87.000000,0.000000,4208.717773,4237.436035,4124.615234,4150.769043,4183.077148,16256.000000,4.000000,,,,0.000000,4.000000,4.000000,4.000000,4.000000,4.000000,,,,,,,,,,,,,,,,,,,,,,,,,
1577421008.076608,88.000000,0.000000,4210.769043,4228.205078,4131.794922,4145.128418,4192.820313,450.000000,4.000000,,,,0.000000,4.000000,4.000000,4.000000,4.000000,4.000000,,,,,,,,,,,,,,,,,,,,,,,,,
1577421008.084305,89.000000,0.000000,4202.051270,4211.282227,4127.179688,4124.615234,4188.717773,450.000000,4.000000,,,,0.000000,4.000000,4.000000,4.000000,4.000000,4.000000,5.883220,5.990143,2.349230,1.486520,1.101196,4.016327,1.733893,0.835447,1.210685,1.063169,3.013541,4.007528,2.090292,0.897024,0.712067,1.787099,2.754309,1.602039,1.887907,1.622037,9.571262,3.565876,3.078267,1.283417,1.485247
1577421008.092101,90.000000,0.000000,4209.743652,4207.692383,4125.128418,4132.820313,4194.871582,450.000000,4.000000,,,,0.000000,4.000000,4.000000,4.000000,4.000000,4.000000,,,,,,,,,,,,,,,,,,,,,,,,,
1577421008.099798,91.000000,0.000000,4207.692383,4203.589844,4106.153809,4119.487305,4191.794922,16256.000000,4.000000,,,,0.000000,4.000000,4.000000,4.000000,4.000000,4.000000,,,,,,,,,,,,,,,,,,,,,,,,,
1577421008.107594,92.000000,0.000000,4188.717773,4190.769043,4088.718018,4094.358887,4180.512695,450.000000,4.000000,,,,0.000000,4.000000,4.000000,4.000000,4.000000,4.000000,,,,,,,,,,,,,,,,,,,,,,,,,
1577421008.115290,93.000000,0.000000,4193.846191,4184.615234,4105.641113,4117.948730,4186.153809,450.000000,4.000000,,,,0.000000,4.000000,4.000000,4.000000,4.000000,4.000000,,,,,,,,,,,,,,,,,,,,,,,,,
1577421008.123087,94.000000,0.000000,4204.102539,4176.410156,4113.333496,4140.512695,4195.384766,450.000000,4.000000,,,,0.000000,4.000000,4.000000,4.000000,4.000000,4.000000,,,,,,,,,,,,,,,,,,,,,,,,,
1577421008.130783,95.000000,0.000000,4203.077148,4180.512695,4097.948730,4134.871582,4191.282227,16256.000000,4.000000,,,,0.000000,4.000000,4.000000,4.000000,4.000000,4.000000,,,,,,,,,,,,,,,,,,,,,,,,,
1577421008.138579,96.000000,0.000000,4189.743652,4179.487305,4087.692383,4117.948730,4178.974121,450.000000,4.000000,,,,0.000000,4.000000,4.000000,4.000000,4.000000,4.000000,,,,,,,,,,,,,,,,,,,,,,,,,
1577421008.146276,97.000000,0.000000,4165.641113,4157.436035,4096.922852,4119.487305,4182.051270,450.000000,4.000000,,,,0.000000,4.000000,4.000000,4.000000,4.000000,4.000000,,,,,,,,,,,,,,,,,,,,,,,,,
1577421008.154072,98.000000,0.000000,4172.307617,4162.563965,4114.358887,4137.948730,4202.563965,450.000000,4.000000,,,,0.000000,4.000000,4.000000,4.000000,4.000000,4.000000,,,,,,,,,,,,,,,,,,,,,,,,,
1577421008.161768,99.000000,0.000000,4212.820313,4180.512695,4104.615234,4134.358887,4206.153809,16256.000000,4.000000,,,,0.000000,4.000000,4.000000,4.000000,4.000000,4.000000,,,,,,,,,,,,,,,,,,,,,,,,,
1577421008.169565,100.000000,0.000000,4246.666504,4176.410156,4096.922852,4122.051270,4205.641113,450.000000,4.000000,,,,0.000000,4.000000,4.000000,4.000000,4.000000,4.000000,,,,,,,,,,,,,,,,,,,,,,,,,
1577421008.177261,101.000000,0.000000,4246.153809,4171.282227,4102.051270,4108.717773,4202.051270,450.000000,4.000000,,,,0.000000,4.000000,4.000000,4.000000,4.000000,4.000000,,,,,,,,,,,,,,,,,,,,,,,,,
1577421008.185057,102.000000,0.000000,4254.871582,4177.436035,4094.871826,4113.333496,4205.128418,450.000000,4.000000,,,,0.000000,4.000000,4.000000,4.000000,4.000000,4.000000,,,,,,,,,,,,,,,,,,,,,,,,,
1577421008.192754,103.000000,0.000000,4292.307617,4186.666504,4101.538574,4134.358887,4233.846191,16256.000000,4.000000,,,,0.000000,4.000000,4.000000,4.000000,4.000000,4.000000,,,,,,,,,,,,,,,,,,,,,,,,,
1577421008.200550,104.000000,0.000000,4299.487305,4194.871582,4116.922852,4131.282227,4245.128418,450.000000,4.000000,,,,0.000000,4.000000,4.000000,4.000000,4.000000,4.000000,,,,,,,,,,,,,,,,,,,,,,,,,
1577421008.208246,105.000000,0.000000,4288.205078,4205.641113,4123.589844,4131.794922,4246.666504,450.000000,4.000000,,,,0.000000,4.000000,4.000000,4.000000,4.000000,4.000000,5.884031,5.238868,2.264249,1.555368,1.164353,4.196200,1.651996,0.795101,1.101893,0.985093,2.814882,3.676183,2.094028,0.982655,0.699970,1.832262,2.811730,1.646277,1.659151,1.582368,9.207355,3.076080,2.889630,1.394986,1.577356
1577421008.215943,106.000000,0.000000,4281.538574,4202.051270,4120.512695,4133.846191,4247.179688,450.000000,4.000000,,,,0.000000,4.000000,4.000000,4.000000,4.000000,4.000000,,,,,,,,,,,,,,,,,,,,,,,,,
1577421008.223739,107.000000,0.000000,4255.897461,4183.077148,4104.615234,4112.307617,4215.384766,16256.000000,4.000000,,,,0.000000,4.000000,4.000000,4.000000,4.000000,4.000000,,,,,,,,,,,,,,,,,,,,,,,,,
1577421008.231436,108.000000,0.000000,4242.051270,4178.974121,4107.692383,4104.102539,4197.436035,450.000000,4.000000,,,,0.000000,4.000000,4.000000,4.000000,4.000000,4.000000,,,,,,,,,,,,,,,,,,,,,,,,,
1577421008.239233,109.000000,0.000000,4232.307617,4172.307617,4104.102539,4100.512695,4205.128418,450.000000,4.000000,,,,0.000000,4.000000,4.000000,4.000000,4.000000,4.000000,,,,,,,,,,,,,,,,,,,,,,,,,
1577421008.246929,110.000000,0.000000,4230.256348,4187.692383,4097.948730,4109.230957,4220.000000,450.000000,4.000000,,,,0.000000,4.000000,4.000000,4.000000,4.000000,4.000000,,,,,,,,,,,,,,,,,,,,,,,,,
1577421008.254725,111.000000,0.000000,4246.666504,4225.641113,4110.256348,4128.205078,4230.256348,16256.000000,4.000000,,,,0.000000,4.000000,4.000000,4.000000,4.000000,4.000000,,,,,,,,,,,,,,,,,,,,,,,,,
1577421008.262422,112.000000,0.000000,4234.358887,4226.666504,4098.461426,4112.307617,4213.333496,450.000000,4.000000,,,,0.000000,4.000000,4.000000,4.000000,4.000000,4.000000,,,,,,,,,,,,,,,,,,,,,,,,,
1577421008.270218,113.000000,0.000000,4232.307617,4242.051270,4105.128418,4111.794922,4210.769043,450.000000,4.000000,,,,0.000000,4.000000,4.000000,4.000000,4.000000,4.000000,,,,,,,,,,,,,,,,,,,,,,,,,
1577421008.277914,114.000000,0.000000,4249.743652,4273.846191,4137.436035,4134.358887,4228.205078,450.000000,4.000000,,,,0.000000,4.000000,4.000000,4.000000,4.000000,4.000000,,,,,,,,,,,,,,,,,,,,,,,,,
1577421008.285711,115.000000,0.000000,4232.307617,4260.000000,4130.769043,4133.333496,4222.563965,16256.000000,4.000000,,,,0.000000,4.000000,4.000000,4.000000,4.000000,4.000000,,,,,,,,,,,,,,,,,,,,,,,,,
1577421008.293407,116.000000,0.000000,4221.025879,4255.897461,4124.102539,4115.897461,4220.000000,450.000000,4.000000,,,,0.000000,4.000000,4.000000,4.000000,4.000000,4.000000,,,,,,,,,,,,,,,,,,,,,,,,,
1577421008.301203,117.000000,0.000000,4226.153809,4272.820313,4122.563965,4096.410156,4224.615234,450.000000,4.000000,,,,0.000000,4.000000,4.000000,4.000000,4.000000,4.000000,,,,,,,,,,,,,,,,,,,,,,,,,
1577421008.308900,118.000000,0.000000,4230.256348,4272.307617,4106.153809,4096.922852,4225.641113,450.000000,4.000000,,,,0.000000,4.000000,4.000000,4.000000,4.000000,4.000000,,,,,,,,,,,,,,,,,,,,,,,,,
1577421008.316696,119.000000,0.000000,4232.307617,4258.974121,4103.589844,4101.025879,4219.487305,16256.000000,4.000000,,,,0.000000,4.000000,4.000000,4.000000,4.000000,4.000000,,,,,,,,,,,,,,,,,,,,,,,,,
1577421008.324392,120.000000,0.000000,4218.974121,4257.948730,4121.538574,4092.307617,4198.461426,450.000000,4.000000,,,,0.000000,4.000000,4.000000,4.000000,4.000000,4.000000,,,,,,,,,,,,,,,,,,,,,,,,,
1577421008.332189,121.000000,0.000000,4218.461426,4283.589844,4132.307617,4094.358887,4193.846191,450.000000,4.000000,,,,0.000000,4.000000,4.000000,4.000000,4.000000,4.000000,5.769446,4.605496,2.390415,1.625267,1.239777,5.619808,1.649246,0.834658,1.028545,0.886533,2.941160,3.350773,2.042250,1.029464,0.696232,2.295409,2.858356,1.806377,1.460937,1.550654,8.575994,2.731847,2.667186,1.493998,1.619991
1577421008.339885,122.000000,0.000000,4233.846191,4280.000000,4104.615234,4087.179443,4201.025879,450.000000,4.000000,,,,0.000000,4.000000,4.000000,4.000000,4.000000,4.000000,,,,,,,,,,,,,,,,,,,,,,,,,
1577421008.347681,123.000000,0.000000,4265.128418,4267.179688,4094.358887,4095.897461,4223.077148,16256.000000,4.000000,,,,0.000000,4.000000,4.000000,4.000000,4.000000,4.000000,,,,,,,,,,,,,,,,,,,,,,,,,
1577421008.355378,124.000000,0.000000,4302.563965,4289.230957,4123.077148,4115.384766,4253.846191,450.000000,4.000000,,,,0.000000,4.000000,4.000000,4.000000,4.000000,4.000000,,,,,,,,,,,,,,,,,,,,,,,,,
1577421008.363174,125.000000,0.000000,4310.769043,4289.743652,4117.948730,4104.615234,4254.871582,450.000000,4.000000,,,,0.000000,4.000000,4.000000,4.000000,4.000000,4.000000,,,,,,,,,,,,,,,,,,,,,,,,,
1577421008.370870,126.000000,0.000000,4309.230957,4273.846191,4109.743652,4109.230957,4257.948730,450.000000,4.000000,,,,0.000000,4.000000,4.000000,4.000000,4.000000,4.000000,,,,,,,,,,,,,,,,,,,,,,,,,
1577421008.378567,127.000000,0.000000,4298.974121,4278.461426,4116.410156,4120.000000,4252.820313,235.000000,4.000000,,,,0.000000,4.000000,4.000000,4.000000,4.000000,4.000000,,,,,,,,,,,,,,,,,,,,,,,,,
1577421008.386364,0.000000,0.000000,4284.102539,4290.769043,4113.846191,4118.974121,4237.436035,450.000000,4.000000,,,,0.000000,4.000000,4.000000,4.000000,4.000000,4.000000,,,,,,,,,,,,,,,,,,,,,,,,,
1577421008.394060,1.000000,0.000000,4284.615234,4283.589844,4122.563965,4123.589844,4245.641113,450.000000,4.000000,,,,0.000000,4.000000,4.000000,4.000000,4.000000,4.000000,,,,,,,,,,,,,,,,,,,,,,,,,
1577421008.401857,2.000000,0.000000,4289.230957,4277.948730,4131.794922,4125.128418,4262.563965,16204.000000,4.000000,,,,0.000000,4.000000,4.000000,4.000000,4.000000,4.000000,,,,,,,,,,,,,,,,,,,,,,,,,
1577421008.409553,3.000000,0.000000,4293.333496,4298.461426,4131.794922,4117.436035,4270.256348,450.000000,4.000000,,,,0.000000,4.000000,4.000000,4.000000,4.000000,4.000000,,,,,,,,,,,,,,,,,,,,,,,,,
1577421008.417350,4.000000,0.000000,4275.384766,4295.384766,4123.077148,4099.487305,4242.051270,16188.000000,4.000000,,,,0.000000,4.000000,4.000000,4.000000,4.000000,4.000000,,,,,,,,,,,,,,,,,,,,,,,,,
1577421008.425046,5.000000,0.000000,4262.051270,4279.487305,4117.436035,4111.794922,4221.025879,450.000000,4.000000,,,,0.000000,4.000000,4.000000,4.000000,4.000000,4.000000,,,,,,,,,,,,,,,,,,,,,,,,,
1577421008.432843,6.000000,0.000000,4272.820313,4283.589844,4118.461426,4131.794922,4241.025879,16186.000000,4.000000,,,,0.000000,4.000000,4.000000,4.000000,4.000000,4.000000,,,,,,,,,,,,,,,,,,,,,,,,,
1577421008.440640,7.000000,0.000000,4266.666504,4275.384766,4118.461426,4116.922852,4241.538574,450.000000,4.000000,,,,0.000000,4.000000,4.000000,4.000000,4.000000,4.000000,,,,,,,,,,,,,,,,,,,,,,,,,
1577421008.448336,8.000000,0.000000,4267.692383,4256.922852,4130.256348,4127.179688,4242.051270,450.000000,4.000000,,,,0.000000,4.000000,4.000000,4.000000,4.000000,4.000000,,,,,,,,,,,,,,,,,,,,,,,,,
1577421008.456032,9.000000,0.000000,4272.307617,4217.436035,4116.922852,4131.794922,4245.128418,16218.000000,4.000000,,,,0.000000,4.000000,4.000000,4.000000,4.000000,4.000000,5.712755,4.237915,2.737585,1.661506,1.292242,8.445645,1.696885,0.971027,1.013533,0.788557,3.431357,3.085793,1.948838,1.026141,0.690948,3.136490,2.845220,1.984715,1.355300,1.512743,8.025456,2.520094,2.469430,1.566490,1.596510
1577421008.463829,10.000000,0.000000,4250.769043,4169.743652,4088.718018,4092.820557,4221.538574,450.000000,4.000000,,,,0.000000,4.000000,4.000000,4.000000,4.000000,4.000000,,,,,,,,,,,,,,,,,,,,,,,,,
1577421008.471525,11.000000,0.000000,4251.282227,4171.794922,4102.051270,4078.974365,4215.384766,16219.000000,4.000000,,,,0.000000,4.000000,4.000000,4.000000,4.000000,4.000000,,,,,,,,,,,,,,,,,,,,,,,,,
1577421008.479321,12.000000,0.000000,4246.666504,4195.897461,4106.153809,4086.666748,4207.179688,450.000000,4.000000,,,,0.000000,4.000000,4.000000,4.000000,4.000000,4.000000,,,,,,,,,,,,,,,,,,,,,,,,,
1577421008.487018,13.000000,0.000000,4225.641113,4228.717773,4102.051270,4099.487305,4186.666504,450.000000,4.000000,,,,0.000000,4.000000,4.000000,4.000000,4.000000,4.000000,,,,,,,,,,,,,,,,,,,,,,,,,
1577421008.494814,14.000000,0.000000,4224.102539,4273.333496,4112.307617,4092.820557,4186.666504,450.000000,4.000000,,,,0.000000,4.000000,4.000000,4.000000,4.000000,4.000000,,,,,,,,,,,,,,,,,,,,,,,,,
1577421008.502510,15.000000,0.000000,4216.410156,4273.846191,4097.436035,4070.769287,4183.589844,16219.000000,4.000000,,,,0.000000,4.000000,4.000000,4.000000,4.000000,4.000000,,,,,,,,,,,,,,,,,,,,,,,,,
1577421008.510307,16.000000,0.000000,4263.077148,4301.025879,4130.769043,4113.333496,4222.051270,0.000000,4.000000,,,,0.000000,4.000000,4.000000,4.000000,4.000000,4.000000,,,,,,,,,,,,,,,,,,,,,,,,,
1577421008.518003,17.000000,0.000000,4259.487305,4304.102539,4130.769043,4090.256348,4205.128418,0.000000,4.000000,,,,0.000000,4.000000,4.000000,4.000000,4.000000,4.000000,,,,,,,,,,,,,,,,,,,,,,,,,
1577421008.525700,18.000000,0.000000,4186.666504,4264.615234,4068.205078,4075.384521,4163.077148,0.000000,4.000000,,,,0.000000,4.000000,4.000000,4.000000,4.000000,4.000000,,,,,,,,,,,,,,,,,,,,,,,,,
1577421008.533496,19.000000,0.000000,4407.179688,4457.948730,4262.051270,4212.820313,4331.282227,0.000000,4.000000,,,,0.000000,4.000000,4.000000,4.000000,4.000000,4.000000,,,,,,,,,,,,,,,,,,,,,,,,,
1577421008.541293,20.000000,0.000000,4174.358887,4250.769043,4056.923096,3960.512939,4070.256348,0.000000,4.000000,,,,0.000000,4.000000,4.000000,4.000000,4.000000,4.000000,,,,,,,,,,,,,,,,,,,,,,,,,
1577421008.548989,21.000000,0.000000,3784.615479,3958.974365,3742.051270,3984.102539,3900.512939,0.000000,4.000000,,,,0.000000,4.000000,4.000000,4.000000,4.000000,4.000000,,,,,,,,,,,,,,,,,,,,,,,,,
1577421008.556785,22.000000,0.000000,4237.948730,4369.230957,4188.205078,4349.743652,4316.922852,0.000000,4.000000,,,,0.000000,4.000000,4.000000,4.000000,4.000000,4.000000,,,,,,,,,,,,,,,,,,,,,,,,,
1577421008.564482,23.000000,0.000000,4207.179688,4340.512695,4187.179688,3949.743652,4070.256348,0.000000,4.000000,,,,0.000000,4.000000,4.000000,4.000000,4.000000,4.000000,,,,,,,,,,,,,,,,,,,,,,,,,
1577421008.572278,24.000000,0.000000,3997.948730,4179.487305,4007.179443,3916.410156,3955.384521,0.000000,4.000000,,,,0.000000,4.000000,4.000000,4.000000,4.000000,4.000000,,,,,,,,,,,,,,,,,,,,,,,,,
1577421008.579974,25.000000,0.000000,4314.871582,4411.282227,4272.820313,4248.205078,4300.000000,0.000000,4.000000,,,,0.000000,4.000000,4.000000,4.000000,4.000000,4.000000,6.239531,4.289789,3.282325,1.647908,1.289251,12.510178,1.827629,1.229361,1.044505,0.708141,4.140650,2.867810,1.848355,0.992367,0.674239,4.150623,2.779040,2.138403,1.369413,1.450768,7.717542,2.446628,2.343133,1.623973,1.499418
1577421008.587771,26.000000,0.000000,4262.563965,4350.256348,4223.077148,4085.128174,4190.769043,0.000000,4.000000,,,,0.000000,4.000000,4.000000,4.000000,4.000000,4.000000,,,,,,,,,,,,,,,,,,,,,,,,,
1577421008.595467,27.000000,0.000000,4241.025879,4358.974121,4211.282227,4122.563965,4205.128418,0.000000,4.000000,,,,0.000000,4.000000,4.000000,4.000000,4.000000,4.000000,,,,,,,,,,,,,,,,,,,,,,,,,
1577421008.603263,28.000000,0.000000,4329.230957,4402.563965,4278.974121,4192.307617,4283.077148,0.000000,4.000000,,,,0.000000,4.000000,4.000000,4.000000,4.000000,4.000000,,,,,,,,,,,,,,,,,,,,,,,,,
1577421008.610960,29.000000,0.000000,4314.358887,4361.025879,4253.333496,4172.307617,4261.025879,0.000000,4.000000,,,,0.000000,4.000000,4.000000,4.000000,4.000000,4.000000,,,,,,,,,,,,,,,,,,,,,,,,,
1577421008.618756,30.000000,0.000000,4335.897461,4389.743652,4265.641113,4199.487305,4291.282227,0.000000,4.000000,,,,0.000000,4.000000,4.000000,4.000000,4.000000,4.000000,,,,,,,,,,,,,,,,,,,,,,,,,
1577421008.626452,31.000000,0.000000,4298.974121,4369.230957,4231.794922,4164.102539,4263.077148,0.000000,4.000000,,,,0.000000,4.000000,4.000000,4.000000,4.000000,4.000000,,,,,,,,,,,,,,,,,,,,,,,,,
1577421008.634149,32.000000,0.000000,4287.179688,4361.025879,4223.589844,4152.307617,4254.871582,0.000000,4.000000,,,,0.000000,4.000000,4.000000,4.000000,4.000000,4.000000,,,,,,,,,,,,,,,,,,,,,,,,,
1577421008.641946,33.000000,0.000000,4287.692383,4357.948730,4217.436035,4145.641113,4253.846191,0.000000,4.000000,,,,0.000000,4.000000,4.000000,4.000000,4.000000,4.000000,,,,,,,,,,,,,,,,,,,,,,,,,
1577421008.649642,34.000000,0.000000,4264.102539,4338.461426,4195.897461,4140.512695,4240.000000,0.000000,4.000000,,,,0.000000,4.000000,4.000000,4.000000,4.000000,4.000000,,,,,,,,,,,,,,,,,,,,,,,,,
1577421008.657439,35.000000,0.000000,4270.769043,4353.846191,4224.102539,4157.436035,4243.589844,0.000000,4.000000,,,,0.000000,4.000000,4.000000,4.000000,4.000000,4.000000,,,,,,,,,,,,,,,,,,,,,,,,,
1577421008.665135,36.000000,0.000000,4275.384766,4371.794922,4234.358887,4160.000000,4243.077148,0.000000,4.000000,,,,0.000000,4.000000,4.000000,4.000000,4.000000,4.000000,,,,,,,,,,,,,,,,,,,,,,,,,
1577421008.672931,37.000000,0.000000,4268.205078,4366.153809,4210.256348,4163.589844,4252.820313,0.000000,4.000000,,,,0.000000,4.000000,4.000000,4.000000,4.000000,4.000000,,,,,,,,,,,,,,,,,,,,,,,,,
1577421008.680628,38.000000,0.000000,4268.717773,4358.461426,4209.743652,4164.615234,4252.820313,0.000000,4.000000,,,,0.000000,4.000000,4.000000,4.000000,4.000000,4.000000,,,,,,,,,,,,,,,,,,,,,,,,,
1577421008.688424,39.000000,0.000000,4260.512695,4349.743652,4214.358887,4152.820313,4232.307617,0.000000,4.000000,,,,0.000000,4.000000,4.000000,4.000000,4.000000,4.000000,,,,,,,,,,,,,,,,,,,,,,,,,
1577421008.696121,40.000000,0.000000,4287.692383,4366.666504,4227.179688,4182.051270,4262.051270,0.000000,4.000000,,,,0.000000,4.000000,4.000000,4.000000,4.000000,4.000000,,,,,,,,,,,,,,,,,,,,,,,,,
1577421008.703917,41.000000,0.000000,4316.922852,4382.563965,4240.512695,4209.743652,4288.717773,0.000000,4.000000,,,,0.000000,4.000000,4.000000,4.000000,4.000000,4.000000,8.133830,4.782607,3.991607,1.634856,1.327490,16.864120,2.321405,1.751643,1.117155,0.735488,4.810826,2.669657,1.767011,1.017470,0.737114,5.102589,2.692537,2.267100,1.487738,1.438840,7.815843,2.521668,2.334351,1.701724,1.417843
1577421008.711613,42.000000,0.000000,4309.743652,4369.743652,4242.051270,4196.410156,4273.333496,0.000000,4.000000,,,,0.000000,4.000000,4.000000,4.000000,4.000000,4.000000,,,,,,,,,,,,,,,,,,,,,,,,,
1577421008.719410,43.000000,0.000000,4300.000000,4355.897461,4243.077148,4176.410156,4262.563965,0.000000,4.000000,,,,0.000000,4.000000,4.000000,4.000000,4.000000,4.000000,,,,,,,,,,,,,,,,,,,,,,,,,
1577421008.727106,44.000000,0.000000,4286.153809,4354.871582,4240.512695,4165.128418,4255.384766,0.000000,4.000000,,,,0.000000,4.000000,4.000000,4.000000,4.000000,4.000000,,,,,,,,,,,,,,,,,,,,,,,,,
1577421008.734902,45.000000,0.000000,4275.897461,4370.256348,4249.743652,4168.717773,4247.692383,0.000000,4.000000,,,,0.000000,4.000000,4.000000,4.000000,4.000000,4.000000,,,,,,,,,,,,,,,,,,,,,,,,,
1577421008.742599,46.000000,0.000000,4261.025879,4362.563965,4255.897461,4163.077148,4231.794922,0.000000,4.000000,,,,0.000000,4.000000,4.000000,4.000000,4.000000,4.000000,,,,,,,,,,,,,,,,,,,,,,,,,
1577421008.750395,47.000000,0.000000,4260.000000,4345.641113,4265.128418,4161.538574,4238.974121,0.000000,4.000000,,,,0.000000,4.000000,4.000000,4.000000,4.000000,4.000000,,,,,,,,,,,,,,,,,,,,,,,,,
1577421008.758091,48.000000,0.000000,4282.563965,4366.153809,4286.666504,4178.461426,4264.615234,0.000000,4.000000,,,,0.000000,4.000000,4.000000,4.000000,4.000000,4.000000,,,,,,,,,,,,,,,,,,,,,,,,,
1577421008.765888,49.000000,0.000000,4284.615234,4381.538574,4290.256348,4189.230957,4269.230957,0.000000,4.000000,,,,0.000000,4.000000,4.000000,4.000000,4.000000,4.000000,,,,,,,,,,,,,,,,,,,,,,,,,
1577421008.773584,50.000000,0.000000,4268.717773,4361.025879,4277.948730,4187.179688,4259.487305,0.000000,4.000000,,,,0.000000,4.000000,4.000000,4.000000,4.000000,4.000000,,,,,,,,,,,,,,,,,,,,,,,,,
1577421008.781281,51.000000,0.000000,4232.820313,4331.794922,4239.487305,4152.307617,4225.128418,0.000000,4.000000,,,,0.000000,4.000000,4.000000,4.000000,4.000000,4.000000,,,,,,,,,,,,,,,,,,,,,,,,,
1577421008.789077,52.000000,0.000000,4211.794922,4336.922852,4209.230957,4132.307617,4208.717773,0.000000,4.000000,,,,0.000000,4.000000,4.000000,4.000000,4.000000,4.000000,,,,,,,,,,,,,,,,,,,,,,,,,
1577421008.796874,53.000000,0.000000,4248.205078,4365.128418,4231.794922,4178.974121,4249.743652,0.000000,4.000000,,,,0.000000,4.000000,4.000000,4.000000,4.000000,4.000000,,,,,,,,,,,,,,,,,,,,,,,,,
1577421008.804570,54.000000,0.000000,4273.333496,4358.974121,4235.897461,4207.179688,4266.153809,0.000000,4.000000,,,,0.000000,4.000000,4.000000,4.000000,4.000000,4.000000,,,,,,,,,,,,,,,,,,,,,,,,,
1577421008.812267,55.000000,0.000000,4245.128418,4341.025879,4191.794922,4174.871582,4232.820313,0.000000,4.000000,,,,0.000000,4.000000,4.000000,4.000000,4.000000,4.000000,,,,,,,,,,,,,,,,,,,,,,,,,
1577421008.820063,56.000000,0.000000,4229.230957,4346.153809,4171.794922,4161.025879,4220.512695,0.000000,4.000000,,,,0.000000,4.000000,4.000000,4.000000,4.000000,4.000000,,,,,,,,,,,,,,,,,,,,,,,,,
1577421008.827760,57.000000,0.000000,4244.615234,4346.666504,4178.461426,4183.077148,4238.461426,0.000000,4.000000,,,,0.000000,4.000000,4.000000,4.000000,4.000000,4.000000,12.484322,6.200344,5.295343,1.892154,2.098200,20.333195,3.992522,2.965414,1.326961,1.357175,5.502648,2.884697,1.985402,1.319662,1.439255,5.878974,2.733565,2.463053,1.647280,2.052165,8.816470,3.131276,2.719886,1.863991,1.908170
1577421008.835556,58.000000,0.000000,4250.769043,4349.230957,4170.769043,4178.974121,4243.077148,0.000000,4.000000,,,,0.000000,4.000000,4.000000,4.000000,4.000000,4.000000,,,,,,,,,,,,,,,,,,,,,,,,,
1577421008.843253,59.000000,0.000000,4236.922852,4343.589844,4151.282227,4147.179688,4231.794922,0.000000,4.000000,,,,0.000000,4.000000,4.000000,4.000000,4.000000,4.000000,,,,,,,,,,,,,,,,,,,,,,,,,
1577421008.851049,60.000000,0.000000,4236.410156,4322.563965,4147.692383,4151.282227,4236.922852,0.000000,4.000000,,,,0.000000,4.000000,4.000000,4.000000,4.000000,4.000000,,,,,,,,,,,,,,,,,,,,,,,,,
1577421008.858845,61.000000,0.000000,4254.358887,4331.794922,4166.153809,4188.205078,4255.897461,0.000000,4.000000,,,,0.000000,4.000000,4.000000,4.000000,4.000000,4.000000,,,,,,,,,,,,,,,,,,,,,,,,,
1577421008.866542,62.000000,0.000000,4251.282227,4343.077148,4172.307617,4189.743652,4252.820313,0.000000,4.000000,,,,0.000000,4.000000,4.000000,4.000000,4.000000,4.000000,,,,,,,,,,,,,,,,,,,,,,,,,
1577421008.874238,63.000000,0.000000,4218.974121,4312.820313,4155.897461,4158.461426,4218.461426,0.000000,4.000000,,,,0.000000,4.000000,4.000000,4.000000,4.000000,4.000000,,,,,,,,,,,,,,,,,,,,,,,,,
1577421008.882034,64.000000,0.000000,4200.512695,4282.563965,4151.282227,4146.666504,4190.769043,450.000000,4.000000,,,,0.000000,4.000000,4.000000,4.000000,4.000000,4.000000,,,,,,,,,,,,,,,,,,,,,,,,,
1577421008.889731,65.000000,0.000000,4212.820313,4284.102539,4164.615234,4158.974121,4198.974121,450.000000,4.000000,,,,0.000000,4.000000,4.000000,4.000000,4.000000,4.000000,,,,,,,,,,,,,,,,,,,,,,,,,
1577421008.897527,66.000000,0.000000,4221.025879,4288.205078,4177.436035,4171.794922,4202.563965,16211.000000,4.000000,,,,0.000000,4.000000,4.000000,4.000000,4.000000,4.000000,,,,,,,,,,,,,,,,,,,,,,,,,
1577421008.905223,67.000000,0.000000,4224.102539,4289.230957,4193.333496,4185.641113,4207.179688,450.000000,4.000000,,,,0.000000,4.000000,4.000000,4.000000,4.000000,4.000000,,,,,,,,,,,,,,,,,,,,,,,,,
1577421008.913020,68.000000,0.000000,4248.717773,4282.563965,4205.641113,4205.128418,4238.974121,16195.000000,4.000000,,,,0.000000,4.000000,4.000000,4.000000,4.000000,4.000000,,,,,,,,,,,,,,,,,,,,,,,,,
1577421008.920716,69.000000,0.000000,4260.512695,4257.436035,4189.230957,4196.410156,4248.205078,450.000000,4.000000,,,,0.000000,4.000000,4.000000,4.000000,4.000000,4.000000,,,,,,,,,,,,,,,,,,,,,,,,,
1577421008.928512,70.000000,0.000000,4253.846191,4255.897461,4174.871582,4174.358887,4242.051270,16132.000000,4.000000,,,,0.000000,4.000000,4.000000,4.000000,4.000000,4.000000,,,,,,,,,,,,,,,,,,,,,,,,,
1577421008.936209,71.000000,0.000000,4262.051270,4281.025879,4184.102539,4187.692383,4255.384766,450.000000,4.000000,,,,0.000000,4.000000,4.000000,4.000000,4.000000,4.000000,,,,,,,,,,,,,,,,,,,,,,,,,
1577421008.943905,72.000000,0.000000,4272.307617,4295.384766,4181.538574,4197.948730,4268.205078,450.000000,4.000000,,,,0.000000,4.000000,4.000000,4.000000,4.000000,4.000000,,,,,,,,,,,,,,,,,,,,,,,,,
1577421008.951702,73.000000,0.000000,4282.563965,4312.307617,4188.717773,4191.794922,4273.333496,16148.000000,4.000000,,,,0.000000,4.000000,4.000000,4.000000,4.000000,4.000000,19.975033,9.585507,7.749647,2.769710,4.665285,21.875589,7.652024,5.290220,1.815347,3.290397,7.072046,4.276724,2.916808,2.149843,3.625580,6.517377,3.126144,2.849476,1.789291,4.219914,11.364694,4.972281,3.845587,2.161381,3.839588
1577421008.959399,74.000000,0.000000,4286.666504,4326.666504,4202.563965,4198.974121,4270.256348,450.000000,4.000000,,,,0.000000,4.000000,4.000000,4.000000,4.000000,4.000000,,,,,,,,,,,,,,,,,,,,,,,,,
1577421008.967195,75.000000,0.000000,4266.153809,4315.384766,4188.717773,4201.538574,4254.871582,16205.000000,4.000000,,,,0.000000,4.000000,4.000000,4.000000,4.000000,4.000000,,,,,,,,,,,,,,,,,,,,,,,,,
1577421008.974992,76.000000,0.000000,4268.717773,4333.846191,4201.025879,4197.436035,4269.230957,450.000000,4.000000,,,,0.000000,4.000000,4.000000,4.000000,4.000000,4.000000,,,,,,,,,,,,,,,,,,,,,,,,,
1577421008.982688,77.000000,0.000000,4292.307617,4365.128418,4232.820313,4205.641113,4295.384766,450.000000,4.000000,,,,0.000000,4.000000,4.000000,4.000000,4.000000,4.000000,,,,,,,,,,,,,,,,,,,,,,,,,
1577421008.990484,78.000000,0.000000,4277.436035,4344.102539,4220.000000,4213.846191,4278.461426,450.000000,4.000000,,,,0.000000,4.000000,4.000000,4.000000,4.000000,4.000000,,,,,,,,,,,,,,,,,,,,,,,,,
1577421008.998181,79.000000,0.000000,4254.871582,4324.102539,4201.025879,4196.922852,4257.948730,16205.000000,4.000000,,,,0.000000,4.000000,4.000000,4.000000,4.000000,4.000000,,,,,,,,,,,,,,,,,,,,,,,,,
1577421009.005977,80.000000,0.000000,4257.948730,4344.615234,4209.743652,4176.410156,4263.077148,450.000000,4.000000,,,,0.000000,4.000000,4.000000,4.000000,4.000000,4.000000,,,,,,,,,,,,,,,,,,,,,,,,,
1577421009.013673,81.000000,0.000000,4254.358887,4340.512695,4210.769043,4172.820313,4258.974121,450.000000,4.000000,,,,0.000000,4.000000,4.000000,4.000000,4.000000,4.000000,,,,,,,,,,,,,,,,,,,,,,,,,
1577421009.021470,82.000000,0.000000,4251.794922,4312.307617,4205.128418,4184.102539,4252.820313,450.000000,4.000000,,,,0.000000,4.000000,4.000000,4.000000,4.000000,4.000000,,,,,,,,,,,,,,,,,,,,,,,,,
1577421009.029166,83.000000,0.000000,4265.641113,4328.717773,4211.794922,4192.820313,4268.205078,16205.000000,4.000000,,,,0.000000,4.000000,4.000000,4.000000,4.000000,4.000000,,,,,,,,,,,,,,,,,,,,,,,,,
1577421009.036962,84.000000,0.000000,4264.102539,4356.410156,4212.820313,4187.692383,4274.358887,450.000000,4.000000,,,,0.000000,4.000000,4.000000,4.000000,4.000000,4.000000,,,,,,,,,,,,,,,,,,,,,,,,,
1577421009.044659,85.000000,0.000000,4251.282227,4346.153809,4205.641113,4187.179688,4261.538574,450.000000,4.000000,,,,0.000000,4.000000,4.000000,4.000000,4.000000,4.000000,,,,,,,,,,,,,,,,,,,,,,,,,
1577421009.052355,86.000000,0.000000,4246.666504,4330.769043,4193.333496,4191.282227,4255.384766,450.000000,4.000000,,,,0.000000,4.000000,4.000000,4.000000,4.000000,4.000000,,,,,,,,,,,,,,,,,,,,,,,,,
1577421009.060151,87.000000,0.000000,4236.922852,4326.666504,4181.538574,4177.948730,4247.179688,16205.000000,4.000000,,,,0.000000,4.000000,4.000000,4.000000,4.000000,4.000000,,,,,,,,,,,,,,,,,,,,,,,,,
1577421009.067848,88.000000,0.000000,4223.589844,4310.769043,4179.487305,4158.461426,4234.871582,450.000000,4.000000,,,,0.000000,4.000000,4.000000,4.000000,4.000000,4.000000,,,,,,,,,,,,,,,,,,,,,,,,,
1577421009.075544,89.000000,0.000000,4226.153809,4305.641113,4179.487305,4161.538574,4234.358887,450.000000,4.000000,,,,0.000000,4.000000,4.000000,4.000000,4.000000,4.000000,30.140329,15.743735,11.525883,4.438013,9.631580,21.345083,13.466327,8.692835,2.637308,6.914798,10.601502,7.329245,4.784664,3.590228,7.758770,7.106747,4.050037,3.453774,1.890178,8.513987,15.787655,8.539400,5.847893,2.594668,7.734031
1577421009.083341,90.000000,0.000000,4236.922852,4331.794922,4181.025879,4170.256348,4240.512695,450.000000,4.000000,,,,0.000000,4.000000,4.000000,4.000000,4.000000,4.000000,,,,,,,,,,,,,,,,,,,,,,,,,
1577421009.091137,91.000000,0.000000,4233.846191,4353.333496,4192.307617,4173.333496,4245.128418,16205.000000,4.000000,,,,0.000000,4.000000,4.000000,4.000000,4.000000,4.000000,,,,,,,,,,,,,,,,,,,,,,,,,
1577421009.098834,92.000000,0.000000,4219.487305,4349.743652,4197.948730,4172.307617,4238.974121,450.000000,4.000000,,,,0.000000,4.000000,4.000000,4.000000,4.000000,4.000000,,,,,,,,,,,,,,,,,,,,,,,,,
1577421009.106630,93.000000,0.000000,4201.538574,4340.000000,4176.922852,4151.282227,4214.871582,450.000000,4.000000,,,,0.000000,4.000000,4.000000,4.000000,4.000000,4.000000,,,,,,,,,,,,,,,,,,,,,,,,,
1577421009.114327,94.000000,0.000000,4188.205078,4341.025879,4167.179688,4144.102539,4200.000000,450.000000,4.000000,,,,0.000000,4.000000,4.000000,4.000000,4.000000,4.000000,,,,,,,,,,,,,,,,,,,,,,,,,
1577421009.122123,95.000000,0.000000,4190.256348,4361.538574,4190.769043,4158.461426,4203.589844,16205.000000,4.000000,,,,0.000000,4.000000,4.000000,4.000000,4.000000,4.000000,,,,,,,,,,,,,,,,,,,,,,,,,
1577421009.129819,96.000000,0.000000,4212.820313,4391.282227,4226.153809,4161.025879,4221.538574,450.000000,4.000000,,,,0.000000,4.000000,4.000000,4.000000,4.000000,4.000000,,,,,,,,,,,,,,,,,,,,,,,,,
1577421009.137615,97.000000,0.000000,4229.743652,4407.692383,4249.743652,4169.743652,4234.871582,450.000000,4.000000,,,,0.000000,4.000000,4.000000,4.000000,4.000000,4.000000,,,,,,,,,,,,,,,,,,,,,,,,,
1577421009.145312,98.000000,0.000000,4218.461426,4405.128418,4253.333496,4183.077148,4226.666504,450.000000,4.000000,,,,0.000000,4.000000,4.000000,4.000000,4.000000,4.000000,,,,,,,,,,,,,,,,,,,,,,,,,
1577421009.153108,99.000000,0.000000,4212.307617,4397.948730,4253.333496,4188.205078,4227.179688,16205.000000,4.000000,,,,0.000000,4.000000,4.000000,4.000000,4.000000,4.000000,,,,,,,,,,,,,,,,,,,,,,,,,
1577421009.160805,100.000000,0.000000,4218.974121,4396.410156,4253.846191,4188.717773,4235.897461,450.000000,4.000000,,,,0.000000,4.000000,4.000000,4.000000,4.000000,4.000000,,,,,,,,,,,,,,,,,,,,,,,,,
1577421009.168501,101.000000,0.000000,4209.743652,4397.436035,4240.000000,4178.461426,4228.205078,450.000000,4.000000,,,,0.000000,4.000000,4.000000,4.000000,4.000000,4.000000,,,,,,,,,,,,,,,,,,,,,,,,,
1577421009.176298,102.000000,0.000000,4193.846191,4389.743652,4212.820313,4158.974121,4211.282227,450.000000,4.000000,,,,0.000000,4.000000,4.000000,4.000000,4.000000,4.000000,,,,,,,,,,,,,,,,,,,,,,,,,
1577421009.184094,103.000000,0.000000,4191.282227,4380.512695,4196.410156,4159.487305,4204.102539,16205.000000,4.000000,,,,0.000000,4.000000,4.000000,4.000000,4.000000,4.000000,,,,,,,,,,,,,,,,,,,,,,,,,
1577421009.191791,104.000000,0.000000,4209.743652,4392.820313,4209.743652,4186.666504,4222.563965,450.000000,4.000000,,,,0.000000,4.000000,4.000000,4.000000,4.000000,4.000000,,,,,,,,,,,,,,,,,,,,,,,,,
1577421009.199487,105.000000,0.000000,4231.794922,4403.589844,4224.615234,4194.871582,4247.179688,450.000000,4.000000,,,,0.000000,4.000000,4.000000,4.000000,4.000000,4.000000,40.564919,24.374071,16.026630,6.692959,16.477665,19.528627,20.529245,12.516171,3.680239,11.828167,16.613506,11.800201,7.393096,5.427414,13.392447,7.631939,5.482738,4.154333,1.983410,14.541346,21.282869,13.654668,8.428565,3.096713,13.216986
1577421009.207284,106.000000,0.000000,4223.077148,4374.871582,4201.025879,4174.358887,4237.436035,450.000000,4.000000,,,,0.000000,4.000000,4.000000,4.000000,4.000000,4.000000,,,,,,,,,,,,,,,,,,,,,,,,,
1577421009.215080,107.000000,0.000000,4205.128418,4341.538574,4165.128418,4162.563965,4212.820313,16205.000000,4.000000,,,,0.000000,4.000000,4.000000,4.000000,4.000000,4.000000,,,,,,,,,,,,,,,,,,,,,,,,,
1577421009.222777,108.000000,0.000000,4212.820313,4340.512695,4153.846191,4169.743652,4215.384766,450.000000,4.000000,,,,0.000000,4.000000,4.000000,4.000000,4.000000,4.000000,,,,,,,,,,,,,,,,,,,,,,,,,
1577421009.230473,109.000000,0.000000,4218.974121,4338.974121,4146.666504,4172.820313,4223.077148,450.000000,4.000000,,,,0.000000,4.000000,4.000000,4.000000,4.000000,4.000000,,,,,,,,,,,,,,,,,,,,,,,,,
1577421009.238269,110.000000,0.000000,4208.717773,4294.871582,4132.820313,4160.000000,4213.333496,450.000000,4.000000,,,,0.000000,4.000000,4.000000,4.000000,4.000000,4.000000,,,,,,,,,,,,,,,,,,,,,,,,,
1577421009.245966,111.000000,0.000000,4195.384766,4231.794922,4113.333496,4148.205078,4201.538574,16205.000000,4.000000,,,,0.000000,4.000000,4.000000,4.000000,4.000000,4.000000,,,,,,,,,,,,,,,,,,,,,,,,,
1577421009.253762,112.000000,0.000000,4187.179688,4204.102539,4101.025879,4160.512695,4198.974121,450.000000,4.000000,,,,0.000000,4.000000,4.000000,4.000000,4.000000,4.000000,,,,,,,,,,,,,,,,,,,,,,,,,
1577421009.261458,113.000000,0.000000,4184.615234,4200.512695,4097.948730,4163.589844,4195.384766,450.000000,4.000000,,,,0.000000,4.000000,4.000000,4.000000,4.000000,4.000000,,,,,,,,,,,,,,,,,,,,,,,,,
1577421009.269255,114.000000,0.000000,4187.179688,4196.922852,4090.256348,4140.512695,4194.871582,450.000000,4.000000,,,,0.000000,4.000000,4.000000,4.000000,4.000000,4.000000,,,,,,,,,,,,,,,,,,,,,,,,,
1577421009.276951,115.000000,0.000000,4190.769043,4220.000000,4085.641113,4147.179688,4199.487305,16205.000000,4.000000,,,,0.000000,4.000000,4.000000,4.000000,4.000000,4.000000,,,,,,,,,,,,,,,,,,,,,,,,,
1577421009.284747,116.000000,0.000000,4187.692383,4255.384766,4087.692383,4165.641113,4193.333496,450.000000,4.000000,,,,0.000000,4.000000,4.000000,4.000000,4.000000,4.000000,,,,,,,,,,,,,,,,,,,,,,,,,
1577421009.292444,117.000000,0.000000,4189.230957,4285.128418,4100.000000,4161.025879,4192.820313,450.000000,4.000000,,,,0.000000,4.000000,4.000000,4.000000,4.000000,4.000000,,,,,,,,,,,,,,,,,,,,,,,,,
1577421009.300240,118.000000,0.000000,4196.922852,4310.769043,4115.384766,4157.948730,4198.461426,450.000000,4.000000,,,,0.000000,4.000000,4.000000,4.000000,4.000000,4.000000,,,,,,,,,,,,,,,,,,,,,,,,,
1577421009.307936,119.000000,0.000000,4185.641113,4307.179688,4114.358887,4142.563965,4188.717773,16205.000000,4.000000,,,,0.000000,4.000000,4.000000,4.000000,4.000000,4.000000,,,,,,,,,,,,,,,,,,,,,,,,,
1577421009.315633,120.000000,0.000000,4158.461426,4288.205078,4107.692383,4118.461426,4167.179688,450.000000,4.000000,,,,0.000000,4.000000,4.000000,4.000000,4.000000,4.000000,,,,,,,,,,,,,,,,,,,,,,,,,
1577421009.323430,121.000000,0.000000,4153.333496,4306.153809,4126.153809,4137.948730,4165.641113,450.000000,4.000000,,,,0.000000,4.000000,4.000000,4.000000,4.000000,4.000000,48.165520,33.594551,20.014410,8.975677,23.501953,17.416349,26.941395,15.678114,4.689627,16.824158,24.497995,16.453117,10.154527,7.210435,19.133980,7.992848,7.085365,4.719856,2.123111,20.843405,26.267176,19.204985,10.910604,3.553740,18.941671
1577421009.331226,122.000000,0.000000,4186.153809,4341.025879,4163.077148,4181.538574,4199.487305,450.000000,4.000000,,,,0.000000,4.000000,4.000000,4.000000,4.000000,4.000000,,,,,,,,,,,,,,,,,,,,,,,,,
1577421009.338923,123.000000,0.000000,4216.922852,4343.589844,4180.512695,4180.512695,4223.589844,16205.000000,4.000000,,,,0.000000,4.000000,4.000000,4.000000,4.000000,4.000000,,,,,,,,,,,,,,,,,,,,,,,,,
1577421009.346619,124.000000,0.000000,4214.871582,4333.333496,4180.512695,4159.487305,4217.948730,450.000000,4.000000,,,,0.000000,4.000000,4.000000,4.000000,4.000000,4.000000,,,,,,,,,,,,,,,,,,,,,,,,,
1577421009.354416,125.000000,0.000000,4226.666504,4341.025879,4189.743652,4161.538574,4224.615234,450.000000,4.000000,,,,0.000000,4.000000,4.000000,4.000000,4.000000,4.000000,,,,,,,,,,,,,,,,,,,,,,,,,
1577421009.362112,126.000000,0.000000,4297.948730,4352.307617,4213.846191,4170.256348,4259.487305,450.000000,4.000000,,,,0.000000,4.000000,4.000000,4.000000,4.000000,4.000000,,,,,,,,,,,,,,,,,,,,,,,,,
1577421009.369909,127.000000,0.000000,4396.922852,4355.384766,4235.897461,4179.487305,4307.179688,235.000000,4.000000,,,,0.000000,4.000000,4.000000,4.000000,4.000000,4.000000,,,,,,,,,,,,,,,,,,,,,,,,,
1577421009.377605,0.000000,0.000000,4476.922852,4353.846191,4243.589844,4182.563965,4352.307617,450.000000,4.000000,,,,0.000000,4.000000,4.000000,4.000000,4.000000,4.000000,,,,,,,,,,,,,,,,,,,,,,,,,
1577421009.385402,1.000000,0.000000,4533.333496,4346.666504,4240.512695,4171.282227,4387.179688,450.000000,4.000000,,,,0.000000,4.000000,4.000000,4.000000,4.000000,4.000000,,,,,,,,,,,,,,,,,,,,,,,,,
1577421009.393099,2.000000,0.000000,4567.692383,4333.846191,4230.769043,4162.051270,4404.615234,16217.000000,4.000000,,,,0.000000,4.000000,4.000000,4.000000,4.000000,4.000000,,,,,,,,,,,,,,,,,,,,,,,,,
1577421009.400895,3.000000,0.000000,4580.000000,4317.436035,4222.563965,4152.820313,4410.256348,450.000000,4.000000,,,,0.000000,4.000000,4.000000,4.000000,4.000000,4.000000,,,,,,,,,,,,,,,,,,,,,,,,,
1577421009.408592,4.000000,0.000000,4588.205078,4307.692383,4222.563965,4159.487305,4425.641113,16208.000000,4.000000,,,,0.000000,4.000000,4.000000,4.000000,4.000000,4.000000,,,,,,,,,,,,,,,,,,,,,,,,,
1577421009.416388,5.000000,0.000000,4580.512695,4290.769043,4214.358887,4177.948730,4429.743652,450.000000,4.000000,,,,0.000000,4.000000,4.000000,4.000000,4.000000,4.000000,,,,,,,,,,,,,,,,,,,,,,,,,
1577421009.424085,6.000000,0.000000,4544.615234,4249.230957,4189.230957,4164.615234,4406.666504,16139.000000,4.000000,,,,0.000000,4.000000,4.000000,4.000000,4.000000,4.000000,,,,,,,,,,,,,,,,,,,,,,,,,
1577421009.431881,7.000000,0.000000,4516.410156,4233.333496,4173.846191,4144.102539,4392.307617,450.000000,4.000000,,,,0.000000,4.000000,4.000000,4.000000,4.000000,4.000000,,,,,,,,,,,,,,,,,,,,,,,,,
1577421009.439578,8.000000,0.000000,4504.102539,4274.871582,4181.025879,4157.436035,4391.794922,450.000000,4.000000,,,,0.000000,4.000000,4.000000,4.000000,4.000000,4.000000,,,,,,,,,,,,,,,,,,,,,,,,,
1577421009.447374,9.000000,0.000000,4480.000000,4300.000000,4185.641113,4172.820313,4377.948730,16151.000000,4.000000,,,,0.000000,4.000000,4.000000,4.000000,4.000000,4.000000,50.920856,40.676548,22.101604,10.573089,28.463791,16.323915,30.581182,17.049591,5.356699,20.343658,33.058086,19.737892,12.214539,8.407487,23.172714,8.104626,8.376990,4.935359,2.333657,25.434477,29.456467,23.645933,12.472322,3.852763,23.088709
1577421009.455071,10.000000,0.000000,4441.025879,4280.512695,4184.102539,4163.077148,4349.230957,450.000000,4.000000,,,,0.000000,4.000000,4.000000,4.000000,4.000000,4.000000,,,,,,,,,,,,,,,,,,,,,,,,,
1577421009.462867,11.000000,0.000000,4400.512695,4282.563965,4180.000000,4148.717773,4323.589844,16206.000000,4.000000,,,,0.000000,4.000000,4.000000,4.000000,4.000000,4.000000,,,,,,,,,,,,,,,,,,,,,,,,,
1577421009.470563,12.000000,0.000000,4372.820313,4304.615234,4173.846191,4146.153809,4305.641113,450.000000,4.000000,,,,0.000000,4.000000,4.000000,4.000000,4.000000,4.000000,,,,,,,,,,,,,,,,,,,,,,,,,
1577421009.478360,13.000000,0.000000,4338.974121,4285.128418,4158.974121,4138.461426,4274.358887,450.000000,4.000000,,,,0.000000,4.000000,4.000000,4.000000,4.000000,4.000000,,,,,,,,,,,,,,,,,,,,,,,,,
1577421009.486056,14.000000,0.000000,4296.922852,4255.897461,4138.974121,4121.538574,4245.128418,450.000000,4.000000,,,,0.000000,4.000000,4.000000,4.000000,4.000000,4.000000,,,,,,,,,,,,,,,,,,,,,,,,,
1577421009.493852,15.000000,0.000000,4284.102539,4258.461426,4143.589844,4125.641113,4247.179688,16206.000000,4.000000,,,,0.000000,4.000000,4.000000,4.000000,4.000000,4.000000,,,,,,,,,,,,,,,,,,,,,,,,,
1577421009.501549,16.000000,0.000000,4277.948730,4248.717773,4154.871582,4136.410156,4245.128418,0.000000,4.000000,,,,0.000000,4.000000,4.000000,4.000000,4.000000,4.000000,,,,,,,,,,,,,,,,,,,,,,,,,
1577421009.509245,17.000000,0.000000,4260.000000,4222.051270,4155.897461,4135.897461,4229.743652,0.000000,4.000000,,,,0.000000,4.000000,4.000000,4.000000,4.000000,4.000000,,,,,,,,,,,,,,,,,,,,,,,,,
1577421009.517042,18.000000,0.000000,4262.051270,4213.333496,4159.487305,4147.692383,4232.820313,0.000000,4.000000,,,,0.000000,4.000000,4.000000,4.000000,4.000000,4.000000,,,,,,,,,,,,,,,,,,,,,,,,,
1577421009.524838,19.000000,0.000000,4250.769043,4197.436035,4146.153809,4144.615234,4223.589844,0.000000,4.000000,,,,0.000000,4.000000,4.000000,4.000000,4.000000,4.000000,,,,,,,,,,,,,,,,,,,,,,,,,
1577421009.532535,20.000000,0.000000,4217.436035,4173.846191,4131.794922,4121.025879,4198.461426,0.000000,4.000000,,,,0.000000,4.000000,4.000000,4.000000,4.000000,4.000000,,,,,,,,,,,,,,,,,,,,,,,,,
1577421009.540331,21.000000,0.000000,4216.922852,4171.282227,4150.769043,4123.077148,4204.615234,0.000000,4.000000,,,,0.000000,4.000000,4.000000,4.000000,4.000000,4.000000,,,,,,,,,,,,,,,,,,,,,,,,,
1577421009.548027,22.000000,0.000000,4233.846191,4171.794922,4164.615234,4138.974121,4220.512695,0.000000,4.000000,,,,0.000000,4.000000,4.000000,4.000000,4.000000,4.000000,,,,,,,,,,,,,,,,,,,,,,,,,
1577421009.555824,23.000000,0.000000,4225.128418,4154.358887,4152.307617,4130.769043,4211.282227,0.000000,4.000000,,,,0.000000,4.000000,4.000000,4.000000,4.000000,4.000000,,,,,,,,,,,,,,,,,,,,,,,,,
1577421009.563520,24.000000,0.000000,4205.641113,4135.897461,4144.102539,4124.615234,4199.487305,0.000000,4.000000,,,,0.000000,4.000000,4.000000,4.000000,4.000000,4.000000,,,,,,,,,,,,,,,,,,,,,,,,,
1577421009.571316,25.000000,0.000000,4191.794922,4122.563965,4137.436035,4130.256348,4189.230957,0.000000,4.000000,,,,0.000000,4.000000,4.000000,4.000000,4.000000,4.000000,50.696716,42.857792,21.364969,10.962073,29.611391,18.624557,30.468164,16.184290,5.487651,21.184488,41.521698,20.493465,12.859205,8.650529,24.102863,7.952900,8.884608,4.708753,2.590205,26.709532,30.896236,25.410080,12.508737,3.920527,24.198112
1577421009.579013,26.000000,0.000000,4187.692383,4111.282227,4129.230957,4130.769043,4180.000000,0.000000,4.000000,,,,0.000000,4.000000,4.000000,4.000000,4.000000,4.000000,,,,,,,,,,,,,,,,,,,,,,,,,
1577421009.586809,27.000000,0.000000,4198.461426,4108.205078,4135.384766,4132.307617,4192.820313,0.000000,4.000000,,,,0.000000,4.000000,4.000000,4.000000,4.000000,4.000000,,,,,,,,,,,,,,,,,,,,,,,,,
1577421009.594505,28.000000,0.000000,4195.384766,4113.846191,4135.897461,4135.384766,4194.871582,0.000000,4.000000,,,,0.000000,4.000000,4.000000,4.000000,4.000000,4.000000,,,,,,,,,,,,,,,,,,,,,,,,,
1577421009.602302,29.000000,0.000000,4174.358887,4109.230957,4119.487305,4120.000000,4171.282227,0.000000,4.000000,,,,0.000000,4.000000,4.000000,4.000000,4.000000,4.000000,,,,,,,,,,,,,,,,,,,,,,,,,
1577421009.609998,30.000000,0.000000,4172.307617,4097.436035,4115.384766,4102.563965,4164.615234,0.000000,4.000000,,,,0.000000,4.000000,4.000000,4.000000,4.000000,4.000000,,,,,,,,,,,,,,,,,,,,,,,,,
1577421009.617695,31.000000,0.000000,4170.256348,4089.230713,4118.974121,4110.256348,4162.051270,0.000000,4.000000,,,,0.000000,4.000000,4.000000,4.000000,4.000000,4.000000,,,,,,,,,,,,,,,,,,,,,,,,,
1577421009.625491,32.000000,0.000000,4161.538574,4102.563965,4119.487305,4128.205078,4157.948730,0.000000,4.000000,,,,0.000000,4.000000,4.000000,4.000000,4.000000,4.000000,,,,,,,,,,,,,,,,,,,,,,,,,
1577421009.633288,33.000000,0.000000,4160.000000,4125.641113,4125.128418,4123.589844,4157.948730,0.000000,4.000000,,,,0.000000,4.000000,4.000000,4.000000,4.000000,4.000000,,,,,,,,,,,,,,,,,,,,,,,,,
1577421009.640984,34.000000,0.000000,4156.410156,4120.000000,4131.282227,4109.230957,4153.333496,0.000000,4.000000,,,,0.000000,4.000000,4.000000,4.000000,4.000000,4.000000,,,,,,,,,,,,,,,,,,,,,,,,,
1577421009.648680,35.000000,0.000000,4168.717773,4121.025879,4143.589844,4125.128418,4167.692383,0.000000,4.000000,,,,0.000000,4.000000,4.000000,4.000000,4.000000,4.000000,,,,,,,,,,,,,,,,,,,,,,,,,
1577421009.656477,36.000000,0.000000,4175.897461,4136.922852,4146.666504,4133.846191,4178.461426,0.000000,4.000000,,,,0.000000,4.000000,4.000000,4.000000,4.000000,4.000000,,,,,,,,,,,,,,,,,,,,,,,,,
1577421009.664173,37.000000,0.000000,4163.077148,4131.794922,4138.974121,4127.179688,4167.179688,0.000000,4.000000,,,,0.000000,4.000000,4.000000,4.000000,4.000000,4.000000,,,,,,,,,,,,,,,,,,,,,,,,,
1577421009.671969,38.000000,0.000000,4169.230957,4128.205078,4149.743652,4136.410156,4171.282227,0.000000,4.000000,,,,0.000000,4.000000,4.000000,4.000000,4.000000,4.000000,,,,,,,,,,,,,,,,,,,,,,,,,
1577421009.679666,39.000000,0.000000,4168.717773,4133.846191,4147.179688,4121.025879,4171.794922,0.000000,4.000000,,,,0.000000,4.000000,4.000000,4.000000,4.000000,4.000000,,,,,,,,,,,,,,,,,,,,,,,,,
1577421009.687462,40.000000,0.000000,4151.282227,4135.897461,4135.897461,4103.589844,4156.922852,0.000000,4.000000,,,,0.000000,4.000000,4.000000,4.000000,4.000000,4.000000,,,,,,,,,,,,,,,,,,,,,,,,,
1577421009.695159,41.000000,0.000000,4167.692383,4145.641113,4156.410156,4129.230957,4171.282227,0.000000,4.000000,,,,0.000000,4.000000,4.000000,4.000000,4.000000,4.000000,55.671551,39.911278,18.091518,10.064902,26.537416,26.187067,27.090405,13.581524,5.094697,19.078421,49.688068,18.403456,11.873685,7.910400,21.601738,7.588778,8.357586,4.092347,2.830680,24.211678,32.953354,23.942564,10.994045,3.762637,21.871838
1577421009.702955,42.000000,0.000000,4194.358887,4161.025879,4176.922852,4156.410156,4196.410156,0.000000,4.000000,,,,0.000000,4.000000,4.000000,4.000000,4.000000,4.000000,,,,,,,,,,,,,,,,,,,,,,,,,
1577421009.710651,43.000000,0.000000,4186.666504,4157.948730,4170.256348,4142.563965,4188.717773,0.000000,4.000000,,,,0.000000,4.000000,4.000000,4.000000,4.000000,4.000000,,,,,,,,,,,,,,,,,,,,,,,,,
1577421009.718447,44.000000,0.000000,4171.794922,4144.102539,4164.615234,4123.077148,4172.307617,0.000000,4.000000,,,,0.000000,4.000000,4.000000,4.000000,4.000000,4.000000,,,,,,,,,,,,,,,,,,,,,,,,,
1577421009.726144,45.000000,0.000000,4180.000000,4150.769043,4174.871582,4135.384766,4178.974121,0.000000,4.000000,,,,0.000000,4.000000,4.000000,4.000000,4.000000,4.000000,,,,,,,,,,,,,,,,,,,,,,,,,
1577421009.733940,46.000000,0.000000,4192.820313,4167.179688,4177.436035,4156.922852,4186.153809,0.000000,4.000000,,,,0.000000,4.000000,4.000000,4.000000,4.000000,4.000000,,,,,,,,,,,,,,,,,,,,,,,,,
1577421009.741637,47.000000,0.000000,4181.025879,4172.307617,4164.615234,4144.615234,4172.820313,0.000000,4.000000,,,,0.000000,4.000000,4.000000,4.000000,4.000000,4.000000,,,,,,,,,,,,,,,,,,,,,,,,,
1577421009.749433,48.000000,0.000000,4156.410156,4172.820313,4163.589844,4118.974121,4160.000000,0.000000,4.000000,,,,0.000000,4.000000,4.000000,4.000000,4.000000,4.000000,,,,,,,,,,,,,,,,,,,,,,,,,
1577421009.757129,49.000000,0.000000,4157.948730,4177.948730,4169.230957,4124.102539,4165.128418,0.000000,4.000000,,,,0.000000,4.000000,4.000000,4.000000,4.000000,4.000000,,,,,,,,,,,,,,,,,,,,,,,,,
1577421009.764826,50.000000,0.000000,4187.179688,4185.641113,4168.717773,4142.051270,4184.102539,0.000000,4.000000,,,,0.000000,4.000000,4.000000,4.000000,4.000000,4.000000,,,,,,,,,,,,,,,,,,,,,,,,,
1577421009.772622,51.000000,0.000000,4201.025879,4193.846191,4175.384766,4151.282227,4198.461426,0.000000,4.000000,,,,0.000000,4.000000,4.000000,4.000000,4.000000,4.000000,,,,,,,,,,,,,,,,,,,,,,,,,
1577421009.780319,52.000000,0.000000,4177.436035,4179.487305,4172.307617,4131.794922,4183.077148,0.000000,4.000000,,,,0.000000,4.000000,4.000000,4.000000,4.000000,4.000000,,,,,,,,,,,,,,,,,,,,,,,,,
1577421009.788116,53.000000,0.000000,4171.282227,4178.974121,4168.717773,4115.897461,4174.358887,0.000000,4.000000,,,,0.000000,4.000000,4.000000,4.000000,4.000000,4.000000,,,,,,,,,,,,,,,,,,,,,,,,,
1577421009.795812,54.000000,0.000000,4203.077148,4212.307617,4194.871582,4146.153809,4196.922852,0.000000,4.000000,,,,0.000000,4.000000,4.000000,4.000000,4.000000,4.000000,,,,,,,,,,,,,,,,,,,,,,,,,
1577421009.803609,55.000000,0.000000,4208.717773,4220.000000,4204.615234,4161.538574,4203.077148,0.000000,4.000000,,,,0.000000,4.000000,4.000000,4.000000,4.000000,4.000000,,,,,,,,,,,,,,,,,,,,,,,,,
1577421009.811305,56.000000,0.000000,4175.897461,4199.487305,4181.538574,4133.333496,4173.846191,0.000000,4.000000,,,,0.000000,4.000000,4.000000,4.000000,4.000000,4.000000,,,,,,,,,,,,,,,,,,,,,,,,,
1577421009.819102,57.000000,0.000000,4157.436035,4194.871582,4172.307617,4126.666504,4156.410156,0.000000,4.000000,,,,0.000000,4.000000,4.000000,4.000000,4.000000,4.000000,75.160767,33.797657,13.523177,8.261160,20.364956,38.140602,22.067202,10.377020,4.379701,14.819354,57.274544,14.265287,9.663148,6.492978,16.579197,7.080543,6.910181,3.265390,2.982320,18.848604,38.774071,19.882229,8.445503,3.451230,16.958420
1577421009.826798,58.000000,0.000000,4170.256348,4212.307617,4184.102539,4137.948730,4171.282227,0.000000,4.000000,,,,0.000000,4.000000,4.000000,4.000000,4.000000,4.000000,,,,,,,,,,,,,,,,,,,,,,,,,
1577421009.834595,59.000000,0.000000,4170.256348,4220.512695,4186.153809,4117.436035,4169.230957,0.000000,4.000000,,,,0.000000,4.000000,4.000000,4.000000,4.000000,4.000000,,,,,,,,,,,,,,,,,,,,,,,,,
1577421009.842291,60.000000,0.000000,4153.333496,4214.358887,4181.538574,4110.256348,4154.871582,0.000000,4.000000,,,,0.000000,4.000000,4.000000,4.000000,4.000000,4.000000,,,,,,,,,,,,,,,,,,,,,,,,,
1577421009.850087,61.000000,0.000000,4159.487305,4224.615234,4190.769043,4148.205078,4165.128418,0.000000,4.000000,,,,0.000000,4.000000,4.000000,4.000000,4.000000,4.000000,,,,,,,,,,,,,,,,,,,,,,,,,
1577421009.857784,62.000000,0.000000,4174.871582,4242.051270,4199.487305,4163.589844,4180.512695,0.000000,4.000000,,,,0.000000,4.000000,4.000000,4.000000,4.000000,4.000000,,,,,,,,,,,,,,,,,,,,,,,,,
1577421009.865580,63.000000,0.000000,4184.102539,4244.102539,4209.230957,4156.410156,4188.717773,0.000000,4.000000,,,,0.000000,4.000000,4.000000,4.000000,4.000000,4.000000,,,,,,,,,,,,,,,,,,,,,,,,,
1577421009.873376,64.000000,0.000000,4189.230957,4245.641113,4213.333496,4158.461426,4192.307617,450.000000,4.000000,,,,0.000000,4.000000,4.000000,4.000000,4.000000,4.000000,,,,,,,,,,,,,,,,,,,,,,,,,
1577421009.881073,65.000000,0.000000,4183.077148,4258.974121,4202.051270,4157.436035,4187.179688,450.000000,4.000000,,,,0.000000,4.000000,4.000000,4.000000,4.000000,4.000000,,,,,,,,,,,,,,,,,,,,,,,,,
1577421009.888769,66.000000,0.000000,4175.897461,4263.589844,4202.051270,4146.153809,4180.000000,16222.000000,4.000000,,,,0.000000,4.000000,4.000000,4.000000,4.000000,4.000000,,,,,,,,,,,,,,,,,,,,,,,,,
1577421009.896565,67.000000,0.000000,4170.256348,4257.436035,4209.743652,4129.230957,4171.282227,450.000000,4.000000,,,,0.000000,4.000000,4.000000,4.000000,4.000000,4.000000,,,,,,,,,,,,,,,,,,,,,,,,,
1577421009.904262,68.000000,0.000000,4166.153809,4262.051270,4206.153809,4127.179688,4164.615234,16202.000000,4.000000,,,,0.000000,4.000000,4.000000,4.000000,4.000000,4.000000,,,,,,,,,,,,,,,,,,,,,,,,,
1577421009.911958,69.000000,0.000000,4175.384766,4271.794922,4210.769043,4143.077148,4171.282227,450.000000,4.000000,,,,0.000000,4.000000,4.000000,4.000000,4.000000,4.000000,,,,,,,,,,,,,,,,,,,,,,,,,
1577421009.919755,70.000000,0.000000,4176.410156,4263.589844,4220.512695,4135.897461,4176.410156,16133.000000,4.000000,,,,0.000000,4.000000,4.000000,4.000000,4.000000,4.000000,,,,,,,,,,,,,,,,,,,,,,,,,
1577421009.927451,71.000000,0.000000,4170.256348,4261.538574,4221.025879,4127.692383,4174.871582,450.000000,4.000000,,,,0.000000,4.000000,4.000000,4.000000,4.000000,4.000000,,,,,,,,,,,,,,,,,,,,,,,,,
1577421009.935248,72.000000,0.000000,4183.077148,4287.692383,4229.230957,4154.871582,4178.974121,450.000000,4.000000,,,,0.000000,4.000000,4.000000,4.000000,4.000000,4.000000,,,,,,,,,,,,,,,,,,,,,,,,,
1577421009.942945,73.000000,0.000000,4189.230957,4293.333496,4235.897461,4161.538574,4179.487305,16167.000000,4.000000,,,,0.000000,4.000000,4.000000,4.000000,4.000000,4.000000,112.925354,27.488455,9.225091,6.160859,13.188772,52.470585,17.239504,7.734625,3.605283,9.862651,63.400143,9.535728,7.012472,4.873939,10.727592,6.511975,4.976643,2.467561,2.980257,12.441865,49.843380,14.699522,5.682431,3.065960,11.125269
1577421009.950741,74.000000,0.000000,4170.256348,4268.717773,4220.000000,4116.922852,4162.563965,450.000000,4.000000,,,,0.000000,4.000000,4.000000,4.000000,4.000000,4.000000,,,,,,,,,,,,,,,,,,,,,,,,,
1577421009.958538,75.000000,0.000000,4164.615234,4257.948730,4200.000000,4096.922852,4154.358887,16212.000000,4.000000,,,,0.000000,4.000000,4.000000,4.000000,4.000000,4.000000,,,,,,,,,,,,,,,,,,,,,,,,,
1577421009.966234,76.000000,0.000000,4180.000000,4264.615234,4201.538574,4129.230957,4168.717773,450.000000,4.000000,,,,0.000000,4.000000,4.000000,4.000000,4.000000,4.000000,,,,,,,,,,,,,,,,,,,,,,,,,
1577421009.974030,77.000000,0.000000,4198.974121,4265.128418,4220.000000,4151.794922,4187.692383,450.000000,4.000000,,,,0.000000,4.000000,4.000000,4.000000,4.000000,4.000000,,,,,,,,,,,,,,,,,,,,,,,,,
1577421009.981727,78.000000,0.000000,4220.512695,4259.487305,4234.358887,4147.692383,4203.589844,450.000000,4.000000,,,,0.000000,4.000000,4.000000,4.000000,4.000000,4.000000,,,,,,,,,,,,,,,,,,,,,,,,,
1577421009.989523,79.000000,0.000000,4237.436035,4256.410156,4235.384766,4146.666504,4211.282227,16212.000000,4.000000,,,,0.000000,4.000000,4.000000,4.000000,4.000000,4.000000,,,,,,,,,,,,,,,,,,,,,,,,,
1577421009.997219,80.000000,0.000000,4248.717773,4254.871582,4225.641113,4141.538574,4210.256348,450.000000,4.000000,,,,0.000000,4.000000,4.000000,4.000000,4.000000,4.000000,,,,,,,,,,,,,,,,,,,,,,,,,
1577421010.005016,81.000000,0.000000,4283.077148,4257.436035,4220.512695,4136.410156,4228.717773,450.000000,4.000000,,,,0.000000,4.000000,4.000000,4.000000,4.000000,4.000000,,,,,,,,,,,,,,,,,,,,,,,,,
1577421010.012712,82.000000,0.000000,4345.641113,4257.948730,4229.230957,4152.307617,4266.153809,450.000000,4.000000,,,,0.000000,4.000000,4.000000,4.000000,4.000000,4.000000,,,,,,,,,,,,,,,,,,,,,,,,,
1577421010.020408,83.000000,0.000000,4414.358887,4251.282227,4234.358887,4161.025879,4306.153809,16212.000000,4.000000,,,,0.000000,4.000000,4.000000,4.000000,4.000000,4.000000,,,,,,,,,,,,,,,,,,,,,,,,,
1577421010.028205,84.000000,0.000000,4489.743652,4246.666504,4233.846191,4162.563965,4362.051270,450.000000,4.000000,,,,0.000000,4.000000,4.000000,4.000000,4.000000,4.000000,,,,,,,,,,,,,,,,,,,,,,,,,
1577421010.035901,85.000000,0.000000,4556.922852,4237.948730,4231.282227,4170.256348,4417.948730,450.000000,4.000000,,,,0.000000,4.000000,4.000000,4.000000,4.000000,4.000000,,,,,,,,,,,,,,,,,,,,,,,,,
1577421010.043697,86.000000,0.000000,4571.794922,4223.077148,4214.358887,4160.512695,4431.794922,450.000000,4.000000,,,,0.000000,4.000000,4.000000,4.000000,4.000000,4.000000,,,,,,,,,,,,,,,,,,,,,,,,,
1577421010.051394,87.000000,0.000000,4552.307617,4217.948730,4190.256348,4143.589844,4413.333496,16212.000000,4.000000,,,,0.000000,4.000000,4.000000,4.000000,4.000000,4.000000,,,,,,,,,,,,,,,,,,,,,,,,,
1577421010.059190,88.000000,0.000000,4551.282227,4214.358887,4177.948730,4144.615234,4408.205078,450.000000,4.000000,,,,0.000000,4.000000,4.000000,4.000000,4.000000,4.000000,,,,,,,,,,,,,,,,,,,,,,,,,
1577421010.066886,89.000000,0.000000,4558.461426,4204.615234,4173.333496,4150.769043,4421.538574,450.000000,4.000000,,,,0.000000,4.000000,4.000000,4.000000,4.000000,4.000000,163.207687,23.314674,6.375548,4.334444,7.089330,64.610435,13.775826,6.291069,2.968575,5.637071,66.771271,5.609846,4.714362,3.480527,5.721533,5.941312,3.129922,1.881863,2.808782,6.878405,64.737022,10.061702,3.456182,2.665681,6.074177
1577421010.074683,90.000000,0.000000,4542.563965,4194.358887,4157.436035,4138.461426,4405.128418,450.000000,4.000000,,,,0.000000,4.000000,4.000000,4.000000,4.000000,4.000000,,,,,,,,,,,,,,,,,,,,,,,,,
1577421010.082379,91.000000,0.000000,4517.436035,4182.563965,4141.538574,4124.102539,4373.333496,16212.000000,4.000000,,,,0.000000,4.000000,4.000000,4.000000,4.000000,4.000000,,,,,,,,,,,,,,,,,,,,,,,,,
1577421010.090175,92.000000,0.000000,4506.666504,4184.615234,4147.692383,4123.077148,4362.563965,450.000000,4.000000,,,,0.000000,4.000000,4.000000,4.000000,4.000000,4.000000,,,,,,,,,,,,,,,,,,,,,,,,,
1577421010.097872,93.000000,0.000000,4479.487305,4187.179688,4153.333496,4107.179688,4338.461426,450.000000,4.000000,,,,0.000000,4.000000,4.000000,4.000000,4.000000,4.000000,,,,,,,,,,,,,,,,,,,,,,,,,
1577421010.105668,94.000000,0.000000,4451.282227,4190.256348,4155.897461,4094.871826,4321.538574,450.000000,4.000000,,,,0.000000,4.000000,4.000000,4.000000,4.000000,4.000000,,,,,,,,,,,,,,,,,,,,,,,,,
1577421010.113365,95.000000,0.000000,4457.436035,4208.717773,4176.922852,4122.051270,4339.487305,16212.000000,4.000000,,,,0.000000,4.000000,4.000000,4.000000,4.000000,4.000000,,,,,,,,,,,,,,,,,,,,,,,,,
1577421010.121161,96.000000,0.000000,4445.128418,4218.974121,4184.102539,4144.102539,4337.436035,450.000000,4.000000,,,,0.000000,4.000000,4.000000,4.000000,4.000000,4.000000,,,,,,,,,,,,,,,,,,,,,,,,,
1577421010.128857,97.000000,0.000000,4407.179688,4218.974121,4177.948730,4135.384766,4311.282227,450.000000,4.000000,,,,0.000000,4.000000,4.000000,4.000000,4.000000,4.000000,,,,,,,,,,,,,,,,,,,,,,,,,
1577421010.136653,98.000000,0.000000,4394.358887,4222.563965,4184.615234,4134.358887,4308.205078,450.000000,4.000000,,,,0.000000,4.000000,4.000000,4.000000,4.000000,4.000000,,,,,,,,,,,,,,,,,,,,,,,,,
1577421010.144350,99.000000,0.000000,4384.102539,4216.922852,4187.179688,4146.666504,4308.717773,16212.000000,4.000000,,,,0.000000,4.000000,4.000000,4.000000,4.000000,4.000000,,,,,,,,,,,,,,,,,,,,,,,,,
1577421010.152146,100.000000,0.000000,4345.641113,4207.179688,4183.589844,4150.256348,4281.538574,450.000000,4.000000,,,,0.000000,4.000000,4.000000,4.000000,4.000000,4.000000,,,,,,,,,,,,,,,,,,,,,,,,,
1577421010.159843,101.000000,0.000000,4324.102539,4215.384766,4194.358887,4144.102539,4264.102539,450.000000,4.000000,,,,0.000000,4.000000,4.000000,4.000000,4.000000,4.000000,,,,,,,,,,,,,,,,,,,,,,,,,
1577421010.167639,102.000000,0.000000,4333.333496,4225.128418,4210.256348,4137.436035,4270.769043,450.000000,4.000000,,,,0.000000,4.000000,4.000000,4.000000,4.000000,4.000000,,,,,,,,,,,,,,,,,,,,,,,,,
1577421010.175335,103.000000,0.000000,4309.743652,4212.307617,4204.615234,4128.717773,4255.897461,16212.000000,4.000000,,,,0.000000,4.000000,4.000000,4.000000,4.000000,4.000000,,,,,,,,,,,,,,,,,,,,,,,,,
1577421010.183132,104.000000,0.000000,4265.641113,4203.077148,4191.794922,4124.615234,4229.743652,450.000000,4.000000,,,,0.000000,4.000000,4.000000,4.000000,4.000000,4.000000,,,,,,,,,,,,,,,,,,,,,,,,,
1577421010.190828,105.000000,0.000000,4255.897461,4203.077148,4193.333496,4126.666504,4224.615234,450.000000,4.000000,,,,0.000000,4.000000,4.000000,4.000000,4.000000,4.000000,210.068588,21.792456,5.279716,3.069669,3.245491,70.702805,11.782664,5.868256,2.523716,2.935846,65.762970,3.230331,3.207497,2.516673,2.513226,5.344717,1.790620,1.591831,2.511640,3.292361,78.604446,7.031540,2.160868,2.276131,2.806506
1577421010.198525,106.000000,0.000000,4247.692383,4191.794922,4189.743652,4115.897461,4215.384766,450.000000,4.000000,,,,0.000000,4.000000,4.000000,4.000000,4.000000,4.000000,,,,,,,,,,,,,,,,,,,,,,,,,
1577421010.206321,107.000000,0.000000,4213.333496,4181.025879,4176.410156,4106.666504,4190.769043,16212.000000,4.000000,,,,0.000000,4.000000,4.000000,4.000000,4.000000,4.000000,,,,,,,,,,,,,,,,,,,,,,,,,
1577421010.214017,108.000000,0.000000,4187.179688,4177.436035,4172.307617,4104.615234,4168.717773,450.000000,4.000000,,,,0.000000,4.000000,4.000000,4.000000,4.000000,4.000000,,,,,,,,,,,,,,,,,,,,,,,,,
1577421010.221814,109.000000,0.000000,4194.358887,4173.333496,4183.077148,4111.282227,4172.307617,450.000000,4.000000,,,,0.000000,4.000000,4.000000,4.000000,4.000000,4.000000,,,,,,,,,,,,,,,,,,,,,,,,,
1577421010.229510,110.000000,0.000000,4204.615234,4173.333496,4193.846191,4129.230957,4186.153809,450.000000,4.000000,,,,0.000000,4.000000,4.000000,4.000000,4.000000,4.000000,,,,,,,,,,,,,,,,,,,,,,,,,
1577421010.237306,111.000000,0.000000,4172.820313,4164.615234,4173.333496,4111.794922,4161.538574,16212.000000,4.000000,,,,0.000000,4.000000,4.000000,4.000000,4.000000,4.000000,,,,,,,,,,,,,,,,,,,,,,,,,
1577421010.245003,112.000000,0.000000,4147.179688,4163.077148,4159.487305,4096.410156,4140.512695,450.000000,4.000000,,,,0.000000,4.000000,4.000000,4.000000,4.000000,4.000000,,,,,,,,,,,,,,,,,,,,,,,,,
1577421010.252799,113.000000,0.000000,4180.512695,4191.282227,4196.922852,4132.307617,4168.205078,450.000000,4.000000,,,,0.000000,4.000000,4.000000,4.000000,4.000000,4.000000,,,,,,,,,,,,,,,,,,,,,,,,,
1577421010.260495,114.000000,0.000000,4205.641113,4212.820313,4227.179688,4158.974121,4189.743652,450.000000,4.000000,,,,0.000000,4.000000,4.000000,4.000000,4.000000,4.000000,,,,,,,,,,,,,,,,,,,,,,,,,
1577421010.268292,115.000000,0.000000,4175.897461,4205.641113,4210.769043,4142.051270,4168.205078,16212.000000,4.000000,,,,0.000000,4.000000,4.000000,4.000000,4.000000,4.000000,,,,,,,,,,,,,,,,,,,,,,,,,
1577421010.275988,116.000000,0.000000,4136.922852,4190.256348,4191.282227,4116.922852,4137.436035,450.000000,4.000000,,,,0.000000,4.000000,4.000000,4.000000,4.000000,4.000000,,,,,,,,,,,,,,,,,,,,,,,,,
1577421010.283784,117.000000,0.000000,4130.256348,4183.077148,4197.436035,4111.282227,4129.743652,450.000000,4.000000,,,,0.000000,4.000000,4.000000,4.000000,4.000000,4.000000,,,,,,,,,,,,,,,,,,,,,,,,,
1577421010.291481,118.000000,0.000000,4131.794922,4185.128418,4212.307617,4118.461426,4131.282227,450.000000,4.000000,,,,0.000000,4.000000,4.000000,4.000000,4.000000,4.000000,,,,,,,,,,,,,,,,,,,,,,,,,
1577421010.299177,119.000000,0.000000,4137.436035,4198.974121,4222.051270,4135.897461,4141.025879,16212.000000,4.000000,,,,0.000000,4.000000,4.000000,4.000000,4.000000,4.000000,,,,,,,,,,,,,,,,,,,,,,,,,
1577421010.306974,120.000000,0.000000,4164.615234,4220.512695,4235.897461,4150.769043,4163.077148,450.000000,4.000000,,,,0.000000,4.000000,4.000000,4.000000,4.000000,4.000000,,,,,,,,,,,,,,,,,,,,,,,,,
1577421010.314771,121.000000,0.000000,4167.179688,4219.487305,4234.358887,4140.512695,4159.487305,450.000000,4.000000,,,,0.000000,4.000000,4.000000,4.000000,4.000000,4.000000,238.402298,22.216669,5.430652,2.356100,1.607476,68.549789,10.462407,5.744591,2.193248,1.705189,59.647884,2.321674,2.473133,1.943224,1.070720,4.685266,1.083964,1.574765,2.178365,1.726087,86.701599,5.990061,1.743332,1.928712,1.332993
1577421010.322467,122.000000,0.000000,4138.974121,4192.307617,4215.384766,4123.077148,4141.025879,450.000000,4.000000,,,,0.000000,4.000000,4.000000,4.000000,4.000000,4.000000,,,,,,,,,,,,,,,,,,,,,,,,,
1577421010.330164,123.000000,0.000000,4129.743652,4175.384766,4203.077148,4119.487305,4137.948730,16212.000000,4.000000,,,,0.000000,4.000000,4.000000,4.000000,4.000000,4.000000,,,,,,,,,,,,,,,,,,,,,,,,,
1577421010.337960,124.000000,0.000000,4136.410156,4177.948730,4197.436035,4121.538574,4143.589844,450.000000,4.000000,,,,0.000000,4.000000,4.000000,4.000000,4.000000,4.000000,,,,,,,,,,,,,,,,,,,,,,,,,
1577421010.345757,125.000000,0.000000,4131.794922,4181.025879,4191.282227,4125.128418,4137.948730,450.000000,4.000000,,,,0.000000,4.000000,4.000000,4.000000,4.000000,4.000000,,,,,,,,,,,,,,,,,,,,,,,,,
1577421010.353453,126.000000,0.000000,4129.743652,4175.897461,4183.589844,4128.205078,4130.256348,450.000000,4.000000,,,,0.000000,4.000000,4.000000,4.000000,4.000000,4.000000,,,,,,,,,,,,,,,,,,,,,,,,,
1577421010.361150,127.000000,0.000000,4138.974121,4164.615234,4171.794922,4125.128418,4137.436035,235.000000,4.000000,,,,0.000000,4.000000,4.000000,4.000000,4.000000,4.000000,,,,,,,,,,,,,,,,,,,,,,,,,
1577421010.368946,0.000000,0.000000,4135.897461,4150.256348,4156.922852,4121.025879,4135.897461,450.000000,4.000000,,,,0.000000,4.000000,4.000000,4.000000,4.000000,4.000000,,,,,,,,,,,,,,,,,,,,,,,,,
1577421010.376643,1.000000,0.000000,4125.641113,4146.666504,4150.256348,4128.717773,4128.205078,450.000000,4.000000,,,,0.000000,4.000000,4.000000,4.000000,4.000000,4.000000,,,,,,,,,,,,,,,,,,,,,,,,,
1577421010.384439,2.000000,0.000000,4128.205078,4158.974121,4154.871582,4127.179688,4130.256348,16220.000000,4.000000,,,,0.000000,4.000000,4.000000,4.000000,4.000000,4.000000,,,,,,,,,,,,,,,,,,,,,,,,,
1577421010.392136,3.000000,0.000000,4126.666504,4157.948730,4154.358887,4111.282227,4126.666504,450.000000,4.000000,,,,0.000000,4.000000,4.000000,4.000000,4.000000,4.000000,,,,,,,,,,,,,,,,,,,,,,,,,
1577421010.399932,4.000000,0.000000,4122.563965,4151.282227,4154.358887,4119.487305,4124.615234,16202.000000,4.000000,,,,0.000000,4.000000,4.000000,4.000000,4.000000,4.000000,,,,,,,,,,,,,,,,,,,,,,,,,
1577421010.407629,5.000000,0.000000,4115.897461,4151.282227,4147.179688,4126.666504,4118.461426,450.000000,4.000000,,,,0.000000,4.000000,4.000000,4.000000,4.000000,4.000000,,,,,,,,,,,,,,,,,,,,,,,,,
1577421010.415426,6.000000,0.000000,4092.307617,4133.333496,4137.948730,4107.692383,4095.384521,16145.000000,4.000000,,,,0.000000,4.000000,4.000000,4.000000,4.000000,4.000000,,,,,,,,,,,,,,,,,,,,,,,,,
1577421010.423222,7.000000,0.000000,4075.384521,4101.538574,4153.846191,4097.436035,4079.487061,450.000000,4.000000,,,,0.000000,4.000000,4.000000,4.000000,4.000000,4.000000,,,,,,,,,,,,,,,,,,,,,,,,,
1577421010.430919,8.000000,0.000000,4068.718018,4076.410156,4175.384766,4087.692383,4073.333252,450.000000,4.000000,,,,0.000000,4.000000,4.000000,4.000000,4.000000,4.000000,,,,,,,,,,,,,,,,,,,,,,,,,
1577421010.438615,9.000000,0.000000,4070.769287,4071.794922,4202.051270,4082.051270,4077.435791,16174.000000,4.000000,,,,0.000000,4.000000,4.000000,4.000000,4.000000,4.000000,242.989349,23.073807,5.976963,2.001676,1.273835,58.911930,8.887173,5.232382,1.865284,1.320369,49.079285,2.222947,2.194581,1.594681,0.682850,4.045565,0.912542,1.723145,1.899576,1.414136,87.756599,6.587966,1.887913,1.662882,0.960479
1577421010.446411,10.000000,0.000000,4078.974365,4070.769287,4236.922852,4095.384521,4087.179443,450.000000,4.000000,,,,0.000000,4.000000,4.000000,4.000000,4.000000,4.000000,,,,,,,,,,,,,,,,,,,,,,,,,
1577421010.454108,11.000000,0.000000,4066.666748,4049.743652,4234.871582,4089.230713,4073.846191,16219.000000,4.000000,,,,0.000000,4.000000,4.000000,4.000000,4.000000,4.000000,,,,,,,,,,,,,,,,,,,,,,,,,
1577421010.461904,12.000000,0.000000,4060.000000,4055.384521,4213.333496,4083.076904,4059.487061,450.000000,4.000000,,,,0.000000,4.000000,4.000000,4.000000,4.000000,4.000000,,,,,,,,,,,,,,,,,,,,,,,,,
1577421010.469600,13.000000,0.000000,4068.718018,4076.923096,4211.794922,4098.974121,4060.000000,450.000000,4.000000,,,,0.000000,4.000000,4.000000,4.000000,4.000000,4.000000,,,,,,,,,,,,,,,,,,,,,,,,,
1577421010.477297,14.000000,0.000000,4055.384521,4059.487061,4203.077148,4087.179443,4051.281982,450.000000,4.000000,,,,0.000000,4.000000,4.000000,4.000000,4.000000,4.000000,,,,,,,,,,,,,,,,,,,,,,,,,
1577421010.485093,15.000000,0.000000,4040.000000,4046.153809,4194.358887,4065.128174,4045.641113,16219.000000,4.000000,,,,0.000000,4.000000,4.000000,4.000000,4.000000,4.000000,,,,,,,,,,,,,,,,,,,,,,,,,
1577421010.492890,16.000000,0.000000,4040.512939,4064.102539,4213.333496,4077.435791,4049.743652,0.000000,4.000000,,,,0.000000,4.000000,4.000000,4.000000,4.000000,4.000000,,,,,,,,,,,,,,,,,,,,,,,,,
1577421010.500586,17.000000,0.000000,4029.743652,4066.666748,4227.692383,4077.948730,4040.512939,0.000000,4.000000,,,,0.000000,4.000000,4.000000,4.000000,4.000000,4.000000,,,,,,,,,,,,,,,,,,,,,,,,,
1577421010.508383,18.000000,0.000000,4022.564209,4056.410156,4209.743652,4055.897461,4031.794922,0.000000,4.000000,,,,0.000000,4.000000,4.000000,4.000000,4.000000,4.000000,,,,,,,,,,,,,,,,,,,,,,,,,
1577421010.516079,19.000000,0.000000,4032.820557,4050.769287,4165.641113,4056.410156,4044.102539,0.000000,4.000000,,,,0.000000,4.000000,4.000000,4.000000,4.000000,4.000000,,,,,,,,,,,,,,,,,,,,,,,,,
1577421010.523875,20.000000,0.000000,4036.410156,4044.102539,4107.179688,4067.692383,4052.307617,0.000000,4.000000,,,,0.000000,4.000000,4.000000,4.000000,4.000000,4.000000,,,,,,,,,,,,,,,,,,,,,,,,,
1577421010.531572,21.000000,0.000000,4018.461426,4035.897461,4043.589844,4043.589844,4026.666748,0.000000,4.000000,,,,0.000000,4.000000,4.000000,4.000000,4.000000,4.000000,,,,,,,,,,,,,,,,,,,,,,,,,
1577421010.539368,22.000000,0.000000,3999.487061,4024.615479,4001.025635,4013.846191,4003.076904,0.000000,4.000000,,,,0.000000,4.000000,4.000000,4.000000,4.000000,4.000000,,,,,,,,,,,,,,,,,,,,,,,,,
1577421010.547064,23.000000,0.000000,4013.846191,4023.589844,4006.153809,4046.666748,4021.025635,0.000000,4.000000,,,,0.000000,4.000000,4.000000,4.000000,4.000000,4.000000,,,,,,,,,,,,,,,,,,,,,,,,,
1577421010.554861,24.000000,0.000000,4047.692383,4048.718018,4032.820557,4098.461426,4056.410156,0.000000,4.000000,,,,0.000000,4.000000,4.000000,4.000000,4.000000,4.000000,,,,,,,,,,,,,,,,,,,,,,,,,
1577421010.562557,25.000000,0.000000,4054.871826,4070.256348,4044.102539,4093.333252,4062.564209,0.000000,4.000000,,,,0.000000,4.000000,4.000000,4.000000,4.000000,4.000000,226.585632,23.042725,6.262961,1.843717,1.305822,44.802692,6.777868,4.163248,1.514214,1.148760,36.240482,2.213130,2.066132,1.345881,0.610631,3.574102,1.095328,1.900119,1.739207,1.485461,82.720047,8.042771,2.237329,1.517265,0.935138
1577421010.570353,26.000000,0.000000,4037.435791,4067.179443,4048.718018,4070.256348,4043.589844,0.000000,4.000000,,,,0.000000,4.000000,4.000000,4.000000,4.000000,4.000000,,,,,,,,,,,,,,,,,,,,,,,,,
1577421010.578050,27.000000,0.000000,4050.256348,4081.538574,4085.641113,4084.615479,4056.923096,0.000000,4.000000,,,,0.000000,4.000000,4.000000,4.000000,4.000000,4.000000,,,,,,,,,,,,,,,,,,,,,,,,,
1577421010.585846,28.000000,0.000000,4092.820557,4122.563965,4138.974121,4109.230957,4097.948730,0.000000,4.000000,,,,0.000000,4.000000,4.000000,4.000000,4.000000,4.000000,,,,,,,,,,,,,,,,,,,,,,,,,
1577421010.593542,29.000000,0.000000,4095.384521,4122.051270,4148.205078,4109.743652,4102.563965,0.000000,4.000000,,,,0.000000,4.000000,4.000000,4.000000,4.000000,4.000000,,,,,,,,,,,,,,,,,,,,,,,,,
1577421010.601339,30.000000,0.000000,4075.384521,4087.692383,4134.358887,4097.436035,4088.718018,0.000000,4.000000,,,,0.000000,4.000000,4.000000,4.000000,4.000000,4.000000,,,,,,,,,,,,,,,,,,,,,,,,,
1577421010.609035,31.000000,0.000000,4090.769287,4094.358887,4138.461426,4106.666504,4098.974121,0.000000,4.000000,,,,0.000000,4.000000,4.000000,4.000000,4.000000,4.000000,,,,,,,,,,,,,,,,,,,,,,,,,
1577421010.616731,32.000000,0.000000,4105.641113,4124.102539,4146.153809,4122.563965,4107.179688,0.000000,4.000000,,,,0.000000,4.000000,4.000000,4.000000,4.000000,4.000000,,,,,,,,,,,,,,,,,,,,,,,,,
1577421010.624528,33.000000,0.000000,4088.718018,4116.922852,4163.077148,4102.051270,4094.358887,0.000000,4.000000,,,,0.000000,4.000000,4.000000,4.000000,4.000000,4.000000,,,,,,,,,,,,,,,,,,,,,,,,,
1577421010.632224,34.000000,0.000000,4054.871826,4076.923096,4182.051270,4060.512939,4057.435791,0.000000,4.000000,,,,0.000000,4.000000,4.000000,4.000000,4.000000,4.000000,,,,,,,,,,,,,,,,,,,,,,,,,
1577421010.640020,35.000000,0.000000,4020.000000,4055.384521,4203.077148,4047.179443,4024.102539,0.000000,4.000000,,,,0.000000,4.000000,4.000000,4.000000,4.000000,4.000000,,,,,,,,,,,,,,,,,,,,,,,,,
1577421010.647717,36.000000,0.000000,4027.179443,4079.487061,4262.563965,4067.692383,4037.435791,0.000000,4.000000,,,,0.000000,4.000000,4.000000,4.000000,4.000000,4.000000,,,,,,,,,,,,,,,,,,,,,,,,,
1577421010.655513,37.000000,0.000000,4062.564209,4102.051270,4316.410156,4080.000000,4065.641113,0.000000,4.000000,,,,0.000000,4.000000,4.000000,4.000000,4.000000,4.000000,,,,,,,,,,,,,,,,,,,,,,,,,
1577421010.663209,38.000000,0.000000,4054.358887,4083.076904,4285.128418,4061.025635,4052.820557,0.000000,4.000000,,,,0.000000,4.000000,4.000000,4.000000,4.000000,4.000000,,,,,,,,,,,,,,,,,,,,,,,,,
1577421010.671006,39.000000,0.000000,4030.769287,4063.076904,4224.102539,4048.205078,4032.307617,0.000000,4.000000,,,,0.000000,4.000000,4.000000,4.000000,4.000000,4.000000,,,,,,,,,,,,,,,,,,,,,,,,,
1577421010.678702,40.000000,0.000000,4046.666748,4073.846191,4197.436035,4068.718018,4047.692383,0.000000,4.000000,,,,0.000000,4.000000,4.000000,4.000000,4.000000,4.000000,,,,,,,,,,,,,,,,,,,,,,,,,
1577421010.686498,41.000000,0.000000,4049.230713,4082.564209,4166.153809,4063.076904,4050.769287,0.000000,4.000000,,,,0.000000,4.000000,4.000000,4.000000,4.000000,4.000000,198.513367,22.119356,6.192129,1.855518,1.352262,30.753231,4.704613,2.935072,1.229833,0.975781,25.338665,2.135278,2.026299,1.213076,0.584661,3.452649,1.500352,2.002938,1.706870,1.557491,74.508514,9.785128,2.608845,1.506810,0.955414
1577421010.694195,42.000000,0.000000,4027.179443,4072.307617,4135.897461,4028.718018,4030.769287,0.000000,4.000000,,,,0.000000,4.000000,4.000000,4.000000,4.000000,4.000000,,,,,,,,,,,,,,,,,,,,,,,,,
1577421010.701991,43.000000,0.000000,4032.820557,4073.333252,4137.436035,4050.256348,4042.051270,0.000000,4.000000,,,,0.000000,4.000000,4.000000,4.000000,4.000000,4.000000,,,,,,,,,,,,,,,,,,,,,,,,,
1577421010.709688,44.000000,0.000000,4036.923096,4080.512939,4119.487305,4077.435791,4050.769287,0.000000,4.000000,,,,0.000000,4.000000,4.000000,4.000000,4.000000,4.000000,,,,,,,,,,,,,,,,,,,,,,,,,
1577421010.717484,45.000000,0.000000,4011.281982,4066.666748,4072.820557,4044.102539,4025.641113,0.000000,4.000000,,,,0.000000,4.000000,4.000000,4.000000,4.000000,4.000000,,,,,,,,,,,,,,,,,,,,,,,,,
1577421010.725180,46.000000,0.000000,3992.820557,4051.794922,4070.256348,4020.000000,4003.589844,0.000000,4.000000,,,,0.000000,4.000000,4.000000,4.000000,4.000000,4.000000,,,,,,,,,,,,,,,,,,,,,,,,,
1577421010.732976,47.000000,0.000000,3982.051270,4054.871826,4094.871826,4025.128174,3990.769287,0.000000,4.000000,,,,0.000000,4.000000,4.000000,4.000000,4.000000,4.000000,,,,,,,,,,,,,,,,,,,,,,,,,
1577421010.740673,48.000000,0.000000,3971.794922,4063.076904,4108.205078,4022.051270,3986.153809,0.000000,4.000000,,,,0.000000,4.000000,4.000000,4.000000,4.000000,4.000000,,,,,,,,,,,,,,,,,,,,,,,,,
1577421010.748469,49.000000,0.000000,3986.666748,4074.871826,4150.256348,4026.153809,3998.461426,0.000000,4.000000,,,,0.000000,4.000000,4.000000,4.000000,4.000000,4.000000,,,,,,,,,,,,,,,,,,,,,,,,,
1577421010.756166,50.000000,0.000000,4009.230713,4096.410156,4241.538574,4042.051270,4011.281982,0.000000,4.000000,,,,0.000000,4.000000,4.000000,4.000000,4.000000,4.000000,,,,,,,,,,,,,,,,,,,,,,,,,
1577421010.763862,51.000000,0.000000,4031.794922,4127.692383,4364.615234,4069.230713,4032.820557,0.000000,4.000000,,,,0.000000,4.000000,4.000000,4.000000,4.000000,4.000000,,,,,,,,,,,,,,,,,,,,,,,,,
1577421010.771659,52.000000,0.000000,4064.615479,4168.205078,4445.128418,4096.922852,4069.743652,0.000000,4.000000,,,,0.000000,4.000000,4.000000,4.000000,4.000000,4.000000,,,,,,,,,,,,,,,,,,,,,,,,,
1577421010.779355,53.000000,0.000000,4096.410156,4211.282227,4433.333496,4109.743652,4105.128418,0.000000,4.000000,,,,0.000000,4.000000,4.000000,4.000000,4.000000,4.000000,,,,,,,,,,,,,,,,,,,,,,,,,
1577421010.787152,54.000000,0.000000,4104.102539,4227.179688,4411.794922,4115.897461,4112.307617,0.000000,4.000000,,,,0.000000,4.000000,4.000000,4.000000,4.000000,4.000000,,,,,,,,,,,,,,,,,,,,,,,,,
1577421010.794848,55.000000,0.000000,4093.333252,4219.487305,4447.692383,4119.487305,4101.025879,0.000000,4.000000,,,,0.000000,4.000000,4.000000,4.000000,4.000000,4.000000,,,,,,,,,,,,,,,,,,,,,,,,,
1577421010.802645,56.000000,0.000000,4119.487305,4242.563965,4488.205078,4141.538574,4130.256348,0.000000,4.000000,,,,0.000000,4.000000,4.000000,4.000000,4.000000,4.000000,,,,,,,,,,,,,,,,,,,,,,,,,
1577421010.810341,57.000000,0.000000,4161.025879,4267.692383,4472.307617,4164.615234,4174.871582,0.000000,4.000000,,,,0.000000,4.000000,4.000000,4.000000,4.000000,4.000000,169.606308,20.917503,5.902572,2.021100,1.390834,20.342390,3.392170,1.975326,1.096304,0.816965,21.426600,2.290840,2.346356,1.255308,0.590247,3.730534,2.076066,1.982763,1.773695,1.576815,66.436447,11.368773,2.911551,1.597506,0.994874
1577421010.818138,58.000000,0.000000,4152.820313,4240.512695,4420.512695,4156.410156,4168.717773,0.000000,4.000000,,,,0.000000,4.000000,4.000000,4.000000,4.000000,4.000000,,,,,,,,,,,,,,,,,,,,,,,,,
1577421010.825834,59.000000,0.000000,4125.641113,4215.897461,4376.922852,4137.436035,4138.461426,0.000000,4.000000,,,,0.000000,4.000000,4.000000,4.000000,4.000000,4.000000,,,,,,,,,,,,,,,,,,,,,,,,,
1577421010.833630,60.000000,0.000000,4106.666504,4210.769043,4343.077148,4118.461426,4116.922852,0.000000,4.000000,,,,0.000000,4.000000,4.000000,4.000000,4.000000,4.000000,,,,,,,,,,,,,,,,,,,,,,,,,
1577421010.841327,61.000000,0.000000,4086.666748,4185.641113,4320.512695,4097.948730,4103.077148,0.000000,4.000000,,,,0.000000,4.000000,4.000000,4.000000,4.000000,4.000000,,,,,,,,,,,,,,,,,,,,,,,,,
1577421010.849123,62.000000,0.000000,4073.333252,4158.461426,4315.897461,4081.025635,4090.256348,0.000000,4.000000,,,,0.000000,4.000000,4.000000,4.000000,4.000000,4.000000,,,,,,,,,,,,,,,,,,,,,,,,,
1577421010.856819,63.000000,0.000000,4061.538574,4146.153809,4306.153809,4073.846191,4074.358887,0.000000,4.000000,,,,0.000000,4.000000,4.000000,4.000000,4.000000,4.000000,,,,,,,,,,,,,,,,,,,,,,,,,
1577421010.864616,64.000000,0.000000,4049.743652,4141.025879,4288.205078,4068.718018,4063.589844,450.000000,4.000000,,,,0.000000,4.000000,4.000000,4.000000,4.000000,4.000000,,,,,,,,,,,,,,,,,,,,,,,,,
1577421010.872412,65.000000,0.000000,4049.230713,4136.410156,4262.051270,4055.384521,4064.102539,450.000000,4.000000,,,,0.000000,4.000000,4.000000,4.000000,4.000000,4.000000,,,,,,,,,,,,,,,,,,,,,,,,,
1577421010.880108,66.000000,0.000000,4056.923096,4135.897461,4229.743652,4061.025635,4073.333252,16214.000000,4.000000,,,,0.000000,4.000000,4.000000,4.000000,4.000000,4.000000,,,,,,,,,,,,,,,,,,,,,,,,,
1577421010.887805,67.000000,0.000000,4061.538574,4140.512695,4212.307617,4071.794922,4072.820557,450.000000,4.000000,,,,0.000000,4.000000,4.000000,4.000000,4.000000,4.000000,,,,,,,,,,,,,,,,,,,,,,,,,
1577421010.895501,68.000000,0.000000,4059.487061,4152.307617,4204.615234,4059.487061,4065.128174,16194.000000,4.000000,,,,0.000000,4.000000,4.000000,4.000000,4.000000,4.000000,,,,,,,,,,,,,,,,,,,,,,,,,
1577421010.903298,69.000000,0.000000,4085.128174,4188.717773,4226.153809,4084.102539,4092.820557,450.000000,4.000000,,,,0.000000,4.000000,4.000000,4.000000,4.000000,4.000000,,,,,,,,,,,,,,,,,,,,,,,,,
1577421010.910995,70.000000,0.000000,4128.717773,4213.846191,4267.179688,4132.307617,4137.948730,16134.000000,4.000000,,,,0.000000,4.000000,4.000000,4.000000,4.000000,4.000000,,,,,,,,,,,,,,,,,,,,,,,,,
1577421010.918791,71.000000,0.000000,4139.487305,4197.948730,4271.794922,4131.794922,4152.307617,450.000000,4.000000,,,,0.000000,4.000000,4.000000,4.000000,4.000000,4.000000,,,,,,,,,,,,,,,,,,,,,,,,,
1577421010.926488,72.000000,0.000000,4130.769043,4197.948730,4269.230957,4121.025879,4151.282227,450.000000,4.000000,,,,0.000000,4.000000,4.000000,4.000000,4.000000,4.000000,,,,,,,,,,,,,,,,,,,,,,,,,
1577421010.934284,73.000000,0.000000,4101.025879,4204.615234,4266.153809,4114.871582,4127.692383,16167.000000,4.000000,,,,0.000000,4.000000,4.000000,4.000000,4.000000,4.000000,146.323853,19.867025,5.507464,2.269975,1.428752,14.645863,3.191791,1.485400,1.121481,0.714537,28.620140,3.223639,3.550851,1.500629,0.636885,4.481611,2.776629,1.821387,1.894718,1.556664,60.397575,12.483079,3.086764,1.726214,1.055268
1577421010.941981,74.000000,0.000000,4069.230713,4195.384766,4235.384766,4089.230713,4089.743652,450.000000,4.000000,,,,0.000000,4.000000,4.000000,4.000000,4.000000,4.000000,,,,,,,,,,,,,,,,,,,,,,,,,
1577421010.949777,75.000000,0.000000,4075.897461,4196.922852,4216.922852,4077.435791,4079.487061,16216.000000,4.000000,,,,0.000000,4.000000,4.000000,4.000000,4.000000,4.000000,,,,,,,,,,,,,,,,,,,,,,,,,
1577421010.957574,76.000000,0.000000,4096.410156,4204.615234,4230.256348,4094.358887,4096.922852,450.000000,4.000000,,,,0.000000,4.000000,4.000000,4.000000,4.000000,4.000000,,,,,,,,,,,,,,,,,,,,,,,,,
1577421010.965270,77.000000,0.000000,4105.128418,4226.666504,4237.436035,4104.615234,4107.179688,450.000000,4.000000,,,,0.000000,4.000000,4.000000,4.000000,4.000000,4.000000,,,,,,,,,,,,,,,,,,,,,,,,,
1577421010.973067,78.000000,0.000000,4096.410156,4271.282227,4217.436035,4085.128174,4094.358887,450.000000,4.000000,,,,0.000000,4.000000,4.000000,4.000000,4.000000,4.000000,,,,,,,,,,,,,,,,,,,,,,,,,
1577421010.980763,79.000000,0.000000,4104.102539,4323.589844,4213.333496,4091.281982,4104.102539,16216.000000,4.000000,,,,0.000000,4.000000,4.000000,4.000000,4.000000,4.000000,,,,,,,,,,,,,,,,,,,,,,,,,
1577421010.988459,80.000000,0.000000,4133.333496,4356.922852,4232.820313,4128.205078,4137.436035,450.000000,4.000000,,,,0.000000,4.000000,4.000000,4.000000,4.000000,4.000000,,,,,,,,,,,,,,,,,,,,,,,,,
1577421010.996256,81.000000,0.000000,4142.051270,4361.025879,4250.256348,4125.641113,4143.589844,450.000000,4.000000,,,,0.000000,4.000000,4.000000,4.000000,4.000000,4.000000,,,,,,,,,,,,,,,,,,,,,,,,,
1577421011.004052,82.000000,0.000000,4141.538574,4363.077148,4286.153809,4109.230957,4138.974121,450.000000,4.000000,,,,0.000000,4.000000,4.000000,4.000000,4.000000,4.000000,,,,,,,,,,,,,,,,,,,,,,,,,
1577421011.011748,83.000000,0.000000,4154.358887,4360.000000,4319.487305,4125.128418,4150.769043,16216.000000,4.000000,,,,0.000000,4.000000,4.000000,4.000000,4.000000,4.000000,,,,,,,,,,,,,,,,,,,,,,,,,
1577421011.019545,84.000000,0.000000,4175.384766,4362.051270,4322.051270,4147.179688,4173.333496,450.000000,4.000000,,,,0.000000,4.000000,4.000000,4.000000,4.000000,4.000000,,,,,,,,,,,,,,,,,,,,,,,,,
1577421011.027241,85.000000,0.000000,4185.128418,4364.102539,4313.333496,4135.897461,4183.589844,450.000000,4.000000,,,,0.000000,4.000000,4.000000,4.000000,4.000000,4.000000,,,,,,,,,,,,,,,,,,,,,,,,,
1577421011.034937,86.000000,0.000000,4177.948730,4326.666504,4305.641113,4120.000000,4175.384766,450.000000,4.000000,,,,0.000000,4.000000,4.000000,4.000000,4.000000,4.000000,,,,,,,,,,,,,,,,,,,,,,,,,
1577421011.042734,87.000000,0.000000,4181.025879,4287.692383,4299.487305,4137.436035,4182.051270,16216.000000,4.000000,,,,0.000000,4.000000,4.000000,4.000000,4.000000,4.000000,,,,,,,,,,,,,,,,,,,,,,,,,
1577421011.050430,88.000000,0.000000,4190.256348,4290.769043,4278.974121,4146.153809,4195.897461,450.000000,4.000000,,,,0.000000,4.000000,4.000000,4.000000,4.000000,4.000000,,,,,,,,,,,,,,,,,,,,,,,,,
1577421011.058226,89.000000,0.000000,4182.563965,4291.282227,4244.102539,4133.333496,4188.205078,450.000000,4.000000,,,,0.000000,4.000000,4.000000,4.000000,4.000000,4.000000,129.447159,18.962629,5.024857,2.490147,1.475116,14.765253,4.199257,1.379988,1.246083,0.706339,52.649868,5.938359,5.970218,2.008315,0.751982,6.162045,3.656003,1.535959,2.019852,1.535432,56.770649,13.096326,3.078176,1.829612,1.142732
1577421011.065923,90.000000,0.000000,4180.512695,4260.000000,4220.512695,4134.871582,4176.922852,450.000000,4.000000,,,,0.000000,4.000000,4.000000,4.000000,4.000000,4.000000,,,,,,,,,,,,,,,,,,,,,,,,,
1577421011.073719,91.000000,0.000000,4187.692383,4241.538574,4200.512695,4141.538574,4175.384766,16216.000000,4.000000,,,,0.000000,4.000000,4.000000,4.000000,4.000000,4.000000,,,,,,,,,,,,,,,,,,,,,,,,,
1577421011.081415,92.000000,0.000000,4178.461426,4245.641113,4168.717773,4136.410156,4166.153809,450.000000,4.000000,,,,0.000000,4.000000,4.000000,4.000000,4.000000,4.000000,,,,,,,,,,,,,,,,,,,,,,,,,
1577421011.089212,93.000000,0.000000,4156.922852,4238.974121,4136.410156,4121.538574,4151.282227,450.000000,4.000000,,,,0.000000,4.000000,4.000000,4.000000,4.000000,4.000000,,,,,,,,,,,,,,,,,,,,,,,,,
1577421011.096908,94.000000,0.000000,4162.051270,4228.717773,4126.666504,4116.922852,4158.974121,450.000000,4.000000,,,,0.000000,4.000000,4.000000,4.000000,4.000000,4.000000,,,,,,,,,,,,,,,,,,,,,,,,,
1577421011.104704,95.000000,0.000000,4191.794922,4235.897461,4134.871582,4135.384766,4182.051270,16216.000000,4.000000,,,,0.000000,4.000000,4.000000,4.000000,4.000000,4.000000,,,,,,,,,,,,,,,,,,,,,,,,,
1577421011.112401,96.000000,0.000000,4192.307617,4246.666504,4117.436035,4134.871582,4182.563965,450.000000,4.000000,,,,0.000000,4.000000,4.000000,4.000000,4.000000,4.000000,,,,,,,,,,,,,,,,,,,,,,,,,
1577421011.120197,97.000000,0.000000,4166.666504,4242.563965,4085.641113,4103.589844,4158.974121,450.000000,4.000000,,,,0.000000,4.000000,4.000000,4.000000,4.000000,4.000000,,,,,,,,,,,,,,,,,,,,,,,,,
1577421011.127893,98.000000,0.000000,4148.717773,4222.563965,4076.923096,4085.128174,4135.384766,450.000000,4.000000,,,,0.000000,4.000000,4.000000,4.000000,4.000000,4.000000,,,,,,,,,,,,,,,,,,,,,,,,,
1577421011.135690,99.000000,0.000000,4138.974121,4200.512695,4075.897461,4087.179443,4126.666504,16216.000000,4.000000,,,,0.000000,4.000000,4.000000,4.000000,4.000000,4.000000,,,,,,,,,,,,,,,,,,,,,,,,,
1577421011.143386,100.000000,0.000000,4130.256348,4202.563965,4064.102539,4088.718018,4122.051270,450.000000,4.000000,,,,0.000000,4.000000,4.000000,4.000000,4.000000,4.000000,,,,,,,,,,,,,,,,,,,,,,,,,
1577421011.151182,101.000000,0.000000,4132.307617,4215.897461,4058.461426,4087.179443,4124.102539,450.000000,4.000000,,,,0.000000,4.000000,4.000000,4.000000,4.000000,4.000000,,,,,,,,,,,,,,,,,,,,,,,,,
1577421011.158879,102.000000,0.000000,4148.205078,4217.948730,4070.769287,4091.794922,4141.538574,450.000000,4.000000,,,,0.000000,4.000000,4.000000,4.000000,4.000000,4.000000,,,,,,,,,,,,,,,,,,,,,,,,,
1577421011.166575,103.000000,0.000000,4142.051270,4204.615234,4067.179443,4086.153809,4136.410156,16216.000000,4.000000,,,,0.000000,4.000000,4.000000,4.000000,4.000000,4.000000,,,,,,,,,,,,,,,,,,,,,,,,,
1577421011.174372,104.000000,0.000000,4123.077148,4199.487305,4051.794922,4077.948730,4114.358887,450.000000,4.000000,,,,0.000000,4.000000,4.000000,4.000000,4.000000,4.000000,,,,,,,,,,,,,,,,,,,,,,,,,
1577421011.182069,105.000000,0.000000,4140.512695,4230.256348,4073.846191,4097.436035,4133.333496,450.000000,4.000000,,,,0.000000,4.000000,4.000000,4.000000,4.000000,4.000000,116.617943,18.377897,4.448710,2.601754,1.529787,21.003284,6.637668,1.482600,1.388291,0.802819,98.366676,11.795619,9.426626,2.846633,0.962705,9.571436,4.998185,1.196874,2.117457,1.547585,55.603664,13.782860,2.887936,1.891496,1.257835
1577421011.189865,106.000000,0.000000,4154.358887,4246.666504,4089.230713,4102.563965,4154.358887,450.000000,4.000000,,,,0.000000,4.000000,4.000000,4.000000,4.000000,4.000000,,,,,,,,,,,,,,,,,,,,,,,,,
1577421011.197562,107.000000,0.000000,4132.820313,4232.820313,4061.025635,4088.205078,4134.358887,16216.000000,4.000000,,,,0.000000,4.000000,4.000000,4.000000,4.000000,4.000000,,,,,,,,,,,,,,,,,,,,,,,,,
1577421011.205358,108.000000,0.000000,4137.436035,4241.025879,4051.794922,4096.410156,4129.230957,450.000000,4.000000,,,,0.000000,4.000000,4.000000,4.000000,4.000000,4.000000,,,,,,,,,,,,,,,,,,,,,,,,,
1577421011.213054,109.000000,0.000000,4169.230957,4270.769043,4085.641113,4114.358887,4155.897461,450.000000,4.000000,,,,0.000000,4.000000,4.000000,4.000000,4.000000,4.000000,,,,,,,,,,,,,,,,,,,,,,,,,
1577421011.220851,110.000000,0.000000,4193.846191,4295.897461,4132.307617,4134.871582,4178.461426,450.000000,4.000000,,,,0.000000,4.000000,4.000000,4.000000,4.000000,4.000000,,,,,,,,,,,,,,,,,,,,,,,,,
1577421011.228547,111.000000,0.000000,4209.230957,4301.025879,4166.666504,4150.256348,4192.307617,16216.000000,4.000000,,,,0.000000,4.000000,4.000000,4.000000,4.000000,4.000000,,,,,,,,,,,,,,,,,,,,,,,,,
1577421011.236343,112.000000,0.000000,4204.615234,4291.794922,4181.025879,4144.102539,4196.410156,450.000000,4.000000,,,,0.000000,4.000000,4.000000,4.000000,4.000000,4.000000,,,,,,,,,,,,,,,,,,,,,,,,,
1577421011.244040,113.000000,0.000000,4191.282227,4291.794922,4183.077148,4124.615234,4182.563965,450.000000,4.000000,,,,0.000000,4.000000,4.000000,4.000000,4.000000,4.000000,,,,,,,,,,,,,,,,,,,,,,,,,
1577421011.251836,114.000000,0.000000,4182.563965,4289.230957,4176.922852,4110.769043,4169.230957,450.000000,4.000000,,,,0.000000,4.000000,4.000000,4.000000,4.000000,4.000000,,,,,,,,,,,,,,,,,,,,,,,,,
1577421011.259532,115.000000,0.000000,4173.846191,4266.666504,4170.256348,4116.922852,4163.077148,16216.000000,4.000000,,,,0.000000,4.000000,4.000000,4.000000,4.000000,4.000000,,,,,,,,,,,,,,,,,,,,,,,,,
1577421011.267329,116.000000,0.000000,4171.282227,4261.025879,4167.179688,4127.692383,4162.563965,450.000000,4.000000,,,,0.000000,4.000000,4.000000,4.000000,4.000000,4.000000,,,,,,,,,,,,,,,,,,,,,,,,,
1577421011.275025,117.000000,0.000000,4181.538574,4272.307617,4153.333496,4127.179688,4168.717773,450.000000,4.000000,,,,0.000000,4.000000,4.000000,4.000000,4.000000,4.000000,,,,,,,,,,,,,,,,,,,,,,,,,
1577421011.282821,118.000000,0.000000,4175.384766,4243.077148,4116.410156,4111.282227,4159.487305,450.000000,4.000000,,,,0.000000,4.000000,4.000000,4.000000,4.000000,4.000000,,,,,,,,,,,,,,,,,,,,,,,,,
1577421011.290518,119.000000,0.000000,4156.922852,4207.692383,4091.794922,4090.256348,4146.666504,16216.000000,4.000000,,,,0.000000,4.000000,4.000000,4.000000,4.000000,4.000000,,,,,,,,,,,,,,,,,,,,,,,,,
1577421011.298314,120.000000,0.000000,4154.358887,4223.077148,4090.256348,4083.076904,4148.717773,450.000000,4.000000,,,,0.000000,4.000000,4.000000,4.000000,4.000000,4.000000,,,,,,,,,,,,,,,,,,,,,,,,,
1577421011.306010,121.000000,0.000000,4161.025879,4237.948730,4074.358887,4099.487305,4150.769043,450.000000,4.000000,,,,0.000000,4.000000,4.000000,4.000000,4.000000,4.000000,103.367271,18.297955,3.831779,2.594658,1.582471,34.123608,10.526266,1.675998,1.478710,0.975722,164.354660,21.221106,13.211681,3.984846,1.265192,15.020520,7.007184,0.907350,2.174045,1.604731,55.406414,15.203543,2.612065,1.939477,1.389194
1577421011.313707,122.000000,0.000000,4169.743652,4226.666504,4048.205078,4117.436035,4150.769043,450.000000,4.000000,,,,0.000000,4.000000,4.000000,4.000000,4.000000,4.000000,,,,,,,,,,,,,,,,,,,,,,,,,
1577421011.321503,123.000000,0.000000,4163.589844,4218.974121,4029.743652,4102.051270,4140.512695,16216.000000,4.000000,,,,0.000000,4.000000,4.000000,4.000000,4.000000,4.000000,,,,,,,,,,,,,,,,,,,,,,,,,
1577421011.329200,124.000000,0.000000,4150.256348,4217.948730,4024.615479,4088.718018,4129.230957,450.000000,4.000000,,,,0.000000,4.000000,4.000000,4.000000,4.000000,4.000000,,,,,,,,,,,,,,,,,,,,,,,,,
1577421011.336997,125.000000,0.000000,4162.051270,4225.641113,4038.974365,4095.897461,4140.512695,450.000000,4.000000,,,,0.000000,4.000000,4.000000,4.000000,4.000000,4.000000,,,,,,,,,,,,,,,,,,,,,,,,,
1577421011.344693,126.000000,0.000000,4179.487305,4237.436035,4056.410156,4099.487305,4151.794922,450.000000,4.000000,,,,0.000000,4.000000,4.000000,4.000000,4.000000,4.000000,,,,,,,,,,,,,,,,,,,,,,,,,
1577421011.352490,127.000000,0.000000,4180.000000,4234.871582,4070.769287,4108.717773,4156.410156,235.000000,4.000000,,,,0.000000,4.000000,4.000000,4.000000,4.000000,4.000000,,,,,,,,,,,,,,,,,,,,,,,,,
1577421011.360186,0.000000,0.000000,4169.230957,4221.538574,4076.410156,4113.333496,4148.717773,450.000000,4.000000,,,,0.000000,4.000000,4.000000,4.000000,4.000000,4.000000,,,,,,,,,,,,,,,,,,,,,,,,,
1577421011.367983,1.000000,0.000000,4157.948730,4215.384766,4063.589844,4102.051270,4132.820313,450.000000,4.000000,,,,0.000000,4.000000,4.000000,4.000000,4.000000,4.000000,,,,,,,,,,,,,,,,,,,,,,,,,
1577421011.375680,2.000000,0.000000,4155.897461,4218.974121,4056.923096,4095.897461,4132.307617,16222.000000,4.000000,,,,0.000000,4.000000,4.000000,4.000000,4.000000,4.000000,,,,,,,,,,,,,,,,,,,,,,,,,
1577421011.383476,3.000000,0.000000,4154.358887,4212.820313,4066.153809,4103.589844,4134.358887,450.000000,4.000000,,,,0.000000,4.000000,4.000000,4.000000,4.000000,4.000000,,,,,,,,,,,,,,,,,,,,,,,,,
1577421011.391172,4.000000,0.000000,4151.282227,4201.538574,4070.256348,4105.641113,4130.256348,16201.000000,4.000000,,,,0.000000,4.000000,4.000000,4.000000,4.000000,4.000000,,,,,,,,,,,,,,,,,,,,,,,,,
1577421011.398969,5.000000,0.000000,4145.641113,4193.333496,4057.948730,4091.281982,4124.102539,450.000000,4.000000,,,,0.000000,4.000000,4.000000,4.000000,4.000000,4.000000,,,,,,,,,,,,,,,,,,,,,,,,,
1577421011.406665,6.000000,0.000000,4133.333496,4187.692383,4032.307617,4083.076904,4114.871582,16134.000000,4.000000,,,,0.000000,4.000000,4.000000,4.000000,4.000000,4.000000,,,,,,,,,,,,,,,,,,,,,,,,,
1577421011.414461,7.000000,0.000000,4138.974121,4184.615234,4021.538574,4096.922852,4116.410156,450.000000,4.000000,,,,0.000000,4.000000,4.000000,4.000000,4.000000,4.000000,,,,,,,,,,,,,,,,,,,,,,,,,
1577421011.422158,8.000000,0.000000,4159.487305,4184.615234,4030.769287,4110.256348,4128.205078,450.000000,4.000000,,,,0.000000,4.000000,4.000000,4.000000,4.000000,4.000000,,,,,,,,,,,,,,,,,,,,,,,,,
1577421011.429954,9.000000,0.000000,4168.205078,4198.974121,4035.384521,4106.666504,4137.436035,16176.000000,4.000000,,,,0.000000,4.000000,4.000000,4.000000,4.000000,4.000000,88.927200,19.075026,3.258174,2.521927,1.617144,54.066711,15.655314,1.940292,1.496367,1.168551,241.292419,33.499733,16.350544,5.234787,1.608956,22.117628,9.568243,0.762501,2.193912,1.687450,55.663013,17.715460,2.375955,2.018022,1.512661
1577421011.437650,10.000000,0.000000,4157.948730,4202.051270,4028.205078,4094.358887,4134.871582,450.000000,4.000000,,,,0.000000,4.000000,4.000000,4.000000,4.000000,4.000000,,,,,,,,,,,,,,,,,,,,,,,,,
1577421011.445447,11.000000,0.000000,4142.051270,4183.077148,4026.666748,4088.205078,4120.000000,16216.000000,4.000000,,,,0.000000,4.000000,4.000000,4.000000,4.000000,4.000000,,,,,,,,,,,,,,,,,,,,,,,,,
1577421011.453143,12.000000,0.000000,4150.256348,4191.282227,4047.692383,4091.281982,4124.102539,450.000000,4.000000,,,,0.000000,4.000000,4.000000,4.000000,4.000000,4.000000,,,,,,,,,,,,,,,,,,,,,,,,,
1577421011.460939,13.000000,0.000000,4158.461426,4209.743652,4063.589844,4082.564209,4133.333496,450.000000,4.000000,,,,0.000000,4.000000,4.000000,4.000000,4.000000,4.000000,,,,,,,,,,,,,,,,,,,,,,,,,
1577421011.468636,14.000000,0.000000,4155.384766,4208.205078,4069.743652,4081.538574,4140.000000,450.000000,4.000000,,,,0.000000,4.000000,4.000000,4.000000,4.000000,4.000000,,,,,,,,,,,,,,,,,,,,,,,,,
1577421011.476332,15.000000,0.000000,4167.692383,4206.666504,4091.281982,4102.563965,4151.282227,16216.000000,4.000000,,,,0.000000,4.000000,4.000000,4.000000,4.000000,4.000000,,,,,,,,,,,,,,,,,,,,,,,,,
1577421011.484129,16.000000,0.000000,4164.102539,4197.436035,4104.102539,4101.025879,4141.025879,0.000000,4.000000,,,,0.000000,4.000000,4.000000,4.000000,4.000000,4.000000,,,,,,,,,,,,,,,,,,,,,,,,,
1577421011.491826,17.000000,0.000000,4153.846191,4195.384766,4113.846191,4086.153809,4135.384766,0.000000,4.000000,,,,0.000000,4.000000,4.000000,4.000000,4.000000,4.000000,,,,,,,,,,,,,,,,,,,,,,,,,
1577421011.499622,18.000000,0.000000,4158.974121,4194.871582,4123.589844,4086.153809,4138.461426,0.000000,4.000000,,,,0.000000,4.000000,4.000000,4.000000,4.000000,4.000000,,,,,,,,,,,,,,,,,,,,,,,,,
1577421011.507419,19.000000,0.000000,4146.153809,4167.692383,4099.487305,4082.564209,4122.563965,0.000000,4.000000,,,,0.000000,4.000000,4.000000,4.000000,4.000000,4.000000,,,,,,,,,,,,,,,,,,,,,,,,,
1577421011.515115,20.000000,0.000000,4134.358887,4168.205078,4069.743652,4081.025635,4117.436035,0.000000,4.000000,,,,0.000000,4.000000,4.000000,4.000000,4.000000,4.000000,,,,,,,,,,,,,,,,,,,,,,,,,
1577421011.522911,21.000000,0.000000,4148.717773,4192.820313,4063.076904,4089.230713,4130.769043,0.000000,4.000000,,,,0.000000,4.000000,4.000000,4.000000,4.000000,4.000000,,,,,,,,,,,,,,,,,,,,,,,,,
1577421011.530608,22.000000,0.000000,4167.692383,4192.820313,4068.205078,4097.436035,4145.128418,0.000000,4.000000,,,,0.000000,4.000000,4.000000,4.000000,4.000000,4.000000,,,,,,,,,,,,,,,,,,,,,,,,,
1577421011.538404,23.000000,0.000000,4161.538574,4183.077148,4056.410156,4098.461426,4136.922852,0.000000,4.000000,,,,0.000000,4.000000,4.000000,4.000000,4.000000,4.000000,,,,,,,,,,,,,,,,,,,,,,,,,
1577421011.546100,24.000000,0.000000,4147.692383,4192.307617,4033.333252,4092.307617,4125.128418,0.000000,4.000000,,,,0.000000,4.000000,4.000000,4.000000,4.000000,4.000000,,,,,,,,,,,,,,,,,,,,,,,,,
1577421011.553897,25.000000,0.000000,4162.563965,4208.717773,4048.205078,4091.281982,4137.948730,0.000000,4.000000,,,,0.000000,4.000000,4.000000,4.000000,4.000000,4.000000,74.697342,20.722364,2.857483,2.461898,1.617953,78.115135,21.380146,2.262806,1.462102,1.325692,313.357117,46.476852,17.904644,6.295761,1.908040,29.300938,12.170784,0.794031,2.195167,1.751396,55.454994,20.919189,2.293984,2.154437,1.596815
1577421011.561593,26.000000,0.000000,4174.871582,4206.153809,4082.564209,4090.769287,4144.102539,0.000000,4.000000,,,,0.000000,4.000000,4.000000,4.000000,4.000000,4.000000,,,,,,,,,,,,,,,,,,,,,,,,,
1577421011.569290,27.000000,0.000000,4178.974121,4209.743652,4119.487305,4099.487305,4149.743652,0.000000,4.000000,,,,0.000000,4.000000,4.000000,4.000000,4.000000,4.000000,,,,,,,,,,,,,,,,,,,,,,,,,
1577421011.577086,28.000000,0.000000,4184.102539,4217.436035,4167.692383,4100.512695,4162.051270,0.000000,4.000000,,,,0.000000,4.000000,4.000000,4.000000,4.000000,4.000000,,,,,,,,,,,,,,,,,,,,,,,,,
1577421011.584783,29.000000,0.000000,4166.666504,4196.410156,4211.794922,4075.897461,4136.922852,0.000000,4.000000,,,,0.000000,4.000000,4.000000,4.000000,4.000000,4.000000,,,,,,,,,,,,,,,,,,,,,,,,,
1577421011.592579,30.000000,0.000000,4146.666504,4170.256348,4246.153809,4073.333252,4109.743652,0.000000,4.000000,,,,0.000000,4.000000,4.000000,4.000000,4.000000,4.000000,,,,,,,,,,,,,,,,,,,,,,,,,
1577421011.600275,31.000000,0.000000,4141.538574,4157.436035,4237.436035,4086.153809,4105.128418,0.000000,4.000000,,,,0.000000,4.000000,4.000000,4.000000,4.000000,4.000000,,,,,,,,,,,,,,,,,,,,,,,,,
1577421011.608072,32.000000,0.000000,4136.922852,4152.307617,4169.743652,4074.871826,4101.025879,0.000000,4.000000,,,,0.000000,4.000000,4.000000,4.000000,4.000000,4.000000,,,,,,,,,,,,,,,,,,,,,,,,,
1577421011.615768,33.000000,0.000000,4133.333496,4165.128418,4097.948730,4063.076904,4102.051270,0.000000,4.000000,,,,0.000000,4.000000,4.000000,4.000000,4.000000,4.000000,,,,,,,,,,,,,,,,,,,,,,,,,
1577421011.623564,34.000000,0.000000,4135.897461,4177.436035,4062.051270,4066.153809,4103.077148,0.000000,4.000000,,,,0.000000,4.000000,4.000000,4.000000,4.000000,4.000000,,,,,,,,,,,,,,,,,,,,,,,,,
1577421011.631261,35.000000,0.000000,4143.077148,4176.410156,4049.743652,4068.718018,4103.077148,0.000000,4.000000,,,,0.000000,4.000000,4.000000,4.000000,4.000000,4.000000,,,,,,,,,,,,,,,,,,,,,,,,,
1577421011.639057,36.000000,0.000000,4151.282227,4190.256348,4044.615479,4077.435791,4115.384766,0.000000,4.000000,,,,0.000000,4.000000,4.000000,4.000000,4.000000,4.000000,,,,,,,,,,,,,,,,,,,,,,,,,
1577421011.646753,37.000000,0.000000,4155.384766,4219.487305,4042.051270,4087.692383,4131.794922,0.000000,4.000000,,,,0.000000,4.000000,4.000000,4.000000,4.000000,4.000000,,,,,,,,,,,,,,,,,,,,,,,,,
1577421011.654550,38.000000,0.000000,4172.820313,4251.794922,4068.205078,4105.641113,4151.282227,0.000000,4.000000,,,,0.000000,4.000000,4.000000,4.000000,4.000000,4.000000,,,,,,,,,,,,,,,,,,,,,,,,,
1577421011.662246,39.000000,0.000000,4194.871582,4273.333496,4126.153809,4121.025879,4166.666504,0.000000,4.000000,,,,0.000000,4.000000,4.000000,4.000000,4.000000,4.000000,,,,,,,,,,,,,,,,,,,,,,,,,
1577421011.670042,40.000000,0.000000,4180.000000,4268.205078,4148.205078,4105.641113,4148.717773,0.000000,4.000000,,,,0.000000,4.000000,4.000000,4.000000,4.000000,4.000000,,,,,,,,,,,,,,,,,,,,,,,,,
1577421011.677739,41.000000,0.000000,4177.436035,4281.025879,4153.333496,4100.000000,4137.948730,0.000000,4.000000,,,,0.000000,4.000000,4.000000,4.000000,4.000000,4.000000,64.770226,22.298819,2.692334,2.453659,1.570989,101.254913,26.546833,2.598212,1.411378,1.408576,362.036224,57.069752,17.544146,6.870828,2.075083,34.755245,14.026084,0.961738,2.189569,1.746520,55.305424,23.560217,2.389900,2.330163,1.611305
1577421011.685535,42.000000,0.000000,4225.128418,4322.051270,4198.974121,4131.282227,4181.025879,0.000000,4.000000,,,,0.000000,4.000000,4.000000,4.000000,4.000000,4.000000,,,,,,,,,,,,,,,,,,,,,,,,,
1577421011.693231,43.000000,0.000000,4250.769043,4332.307617,4228.205078,4157.436035,4213.333496,0.000000,4.000000,,,,0.000000,4.000000,4.000000,4.000000,4.000000,4.000000,,,,,,,,,,,,,,,,,,,,,,,,,
1577421011.701028,44.000000,0.000000,4226.153809,4318.974121,4202.563965,4145.641113,4186.153809,0.000000,4.000000,,,,0.000000,4.000000,4.000000,4.000000,4.000000,4.000000,,,,,,,,,,,,,,,,,,,,,,,,,
1577421011.708724,45.000000,0.000000,4225.641113,4333.333496,4188.717773,4135.897461,4178.461426,0.000000,4.000000,,,,0.000000,4.000000,4.000000,4.000000,4.000000,4.000000,,,,,,,,,,,,,,,,,,,,,,,,,
1577421011.716520,46.000000,0.000000,4254.871582,4343.589844,4197.948730,4150.769043,4204.615234,0.000000,4.000000,,,,0.000000,4.000000,4.000000,4.000000,4.000000,4.000000,,,,,,,,,,,,,,,,,,,,,,,,,
1577421011.724217,47.000000,0.000000,4250.769043,4326.153809,4184.102539,4153.333496,4196.410156,0.000000,4.000000,,,,0.000000,4.000000,4.000000,4.000000,4.000000,4.000000,,,,,,,,,,,,,,,,,,,,,,,,,
1577421011.731913,48.000000,0.000000,4246.666504,4326.666504,4174.871582,4151.282227,4193.846191,0.000000,4.000000,,,,0.000000,4.000000,4.000000,4.000000,4.000000,4.000000,,,,,,,,,,,,,,,,,,,,,,,,,
1577421011.739710,49.000000,0.000000,4251.282227,4329.230957,4169.743652,4146.666504,4204.615234,0.000000,4.000000,,,,0.000000,4.000000,4.000000,4.000000,4.000000,4.000000,,,,,,,,,,,,,,,,,,,,,,,,,
1577421011.747407,50.000000,0.000000,4241.538574,4316.922852,4147.692383,4135.384766,4198.974121,0.000000,4.000000,,,,0.000000,4.000000,4.000000,4.000000,4.000000,4.000000,,,,,,,,,,,,,,,,,,,,,,,,,
1577421011.755203,51.000000,0.000000,4236.410156,4309.230957,4132.307617,4121.538574,4190.256348,0.000000,4.000000,,,,0.000000,4.000000,4.000000,4.000000,4.000000,4.000000,,,,,,,,,,,,,,,,,,,,,,,,,
1577421011.762900,52.000000,0.000000,4228.717773,4293.333496,4127.179688,4106.153809,4176.410156,0.000000,4.000000,,,,0.000000,4.000000,4.000000,4.000000,4.000000,4.000000,,,,,,,,,,,,,,,,,,,,,,,,,
1577421011.770696,53.000000,0.000000,4231.282227,4290.769043,4129.230957,4114.871582,4181.025879,0.000000,4.000000,,,,0.000000,4.000000,4.000000,4.000000,4.000000,4.000000,,,,,,,,,,,,,,,,,,,,,,,,,
1577421011.778393,54.000000,0.000000,4234.358887,4299.487305,4128.205078,4124.615234,4190.256348,0.000000,4.000000,,,,0.000000,4.000000,4.000000,4.000000,4.000000,4.000000,,,,,,,,,,,,,,,,,,,,,,,,,
1577421011.786189,55.000000,0.000000,4216.410156,4284.615234,4121.538574,4117.436035,4180.000000,0.000000,4.000000,,,,0.000000,4.000000,4.000000,4.000000,4.000000,4.000000,,,,,,,,,,,,,,,,,,,,,,,,,
1577421011.793886,56.000000,0.000000,4217.436035,4281.538574,4132.307617,4122.051270,4182.563965,0.000000,4.000000,,,,0.000000,4.000000,4.000000,4.000000,4.000000,4.000000,,,,,,,,,,,,,,,,,,,,,,,,,
1577421011.801682,57.000000,0.000000,4229.230957,4295.897461,4138.461426,4123.589844,4190.769043,0.000000,4.000000,,,,0.000000,4.000000,4.000000,4.000000,4.000000,4.000000,57.448627,22.715162,2.691764,2.474000,1.475934,116.952980,29.859314,2.858336,1.372323,1.409168,373.408386,63.057125,15.729303,6.802458,2.063042,36.777000,14.459776,1.168782,2.176914,1.648322,53.364861,24.396503,2.581211,2.483629,1.543043
1577421011.809378,58.000000,0.000000,4218.461426,4303.589844,4123.589844,4108.717773,4187.692383,0.000000,4.000000,,,,0.000000,4.000000,4.000000,4.000000,4.000000,4.000000,,,,,,,,,,,,,,,,,,,,,,,,,
1577421011.817175,59.000000,0.000000,4208.205078,4310.769043,4115.384766,4112.307617,4186.153809,0.000000,4.000000,,,,0.000000,4.000000,4.000000,4.000000,4.000000,4.000000,,,,,,,,,,,,,,,,,,,,,,,,,
1577421011.824871,60.000000,0.000000,4207.692383,4318.974121,4118.974121,4123.589844,4186.666504,0.000000,4.000000,,,,0.000000,4.000000,4.000000,4.000000,4.000000,4.000000,,,,,,,,,,,,,,,,,,,,,,,,,
1577421011.832667,61.000000,0.000000,4218.461426,4345.641113,4137.948730,4118.461426,4188.717773,0.000000,4.000000,,,,0.000000,4.000000,4.000000,4.000000,4.000000,4.000000,,,,,,,,,,,,,,,,,,,,,,,,,
1577421011.840364,62.000000,0.000000,4243.077148,4401.025879,4164.102539,4124.615234,4203.589844,0.000000,4.000000,,,,0.000000,4.000000,4.000000,4.000000,4.000000,4.000000,,,,,,,,,,,,,,,,,,,,,,,,,
1577421011.848160,63.000000,0.000000,4261.538574,4430.769043,4180.000000,4148.717773,4221.538574,0.000000,4.000000,,,,0.000000,4.000000,4.000000,4.000000,4.000000,4.000000,,,,,,,,,,,,,,,,,,,,,,,,,
1577421011.855856,64.000000,0.000000,4259.487305,4414.358887,4190.256348,4155.897461,4217.948730,450.000000,4.000000,,,,0.000000,4.000000,4.000000,4.000000,4.000000,4.000000,,,,,,,,,,,,,,,,,,,,,,,,,
1577421011.863653,65.000000,0.000000,4250.769043,4406.666504,4194.358887,4146.153809,4206.153809,450.000000,4.000000,,,,0.000000,4.000000,4.000000,4.000000,4.000000,4.000000,,,,,,,,,,,,,,,,,,,,,,,,,
1577421011.871349,66.000000,0.000000,4254.358887,4422.051270,4189.230957,4153.333496,4211.282227,16213.000000,4.000000,,,,0.000000,4.000000,4.000000,4.000000,4.000000,4.000000,,,,,,,,,,,,,,,,,,,,,,,,,
1577421011.879145,67.000000,0.000000,4252.307617,4412.307617,4178.461426,4150.256348,4206.666504,450.000000,4.000000,,,,0.000000,4.000000,4.000000,4.000000,4.000000,4.000000,,,,,,,,,,,,,,,,,,,,,,,,,
1577421011.886842,68.000000,0.000000,4244.615234,4385.641113,4167.179688,4122.563965,4197.948730,16193.000000,4.000000,,,,0.000000,4.000000,4.000000,4.000000,4.000000,4.000000,,,,,,,,,,,,,,,,,,,,,,,,,
1577421011.894738,69.000000,0.000000,4246.153809,4386.666504,4157.436035,4131.282227,4205.128418,450.000000,4.000000,,,,0.000000,4.000000,4.000000,4.000000,4.000000,4.000000,,,,,,,,,,,,,,,,,,,,,,,,,
1577421011.902535,70.000000,0.000000,4243.589844,4389.230957,4140.512695,4153.846191,4206.666504,16137.000000,4.000000,,,,0.000000,4.000000,4.000000,4.000000,4.000000,4.000000,,,,,,,,,,,,,,,,,,,,,,,,,
1577421011.910231,71.000000,0.000000,4236.410156,4353.333496,4118.974121,4134.871582,4200.000000,450.000000,4.000000,,,,0.000000,4.000000,4.000000,4.000000,4.000000,4.000000,,,,,,,,,,,,,,,,,,,,,,,,,
1577421011.918028,72.000000,0.000000,4228.205078,4312.820313,4100.512695,4117.436035,4192.307617,450.000000,4.000000,,,,0.000000,4.000000,4.000000,4.000000,4.000000,4.000000,,,,,,,,,,,,,,,,,,,,,,,,,
1577421011.925725,73.000000,0.000000,4218.461426,4299.487305,4079.487061,4131.282227,4186.153809,16174.000000,4.000000,,,,0.000000,4.000000,4.000000,4.000000,4.000000,4.000000,50.092617,21.153271,2.725263,2.453059,1.349332,120.660118,30.492250,2.925982,1.346834,1.349243,344.453156,65.281792,13.383500,6.165618,1.891247,34.919563,13.206444,1.327515,2.147307,1.471862,48.658279,22.707232,2.744123,2.543212,1.406367
1577421011.933521,74.000000,0.000000,4223.077148,4300.000000,4058.974365,4131.794922,4191.794922,450.000000,4.000000,,,,0.000000,4.000000,4.000000,4.000000,4.000000,4.000000,,,,,,,,,,,,,,,,,,,,,,,,,
1577421011.941318,75.000000,0.000000,4236.410156,4298.974121,4045.641113,4117.436035,4201.025879,16210.000000,4.000000,,,,0.000000,4.000000,4.000000,4.000000,4.000000,4.000000,,,,,,,,,,,,,,,,,,,,,,,,,
1577421011.949014,76.000000,0.000000,4241.538574,4308.717773,4045.128174,4127.692383,4205.641113,450.000000,4.000000,,,,0.000000,4.000000,4.000000,4.000000,4.000000,4.000000,,,,,,,,,,,,,,,,,,,,,,,,,
1577421011.956810,77.000000,0.000000,4245.641113,4324.615234,4051.794922,4145.128418,4208.717773,450.000000,4.000000,,,,0.000000,4.000000,4.000000,4.000000,4.000000,4.000000,,,,,,,,,,,,,,,,,,,,,,,,,
1577421011.964507,78.000000,0.000000,4242.563965,4315.897461,4046.666748,4144.615234,4207.179688,450.000000,4.000000,,,,0.000000,4.000000,4.000000,4.000000,4.000000,4.000000,,,,,,,,,,,,,,,,,,,,,,,,,
1577421011.972303,79.000000,0.000000,4235.897461,4312.307617,4043.589844,4138.974121,4202.051270,16210.000000,4.000000,,,,0.000000,4.000000,4.000000,4.000000,4.000000,4.000000,,,,,,,,,,,,,,,,,,,,,,,,,
1577421011.979999,80.000000,0.000000,4245.641113,4338.461426,4059.487061,4137.436035,4206.153809,450.000000,4.000000,,,,0.000000,4.000000,4.000000,4.000000,4.000000,4.000000,,,,,,,,,,,,,,,,,,,,,,,,,
1577421011.987696,81.000000,0.000000,4254.358887,4351.794922,4070.256348,4145.641113,4217.948730,450.000000,4.000000,,,,0.000000,4.000000,4.000000,4.000000,4.000000,4.000000,,,,,,,,,,,,,,,,,,,,,,,,,
1577421011.995492,82.000000,0.000000,4254.358887,4335.384766,4064.102539,4158.974121,4221.025879,450.000000,4.000000,,,,0.000000,4.000000,4.000000,4.000000,4.000000,4.000000,,,,,,,,,,,,,,,,,,,,,,,,,
1577421012.003188,83.000000,0.000000,4251.794922,4324.615234,4054.871826,4157.948730,4214.871582,16210.000000,4.000000,,,,0.000000,4.000000,4.000000,4.000000,4.000000,4.000000,,,,,,,,,,,,,,,,,,,,,,,,,
1577421012.010985,84.000000,0.000000,4250.256348,4338.461426,4058.461426,4152.820313,4213.333496,450.000000,4.000000,,,,0.000000,4.000000,4.000000,4.000000,4.000000,4.000000,,,,,,,,,,,,,,,,,,,,,,,,,
1577421012.018681,85.000000,0.000000,4248.717773,4345.641113,4063.076904,4162.051270,4209.230957,450.000000,4.000000,,,,0.000000,4.000000,4.000000,4.000000,4.000000,4.000000,,,,,,,,,,,,,,,,,,,,,,,,,
1577421012.026477,86.000000,0.000000,4246.153809,4320.000000,4054.358887,4162.051270,4203.077148,450.000000,4.000000,,,,0.000000,4.000000,4.000000,4.000000,4.000000,4.000000,,,,,,,,,,,,,,,,,,,,,,,,,
1577421012.034174,87.000000,0.000000,4251.794922,4308.205078,4052.820557,4159.487305,4210.256348,16210.000000,4.000000,,,,0.000000,4.000000,4.000000,4.000000,4.000000,4.000000,,,,,,,,,,,,,,,,,,,,,,,,,
1577421012.042070,88.000000,0.000000,4252.820313,4323.589844,4055.897461,4159.487305,4212.307617,450.000000,4.000000,,,,0.000000,4.000000,4.000000,4.000000,4.000000,4.000000,,,,,,,,,,,,,,,,,,,,,,,,,
1577421012.049867,89.000000,0.000000,4242.563965,4322.051270,4056.410156,4145.641113,4205.641113,450.000000,4.000000,,,,0.000000,4.000000,4.000000,4.000000,4.000000,4.000000,41.771378,17.687593,2.660716,2.329370,1.217114,112.507286,28.452284,2.730184,1.312403,1.266158,285.580994,66.812355,11.492586,5.211432,1.632791,30.092745,10.578528,1.380844,2.090689,1.258950,41.528908,18.800123,2.752720,2.470861,1.238265
1577421012.057663,90.000000,0.000000,4241.538574,4312.820313,4064.615479,4139.487305,4206.666504,450.000000,4.000000,,,,0.000000,4.000000,4.000000,4.000000,4.000000,4.000000,,,,,,,,,,,,,,,,,,,,,,,,,
1577421012.065360,91.000000,0.000000,4243.589844,4315.384766,4065.641113,4145.128418,4204.102539,16210.000000,4.000000,,,,0.000000,4.000000,4.000000,4.000000,4.000000,4.000000,,,,,,,,,,,,,,,,,,,,,,,,,
1577421012.073156,92.000000,0.000000,4248.205078,4326.666504,4070.256348,4151.282227,4210.769043,450.000000,4.000000,,,,0.000000,4.000000,4.000000,4.000000,4.000000,4.000000,,,,,,,,,,,,,,,,,,,,,,,,,
1577421012.080852,93.000000,0.000000,4253.333496,4333.846191,4078.461426,4147.692383,4220.512695,450.000000,4.000000,,,,0.000000,4.000000,4.000000,4.000000,4.000000,4.000000,,,,,,,,,,,,,,,,,,,,,,,,,
1577421012.088649,94.000000,0.000000,4244.102539,4320.512695,4068.718018,4137.948730,4214.358887,450.000000,4.000000,,,,0.000000,4.000000,4.000000,4.000000,4.000000,4.000000,,,,,,,,,,,,,,,,,,,,,,,,,
1577421012.096345,95.000000,0.000000,4243.077148,4320.000000,4066.666748,4136.410156,4217.436035,16210.000000,4.000000,,,,0.000000,4.000000,4.000000,4.000000,4.000000,4.000000,,,,,,,,,,,,,,,,,,,,,,,,,
1577421012.104141,96.000000,0.000000,4244.615234,4324.102539,4064.615479,4126.666504,4220.512695,450.000000,4.000000,,,,0.000000,4.000000,4.000000,4.000000,4.000000,4.000000,,,,,,,,,,,,,,,,,,,,,,,,,
1577421012.111838,97.000000,0.000000,4230.769043,4304.102539,4046.153809,4125.128418,4204.615234,450.000000,4.000000,,,,0.000000,4.000000,4.000000,4.000000,4.000000,4.000000,,,,,,,,,,,,,,,,,,,,,,,,,
1577421012.119634,98.000000,0.000000,4219.487305,4289.743652,4041.538574,4133.333496,4191.282227,450.000000,4.000000,,,,0.000000,4.000000,4.000000,4.000000,4.000000,4.000000,,,,,,,,,,,,,,,,,,,,,,,,,
1577421012.127330,99.000000,0.000000,4201.025879,4283.077148,4036.923096,4107.692383,4177.436035,16210.000000,4.000000,,,,0.000000,4.000000,4.000000,4.000000,4.000000,4.000000,,,,,,,,,,,,,,,,,,,,,,,,,
1577421012.135127,100.000000,0.000000,4196.410156,4282.563965,4033.333252,4095.897461,4172.307617,450.000000,4.000000,,,,0.000000,4.000000,4.000000,4.000000,4.000000,4.000000,,,,,,,,,,,,,,,,,,,,,,,,,
1577421012.142823,101.000000,0.000000,4208.205078,4282.051270,4036.923096,4106.666504,4174.358887,450.000000,4.000000,,,,0.000000,4.000000,4.000000,4.000000,4.000000,4.000000,,,,,,,,,,,,,,,,,,,,,,,,,
1577421012.150619,102.000000,0.000000,4190.769043,4269.230957,4021.538574,4092.820557,4161.025879,450.000000,4.000000,,,,0.000000,4.000000,4.000000,4.000000,4.000000,4.000000,,,,,,,,,,,,,,,,,,,,,,,,,
1577421012.158316,103.000000,0.000000,4181.025879,4272.820313,4016.410156,4090.256348,4153.333496,16210.000000,4.000000,,,,0.000000,4.000000,4.000000,4.000000,4.000000,4.000000,,,,,,,,,,,,,,,,,,,,,,,,,
1577421012.166012,104.000000,0.000000,4195.897461,4281.025879,4026.153809,4098.974121,4160.000000,450.000000,4.000000,,,,0.000000,4.000000,4.000000,4.000000,4.000000,4.000000,,,,,,,,,,,,,,,,,,,,,,,,,
1577421012.173808,105.000000,0.000000,4213.333496,4286.153809,4037.948730,4116.410156,4175.384766,450.000000,4.000000,,,,0.000000,4.000000,4.000000,4.000000,4.000000,4.000000,33.503338,13.335905,2.461079,2.096175,1.102344,97.188332,24.540575,2.321027,1.254961,1.194740,215.082901,70.345772,10.646714,4.238343,1.375018,24.243364,7.352918,1.329994,2.000054,1.056723,33.548588,13.877418,2.564234,2.281843,1.080237
