title:14divided3, start timestamp:2020-01-02T23:47:22.239283+03:00, stop timestamp:2020-01-02T23:48:56.398690+03:00, headset type:INSIGHT, headset serial:A2D200FB, headset firmware:930, subject name:Qasim, channels:44, sampling rate:eeg_128;pow_8, samples:12080     , version:2.0
Timestamp,EEG.Counter,EEG.Interpolated,EEG.AF3,EEG.T7,EEG.Pz,EEG.T8,EEG.AF4,EEG.RawCq,EEG.Battery,MarkerIndex,MarkerType,MarkerValueInt,EEG.MarkerHardware,CQ.AF3,CQ.T7,CQ.Pz,CQ.T8,CQ.AF4,POW.AF3.Theta,POW.AF3.Alpha,POW.AF3.BetaL,POW.AF3.BetaH,POW.AF3.Gamma,POW.T7.Theta,POW.T7.Alpha,POW.T7.BetaL,POW.T7.BetaH,POW.T7.Gamma,POW.Pz.Theta,POW.Pz.Alpha,POW.Pz.BetaL,POW.Pz.BetaH,POW.Pz.Gamma,POW.T8.Theta,POW.T8.Alpha,POW.T8.BetaL,POW.T8.BetaH,POW.T8.Gamma,POW.AF4.Theta,POW.AF4.Alpha,POW.AF4.BetaL,POW.AF4.BetaH,POW.AF4.Gamma
1577998042.239283,75.000000,0.000000,4198.461426,4412.307617,4126.153809,4082.564209,4166.666504,16197.000000,4.000000,,,,0.000000,4.000000,4.000000,4.000000,4.000000,4.000000,,,,,,,,,,,,,,,,,,,,,,,,,
1577998042.247185,76.000000,0.000000,4210.769043,4404.102539,4135.384766,4062.564209,4175.384766,450.000000,4.000000,,,,0.000000,4.000000,4.000000,4.000000,4.000000,4.000000,,,,,,,,,,,,,,,,,,,,,,,,,
1577998042.254987,77.000000,0.000000,4222.563965,4408.205078,4145.128418,4054.871826,4186.153809,450.000000,4.000000,,,,0.000000,4.000000,4.000000,4.000000,4.000000,4.000000,,,,,,,,,,,,,,,,,,,,,,,,,
1577998042.262889,78.000000,0.000000,4213.333496,4400.000000,4135.384766,4071.281982,4182.563965,450.000000,4.000000,,,,0.000000,4.000000,4.000000,4.000000,4.000000,4.000000,,,,,,,,,,,,,,,,,,,,,,,,,
1577998042.270691,79.000000,0.000000,4194.871582,4405.641113,4116.410156,4064.615479,4165.128418,16197.000000,4.000000,,,,0.000000,4.000000,4.000000,4.000000,4.000000,4.000000,,,,,,,,,,,,,,,,,,,,,,,,,
1577998042.278592,80.000000,0.000000,4193.333496,4430.769043,4114.871582,4046.666748,4155.897461,450.000000,4.000000,,,,0.000000,4.000000,4.000000,4.000000,4.000000,4.000000,,,,,,,,,,,,,,,,,,,,,,,,,
1577998042.286495,81.000000,0.000000,4196.922852,4449.230957,4118.974121,4051.281982,4157.948730,450.000000,4.000000,,,,0.000000,4.000000,4.000000,4.000000,4.000000,4.000000,,,,,,,,,,,,,,,,,,,,,,,,,
1577998042.294297,82.000000,0.000000,4196.922852,4460.000000,4123.589844,4061.025635,4164.102539,450.000000,4.000000,,,,0.000000,4.000000,4.000000,4.000000,4.000000,4.000000,,,,,,,,,,,,,,,,,,,,,,,,,
1577998042.302200,83.000000,0.000000,4195.384766,4440.000000,4129.743652,4062.051270,4167.179688,16197.000000,4.000000,,,,0.000000,4.000000,4.000000,4.000000,4.000000,4.000000,,,,,,,,,,,,,,,,,,,,,,,,,
1577998042.310002,84.000000,0.000000,4188.205078,4397.948730,4127.692383,4064.615479,4164.615234,450.000000,4.000000,,,,0.000000,4.000000,4.000000,4.000000,4.000000,4.000000,,,,,,,,,,,,,,,,,,,,,,,,,
1577998042.317905,85.000000,0.000000,4168.717773,4394.358887,4111.794922,4051.794922,4152.820313,450.000000,4.000000,,,,0.000000,4.000000,4.000000,4.000000,4.000000,4.000000,,,,,,,,,,,,,,,,,,,,,,,,,
1577998042.325707,86.000000,0.000000,4159.487305,4398.974121,4113.333496,4041.538574,4145.128418,450.000000,4.000000,,,,0.000000,4.000000,4.000000,4.000000,4.000000,4.000000,,,,,,,,,,,,,,,,,,,,,,,,,
1577998042.333609,87.000000,0.000000,4177.436035,4378.461426,4143.589844,4073.846191,4160.000000,16197.000000,4.000000,,,,0.000000,4.000000,4.000000,4.000000,4.000000,4.000000,,,,,,,,,,,,,,,,,,,,,,,,,
1577998042.341411,88.000000,0.000000,4182.563965,4375.384766,4159.487305,4095.384521,4166.153809,450.000000,4.000000,,,,0.000000,4.000000,4.000000,4.000000,4.000000,4.000000,87.117722,7.168489,1.199480,1.433300,1.115124,138.108871,34.284084,52.082069,9.489741,2.937959,3.756005,5.250812,2.111636,1.081638,0.611167,2.906848,2.804413,0.708655,0.962481,0.879261,35.314365,6.063401,2.074769,0.816500,0.887280
1577998042.349314,89.000000,0.000000,4160.512695,4394.358887,4150.769043,4071.281982,4152.820313,450.000000,4.000000,,,,0.000000,4.000000,4.000000,4.000000,4.000000,4.000000,,,,,,,,,,,,,,,,,,,,,,,,,
1577998042.357116,90.000000,0.000000,4159.487305,4393.333496,4152.307617,4067.692383,4160.000000,450.000000,4.000000,,,,0.000000,4.000000,4.000000,4.000000,4.000000,4.000000,,,,,,,,,,,,,,,,,,,,,,,,,
1577998042.365018,91.000000,0.000000,4169.743652,4353.846191,4155.897461,4087.692383,4164.102539,16197.000000,4.000000,,,,0.000000,4.000000,4.000000,4.000000,4.000000,4.000000,,,,,,,,,,,,,,,,,,,,,,,,,
1577998042.372820,92.000000,0.000000,4159.487305,4301.025879,4146.666504,4078.974365,4134.358887,450.000000,4.000000,,,,0.000000,4.000000,4.000000,4.000000,4.000000,4.000000,,,,,,,,,,,,,,,,,,,,,,,,,
1577998042.380722,93.000000,0.000000,4157.948730,4308.717773,4142.563965,4072.307617,4118.974121,450.000000,4.000000,,,,0.000000,4.000000,4.000000,4.000000,4.000000,4.000000,,,,,,,,,,,,,,,,,,,,,,,,,
1577998042.388525,94.000000,0.000000,4174.358887,4356.922852,4145.128418,4087.692383,4133.846191,450.000000,4.000000,,,,0.000000,4.000000,4.000000,4.000000,4.000000,4.000000,,,,,,,,,,,,,,,,,,,,,,,,,
1577998042.396427,95.000000,0.000000,4180.000000,4357.436035,4140.000000,4089.230713,4142.051270,16197.000000,4.000000,,,,0.000000,4.000000,4.000000,4.000000,4.000000,4.000000,,,,,,,,,,,,,,,,,,,,,,,,,
1577998042.404330,96.000000,0.000000,4177.436035,4323.077148,4140.000000,4079.487061,4135.384766,450.000000,4.000000,,,,0.000000,4.000000,4.000000,4.000000,4.000000,4.000000,,,,,,,,,,,,,,,,,,,,,,,,,
1577998042.412133,97.000000,0.000000,4177.436035,4318.461426,4152.307617,4079.487061,4130.769043,450.000000,4.000000,,,,0.000000,4.000000,4.000000,4.000000,4.000000,4.000000,,,,,,,,,,,,,,,,,,,,,,,,,
1577998042.420035,98.000000,0.000000,4167.179688,4323.589844,4148.205078,4075.897461,4122.563965,450.000000,4.000000,,,,0.000000,4.000000,4.000000,4.000000,4.000000,4.000000,,,,,,,,,,,,,,,,,,,,,,,,,
1577998042.427838,99.000000,0.000000,4161.025879,4338.974121,4140.512695,4080.512939,4122.051270,16197.000000,4.000000,,,,0.000000,4.000000,4.000000,4.000000,4.000000,4.000000,,,,,,,,,,,,,,,,,,,,,,,,,
1577998042.435741,100.000000,0.000000,4174.871582,4370.769043,4148.205078,4106.666504,4134.871582,450.000000,4.000000,,,,0.000000,4.000000,4.000000,4.000000,4.000000,4.000000,,,,,,,,,,,,,,,,,,,,,,,,,
1577998042.443543,101.000000,0.000000,4181.538574,4360.000000,4132.820313,4104.102539,4137.948730,450.000000,4.000000,,,,0.000000,4.000000,4.000000,4.000000,4.000000,4.000000,,,,,,,,,,,,,,,,,,,,,,,,,
1577998042.451446,102.000000,0.000000,4172.820313,4322.563965,4110.769043,4076.923096,4134.871582,450.000000,4.000000,,,,0.000000,4.000000,4.000000,4.000000,4.000000,4.000000,,,,,,,,,,,,,,,,,,,,,,,,,
1577998042.459249,103.000000,0.000000,4176.410156,4314.871582,4125.641113,4085.641113,4142.563965,16197.000000,4.000000,,,,0.000000,4.000000,4.000000,4.000000,4.000000,4.000000,,,,,,,,,,,,,,,,,,,,,,,,,
1577998042.467151,104.000000,0.000000,4183.589844,4307.179688,4144.102539,4106.153809,4151.794922,450.000000,4.000000,,,,0.000000,4.000000,4.000000,4.000000,4.000000,4.000000,102.399658,6.826629,1.157302,1.426328,1.236767,152.676605,35.857281,52.172161,10.703988,2.978445,4.898097,5.198107,2.235051,0.973479,0.613088,2.858258,2.540236,0.538719,0.930286,0.956468,40.577324,4.909559,2.003672,0.824461,0.893862
1577998042.474954,105.000000,0.000000,4178.461426,4287.179688,4134.871582,4093.846191,4144.102539,450.000000,4.000000,,,,0.000000,4.000000,4.000000,4.000000,4.000000,4.000000,,,,,,,,,,,,,,,,,,,,,,,,,
1577998042.482856,106.000000,0.000000,4182.051270,4277.436035,4123.589844,4080.000000,4134.871582,450.000000,4.000000,,,,0.000000,4.000000,4.000000,4.000000,4.000000,4.000000,,,,,,,,,,,,,,,,,,,,,,,,,
1577998042.490659,107.000000,0.000000,4196.922852,4289.230957,4138.461426,4094.358887,4153.333496,16197.000000,4.000000,,,,0.000000,4.000000,4.000000,4.000000,4.000000,4.000000,,,,,,,,,,,,,,,,,,,,,,,,,
1577998042.498461,108.000000,0.000000,4191.282227,4330.256348,4147.179688,4088.718018,4161.538574,450.000000,4.000000,,,,0.000000,4.000000,4.000000,4.000000,4.000000,4.000000,,,,,,,,,,,,,,,,,,,,,,,,,
1577998042.506163,109.000000,0.000000,4174.358887,4358.974121,4132.820313,4065.641113,4141.538574,450.000000,4.000000,,,,0.000000,4.000000,4.000000,4.000000,4.000000,4.000000,,,,,,,,,,,,,,,,,,,,,,,,,
1577998042.514066,110.000000,0.000000,4180.512695,4337.436035,4136.410156,4088.205078,4141.538574,450.000000,4.000000,,,,0.000000,4.000000,4.000000,4.000000,4.000000,4.000000,,,,,,,,,,,,,,,,,,,,,,,,,
1577998042.521868,111.000000,0.000000,4191.794922,4326.153809,4142.563965,4116.410156,4154.358887,16197.000000,4.000000,,,,0.000000,4.000000,4.000000,4.000000,4.000000,4.000000,,,,,,,,,,,,,,,,,,,,,,,,,
1577998042.529671,112.000000,0.000000,4181.025879,4342.563965,4130.769043,4094.871826,4144.102539,450.000000,4.000000,,,,0.000000,4.000000,4.000000,4.000000,4.000000,4.000000,,,,,,,,,,,,,,,,,,,,,,,,,
1577998042.537372,113.000000,0.000000,4180.000000,4330.769043,4140.512695,4091.281982,4143.077148,450.000000,4.000000,,,,0.000000,4.000000,4.000000,4.000000,4.000000,4.000000,,,,,,,,,,,,,,,,,,,,,,,,,
1577998042.545274,114.000000,0.000000,4180.000000,4284.615234,4142.563965,4111.794922,4143.077148,450.000000,4.000000,,,,0.000000,4.000000,4.000000,4.000000,4.000000,4.000000,,,,,,,,,,,,,,,,,,,,,,,,,
1577998042.553077,115.000000,0.000000,4160.512695,4273.333496,4113.333496,4094.358887,4113.846191,16197.000000,4.000000,,,,0.000000,4.000000,4.000000,4.000000,4.000000,4.000000,,,,,,,,,,,,,,,,,,,,,,,,,
1577998042.560979,116.000000,0.000000,4164.102539,4316.922852,4109.743652,4076.410156,4110.256348,450.000000,4.000000,,,,0.000000,4.000000,4.000000,4.000000,4.000000,4.000000,,,,,,,,,,,,,,,,,,,,,,,,,
1577998042.568882,117.000000,0.000000,4177.436035,4325.641113,4119.487305,4083.589844,4129.230957,450.000000,4.000000,,,,0.000000,4.000000,4.000000,4.000000,4.000000,4.000000,,,,,,,,,,,,,,,,,,,,,,,,,
1577998042.576685,118.000000,0.000000,4159.487305,4273.846191,4110.769043,4077.948730,4117.436035,450.000000,4.000000,,,,0.000000,4.000000,4.000000,4.000000,4.000000,4.000000,,,,,,,,,,,,,,,,,,,,,,,,,
1577998042.584588,119.000000,0.000000,4153.333496,4253.846191,4112.820313,4077.435791,4102.563965,16197.000000,4.000000,,,,0.000000,4.000000,4.000000,4.000000,4.000000,4.000000,,,,,,,,,,,,,,,,,,,,,,,,,
1577998042.592391,120.000000,0.000000,4154.871582,4265.641113,4112.307617,4076.923096,4097.948730,450.000000,4.000000,,,,0.000000,4.000000,4.000000,4.000000,4.000000,4.000000,104.303795,5.784939,1.055649,1.360087,1.337005,170.755356,38.227428,48.482971,12.120764,2.974430,6.091507,4.948040,2.236145,0.852243,0.619892,3.044308,2.154064,0.424640,0.878694,1.071473,41.271656,3.729539,1.866662,0.845016,0.912943
1577998042.600194,121.000000,0.000000,4150.769043,4252.820313,4111.282227,4068.718018,4099.487305,450.000000,4.000000,,,,0.000000,4.000000,4.000000,4.000000,4.000000,4.000000,,,,,,,,,,,,,,,,,,,,,,,,,
1577998042.608096,122.000000,0.000000,4180.512695,4258.974121,4141.538574,4101.538574,4140.000000,450.000000,4.000000,,,,0.000000,4.000000,4.000000,4.000000,4.000000,4.000000,,,,,,,,,,,,,,,,,,,,,,,,,
1577998042.615898,123.000000,0.000000,4206.153809,4297.436035,4156.922852,4127.692383,4172.820313,16197.000000,4.000000,,,,0.000000,4.000000,4.000000,4.000000,4.000000,4.000000,,,,,,,,,,,,,,,,,,,,,,,,,
1577998042.623800,124.000000,0.000000,4182.563965,4290.769043,4128.717773,4090.256348,4138.974121,450.000000,4.000000,,,,0.000000,4.000000,4.000000,4.000000,4.000000,4.000000,,,,,,,,,,,,,,,,,,,,,,,,,
1577998042.631602,125.000000,0.000000,4170.256348,4262.563965,4121.538574,4067.179443,4114.871582,450.000000,4.000000,,,,0.000000,4.000000,4.000000,4.000000,4.000000,4.000000,,,,,,,,,,,,,,,,,,,,,,,,,
1577998042.639504,126.000000,0.000000,4187.692383,4287.179688,4142.563965,4086.153809,4141.025879,450.000000,4.000000,,,,0.000000,4.000000,4.000000,4.000000,4.000000,4.000000,,,,,,,,,,,,,,,,,,,,,,,,,
1577998042.647306,127.000000,0.000000,4185.641113,4321.538574,4139.487305,4083.076904,4148.205078,238.000000,4.000000,,,,0.000000,4.000000,4.000000,4.000000,4.000000,4.000000,,,,,,,,,,,,,,,,,,,,,,,,,
1577998042.655007,0.000000,0.000000,4180.512695,4324.615234,4135.384766,4076.923096,4144.102539,450.000000,4.000000,,,,0.000000,4.000000,4.000000,4.000000,4.000000,4.000000,,,,,,,,,,,,,,,,,,,,,,,,,
1577998042.662910,1.000000,0.000000,4181.538574,4332.820313,4138.974121,4081.538574,4155.897461,450.000000,4.000000,,,,0.000000,4.000000,4.000000,4.000000,4.000000,4.000000,,,,,,,,,,,,,,,,,,,,,,,,,
1577998042.670713,2.000000,0.000000,4165.128418,4328.205078,4123.589844,4060.000000,4153.846191,16212.000000,4.000000,,,,0.000000,4.000000,4.000000,4.000000,4.000000,4.000000,,,,,,,,,,,,,,,,,,,,,,,,,
1577998042.678515,3.000000,0.000000,4166.153809,4305.641113,4123.077148,4058.461426,4158.461426,450.000000,4.000000,,,,0.000000,4.000000,4.000000,4.000000,4.000000,4.000000,,,,,,,,,,,,,,,,,,,,,,,,,
1577998042.686217,4.000000,0.000000,4176.922852,4305.641113,4127.179688,4075.384521,4169.230957,16205.000000,4.000000,,,,0.000000,4.000000,4.000000,4.000000,4.000000,4.000000,,,,,,,,,,,,,,,,,,,,,,,,,
1577998042.694120,5.000000,0.000000,4158.974121,4310.256348,4111.282227,4062.051270,4158.974121,450.000000,4.000000,,,,0.000000,4.000000,4.000000,4.000000,4.000000,4.000000,,,,,,,,,,,,,,,,,,,,,,,,,
1577998042.701922,6.000000,0.000000,4155.384766,4297.948730,4108.717773,4067.179443,4160.512695,16144.000000,4.000000,,,,0.000000,4.000000,4.000000,4.000000,4.000000,4.000000,,,,,,,,,,,,,,,,,,,,,,,,,
1577998042.709825,7.000000,0.000000,4164.102539,4257.948730,4107.179688,4082.051270,4160.000000,450.000000,4.000000,,,,0.000000,4.000000,4.000000,4.000000,4.000000,4.000000,,,,,,,,,,,,,,,,,,,,,,,,,
1577998042.717627,8.000000,0.000000,4154.358887,4234.358887,4098.461426,4066.153809,4138.461426,450.000000,4.000000,,,,0.000000,4.000000,4.000000,4.000000,4.000000,4.000000,91.858719,4.339200,0.904839,1.240367,1.383980,187.139038,42.551266,43.111488,13.648358,2.942240,7.028544,4.555044,2.075698,0.747538,0.628875,3.369605,1.742200,0.380394,0.831712,1.205952,36.987885,2.778124,1.629375,0.867978,0.942657
1577998042.725529,9.000000,0.000000,4161.538574,4316.410156,4118.461426,4071.281982,4152.820313,16176.000000,4.000000,,,,0.000000,4.000000,4.000000,4.000000,4.000000,4.000000,,,,,,,,,,,,,,,,,,,,,,,,,
1577998042.733331,10.000000,0.000000,4178.974121,4412.307617,4146.153809,4100.000000,4191.794922,450.000000,4.000000,,,,0.000000,4.000000,4.000000,4.000000,4.000000,4.000000,,,,,,,,,,,,,,,,,,,,,,,,,
1577998042.741234,11.000000,0.000000,4175.897461,4390.256348,4144.615234,4102.563965,4187.179688,16206.000000,4.000000,,,,0.000000,4.000000,4.000000,4.000000,4.000000,4.000000,,,,,,,,,,,,,,,,,,,,,,,,,
1577998042.749036,12.000000,0.000000,4169.230957,4349.230957,4135.897461,4090.769287,4162.051270,450.000000,4.000000,,,,0.000000,4.000000,4.000000,4.000000,4.000000,4.000000,,,,,,,,,,,,,,,,,,,,,,,,,
1577998042.756938,13.000000,0.000000,4177.948730,4367.179688,4142.563965,4089.230713,4165.128418,450.000000,4.000000,,,,0.000000,4.000000,4.000000,4.000000,4.000000,4.000000,,,,,,,,,,,,,,,,,,,,,,,,,
1577998042.764740,14.000000,0.000000,4192.307617,4356.922852,4153.333496,4100.000000,4175.384766,450.000000,4.000000,,,,0.000000,4.000000,4.000000,4.000000,4.000000,4.000000,,,,,,,,,,,,,,,,,,,,,,,,,
1577998042.772642,15.000000,0.000000,4203.589844,4328.717773,4160.000000,4122.051270,4185.128418,16206.000000,4.000000,,,,0.000000,4.000000,4.000000,4.000000,4.000000,4.000000,,,,,,,,,,,,,,,,,,,,,,,,,
1577998042.780445,16.000000,0.000000,4190.769043,4330.769043,4155.897461,4125.128418,4186.666504,0.000000,4.000000,,,,0.000000,4.000000,4.000000,4.000000,4.000000,4.000000,,,,,,,,,,,,,,,,,,,,,,,,,
1577998042.788347,17.000000,0.000000,4164.102539,4317.436035,4149.230957,4106.153809,4163.077148,0.000000,4.000000,,,,0.000000,4.000000,4.000000,4.000000,4.000000,4.000000,,,,,,,,,,,,,,,,,,,,,,,,,
1577998042.796249,18.000000,0.000000,4172.307617,4288.205078,4160.512695,4118.461426,4161.538574,0.000000,4.000000,,,,0.000000,4.000000,4.000000,4.000000,4.000000,4.000000,,,,,,,,,,,,,,,,,,,,,,,,,
1577998042.804052,19.000000,0.000000,4188.717773,4263.589844,4168.717773,4138.461426,4184.102539,0.000000,4.000000,,,,0.000000,4.000000,4.000000,4.000000,4.000000,4.000000,,,,,,,,,,,,,,,,,,,,,,,,,
1577998042.811955,20.000000,0.000000,4199.487305,4250.769043,4164.102539,4137.436035,4192.307617,0.000000,4.000000,,,,0.000000,4.000000,4.000000,4.000000,4.000000,4.000000,,,,,,,,,,,,,,,,,,,,,,,,,
1577998042.819758,21.000000,0.000000,4211.794922,4277.948730,4157.948730,4142.051270,4195.384766,0.000000,4.000000,,,,0.000000,4.000000,4.000000,4.000000,4.000000,4.000000,,,,,,,,,,,,,,,,,,,,,,,,,
1577998042.827660,22.000000,0.000000,4203.077148,4293.333496,4147.179688,4137.948730,4190.769043,0.000000,4.000000,,,,0.000000,4.000000,4.000000,4.000000,4.000000,4.000000,,,,,,,,,,,,,,,,,,,,,,,,,
1577998042.835564,23.000000,0.000000,4181.538574,4245.128418,4137.436035,4113.846191,4172.820313,0.000000,4.000000,,,,0.000000,4.000000,4.000000,4.000000,4.000000,4.000000,,,,,,,,,,,,,,,,,,,,,,,,,
1577998042.843367,24.000000,0.000000,4178.461426,4246.153809,4135.897461,4113.846191,4161.538574,0.000000,4.000000,,,,0.000000,4.000000,4.000000,4.000000,4.000000,4.000000,69.443573,2.872523,0.733031,1.094913,1.358416,198.072403,48.160240,37.917557,14.890946,2.908409,7.413717,4.032227,1.783321,0.680259,0.641501,3.575766,1.381685,0.404033,0.809144,1.338353,29.016966,2.163429,1.314360,0.888068,0.974064
1577998042.851270,25.000000,0.000000,4180.512695,4339.487305,4139.487305,4129.230957,4154.871582,0.000000,4.000000,,,,0.000000,4.000000,4.000000,4.000000,4.000000,4.000000,,,,,,,,,,,,,,,,,,,,,,,,,
1577998042.859074,26.000000,0.000000,4177.436035,4398.461426,4153.846191,4129.230957,4154.871582,0.000000,4.000000,,,,0.000000,4.000000,4.000000,4.000000,4.000000,4.000000,,,,,,,,,,,,,,,,,,,,,,,,,
1577998042.866977,27.000000,0.000000,4187.692383,4386.153809,4169.743652,4142.051270,4175.897461,0.000000,4.000000,,,,0.000000,4.000000,4.000000,4.000000,4.000000,4.000000,,,,,,,,,,,,,,,,,,,,,,,,,
1577998042.874781,28.000000,0.000000,4190.769043,4392.820313,4171.282227,4162.051270,4184.102539,0.000000,4.000000,,,,0.000000,4.000000,4.000000,4.000000,4.000000,4.000000,,,,,,,,,,,,,,,,,,,,,,,,,
1577998042.882684,29.000000,0.000000,4167.179688,4431.282227,4161.538574,4151.794922,4155.897461,0.000000,4.000000,,,,0.000000,4.000000,4.000000,4.000000,4.000000,4.000000,,,,,,,,,,,,,,,,,,,,,,,,,
1577998042.890487,30.000000,0.000000,4148.717773,4458.974121,4156.410156,4133.333496,4135.384766,0.000000,4.000000,,,,0.000000,4.000000,4.000000,4.000000,4.000000,4.000000,,,,,,,,,,,,,,,,,,,,,,,,,
1577998042.898390,31.000000,0.000000,4166.666504,4497.436035,4164.615234,4148.205078,4154.871582,0.000000,4.000000,,,,0.000000,4.000000,4.000000,4.000000,4.000000,4.000000,,,,,,,,,,,,,,,,,,,,,,,,,
1577998042.906193,32.000000,0.000000,4184.615234,4523.077148,4167.179688,4162.563965,4171.794922,0.000000,4.000000,,,,0.000000,4.000000,4.000000,4.000000,4.000000,4.000000,,,,,,,,,,,,,,,,,,,,,,,,,
1577998042.914096,33.000000,0.000000,4169.230957,4470.256348,4158.461426,4150.256348,4163.589844,0.000000,4.000000,,,,0.000000,4.000000,4.000000,4.000000,4.000000,4.000000,,,,,,,,,,,,,,,,,,,,,,,,,
1577998042.921900,34.000000,0.000000,4161.025879,4389.230957,4169.230957,4149.743652,4166.153809,0.000000,4.000000,,,,0.000000,4.000000,4.000000,4.000000,4.000000,4.000000,,,,,,,,,,,,,,,,,,,,,,,,,
1577998042.929703,35.000000,0.000000,4167.179688,4355.897461,4176.410156,4160.512695,4176.410156,0.000000,4.000000,,,,0.000000,4.000000,4.000000,4.000000,4.000000,4.000000,,,,,,,,,,,,,,,,,,,,,,,,,
1577998042.937605,36.000000,0.000000,4161.538574,4348.717773,4167.692383,4161.538574,4173.846191,0.000000,4.000000,,,,0.000000,4.000000,4.000000,4.000000,4.000000,4.000000,,,,,,,,,,,,,,,,,,,,,,,,,
1577998042.945508,37.000000,0.000000,4150.256348,4343.077148,4166.666504,4155.384766,4165.128418,0.000000,4.000000,,,,0.000000,4.000000,4.000000,4.000000,4.000000,4.000000,,,,,,,,,,,,,,,,,,,,,,,,,
1577998042.953412,38.000000,0.000000,4152.307617,4360.512695,4171.794922,4152.820313,4165.641113,0.000000,4.000000,,,,0.000000,4.000000,4.000000,4.000000,4.000000,4.000000,,,,,,,,,,,,,,,,,,,,,,,,,
1577998042.961216,39.000000,0.000000,4157.948730,4381.538574,4164.615234,4146.666504,4166.666504,0.000000,4.000000,,,,0.000000,4.000000,4.000000,4.000000,4.000000,4.000000,,,,,,,,,,,,,,,,,,,,,,,,,
1577998042.969019,40.000000,0.000000,4155.897461,4378.461426,4149.743652,4141.025879,4163.589844,0.000000,4.000000,,,,0.000000,4.000000,4.000000,4.000000,4.000000,4.000000,44.488182,1.744765,0.577802,0.968306,1.264079,194.545990,53.189850,33.659706,15.421302,2.913170,7.163931,3.407787,1.446966,0.655238,0.662697,3.648242,1.141564,0.475047,0.818434,1.449209,20.014038,1.849488,0.995699,0.926036,1.002111
1577998042.976922,41.000000,0.000000,4162.563965,4397.436035,4149.230957,4150.256348,4180.000000,0.000000,4.000000,,,,0.000000,4.000000,4.000000,4.000000,4.000000,4.000000,,,,,,,,,,,,,,,,,,,,,,,,,
1577998042.984826,42.000000,0.000000,4185.128418,4444.615234,4158.974121,4172.820313,4208.717773,0.000000,4.000000,,,,0.000000,4.000000,4.000000,4.000000,4.000000,4.000000,,,,,,,,,,,,,,,,,,,,,,,,,
1577998042.992630,43.000000,0.000000,4178.461426,4442.051270,4155.897461,4173.333496,4200.512695,0.000000,4.000000,,,,0.000000,4.000000,4.000000,4.000000,4.000000,4.000000,,,,,,,,,,,,,,,,,,,,,,,,,
1577998043.000533,44.000000,0.000000,4155.897461,4401.538574,4152.820313,4162.051270,4174.871582,0.000000,4.000000,,,,0.000000,4.000000,4.000000,4.000000,4.000000,4.000000,,,,,,,,,,,,,,,,,,,,,,,,,
1577998043.008337,45.000000,0.000000,4181.538574,4418.974121,4162.051270,4174.358887,4189.230957,0.000000,4.000000,,,,0.000000,4.000000,4.000000,4.000000,4.000000,4.000000,,,,,,,,,,,,,,,,,,,,,,,,,
1577998043.016240,46.000000,0.000000,4213.846191,4467.692383,4171.794922,4192.820313,4215.897461,0.000000,4.000000,,,,0.000000,4.000000,4.000000,4.000000,4.000000,4.000000,,,,,,,,,,,,,,,,,,,,,,,,,
1577998043.024044,47.000000,0.000000,4191.794922,4458.461426,4164.615234,4186.666504,4211.282227,0.000000,4.000000,,,,0.000000,4.000000,4.000000,4.000000,4.000000,4.000000,,,,,,,,,,,,,,,,,,,,,,,,,
1577998043.031847,48.000000,0.000000,4176.922852,4449.230957,4153.333496,4170.256348,4197.948730,0.000000,4.000000,,,,0.000000,4.000000,4.000000,4.000000,4.000000,4.000000,,,,,,,,,,,,,,,,,,,,,,,,,
1577998043.039749,49.000000,0.000000,4205.641113,4511.794922,4163.589844,4173.846191,4205.641113,0.000000,4.000000,,,,0.000000,4.000000,4.000000,4.000000,4.000000,4.000000,,,,,,,,,,,,,,,,,,,,,,,,,
1577998043.047653,50.000000,0.000000,4209.743652,4565.641113,4176.410156,4181.025879,4213.846191,0.000000,4.000000,,,,0.000000,4.000000,4.000000,4.000000,4.000000,4.000000,,,,,,,,,,,,,,,,,,,,,,,,,
1577998043.055456,51.000000,0.000000,4173.846191,4527.692383,4167.179688,4165.128418,4194.358887,0.000000,4.000000,,,,0.000000,4.000000,4.000000,4.000000,4.000000,4.000000,,,,,,,,,,,,,,,,,,,,,,,,,
1577998043.063260,52.000000,0.000000,4162.563965,4461.025879,4161.025879,4159.487305,4178.461426,0.000000,4.000000,,,,0.000000,4.000000,4.000000,4.000000,4.000000,4.000000,,,,,,,,,,,,,,,,,,,,,,,,,
1577998043.071162,53.000000,0.000000,4180.512695,4435.384766,4171.794922,4172.820313,4185.641113,0.000000,4.000000,,,,0.000000,4.000000,4.000000,4.000000,4.000000,4.000000,,,,,,,,,,,,,,,,,,,,,,,,,
1577998043.079065,54.000000,0.000000,4185.641113,4414.871582,4175.897461,4170.769043,4191.282227,0.000000,4.000000,,,,0.000000,4.000000,4.000000,4.000000,4.000000,4.000000,,,,,,,,,,,,,,,,,,,,,,,,,
1577998043.086869,55.000000,0.000000,4169.230957,4376.410156,4156.922852,4157.436035,4181.025879,0.000000,4.000000,,,,0.000000,4.000000,4.000000,4.000000,4.000000,4.000000,,,,,,,,,,,,,,,,,,,,,,,,,
1577998043.094772,56.000000,0.000000,4163.589844,4360.512695,4153.846191,4163.589844,4178.974121,0.000000,4.000000,,,,0.000000,4.000000,4.000000,4.000000,4.000000,4.000000,23.879963,1.149516,0.466750,0.913620,1.129249,175.919724,55.794422,30.046902,15.044754,3.000525,6.526962,2.760049,1.179065,0.664660,0.697244,3.479592,1.054452,0.580170,0.857933,1.527454,12.458112,1.716209,0.759996,1.022228,1.031722
1577998043.102575,57.000000,0.000000,4165.641113,4355.384766,4170.769043,4168.205078,4182.051270,0.000000,4.000000,,,,0.000000,4.000000,4.000000,4.000000,4.000000,4.000000,,,,,,,,,,,,,,,,,,,,,,,,,
1577998043.110478,58.000000,0.000000,4164.615234,4323.077148,4164.102539,4160.000000,4181.025879,0.000000,4.000000,,,,0.000000,4.000000,4.000000,4.000000,4.000000,4.000000,,,,,,,,,,,,,,,,,,,,,,,,,
1577998043.118281,59.000000,0.000000,4172.820313,4302.051270,4150.256348,4166.153809,4197.436035,0.000000,4.000000,,,,0.000000,4.000000,4.000000,4.000000,4.000000,4.000000,,,,,,,,,,,,,,,,,,,,,,,,,
1577998043.126185,60.000000,0.000000,4182.563965,4312.820313,4153.846191,4175.897461,4209.230957,0.000000,4.000000,,,,0.000000,4.000000,4.000000,4.000000,4.000000,4.000000,,,,,,,,,,,,,,,,,,,,,,,,,
1577998043.133988,61.000000,0.000000,4172.307617,4306.153809,4154.871582,4166.666504,4196.922852,0.000000,4.000000,,,,0.000000,4.000000,4.000000,4.000000,4.000000,4.000000,,,,,,,,,,,,,,,,,,,,,,,,,
1577998043.141891,62.000000,0.000000,4173.333496,4280.512695,4157.948730,4164.615234,4203.077148,0.000000,4.000000,,,,0.000000,4.000000,4.000000,4.000000,4.000000,4.000000,,,,,,,,,,,,,,,,,,,,,,,,,
1577998043.149694,63.000000,0.000000,4198.974121,4275.384766,4169.743652,4181.538574,4227.692383,0.000000,4.000000,,,,0.000000,4.000000,4.000000,4.000000,4.000000,4.000000,,,,,,,,,,,,,,,,,,,,,,,,,
1577998043.157596,64.000000,0.000000,4200.000000,4279.487305,4172.820313,4183.077148,4225.128418,450.000000,4.000000,,,,0.000000,4.000000,4.000000,4.000000,4.000000,4.000000,,,,,,,,,,,,,,,,,,,,,,,,,
1577998043.165399,65.000000,0.000000,4179.487305,4268.717773,4166.666504,4167.179688,4205.641113,450.000000,4.000000,,,,0.000000,4.000000,4.000000,4.000000,4.000000,4.000000,,,,,,,,,,,,,,,,,,,,,,,,,
1577998043.173302,66.000000,0.000000,4186.666504,4246.153809,4168.205078,4169.230957,4212.307617,16206.000000,4.000000,,,,0.000000,4.000000,4.000000,4.000000,4.000000,4.000000,,,,,,,,,,,,,,,,,,,,,,,,,
1577998043.181105,67.000000,0.000000,4213.846191,4220.000000,4170.769043,4177.948730,4229.230957,450.000000,4.000000,,,,0.000000,4.000000,4.000000,4.000000,4.000000,4.000000,,,,,,,,,,,,,,,,,,,,,,,,,
1577998043.189008,68.000000,0.000000,4216.922852,4203.589844,4159.487305,4168.205078,4218.461426,16203.000000,4.000000,,,,0.000000,4.000000,4.000000,4.000000,4.000000,4.000000,,,,,,,,,,,,,,,,,,,,,,,,,
1577998043.196811,69.000000,0.000000,4199.487305,4202.051270,4152.820313,4160.000000,4207.179688,450.000000,4.000000,,,,0.000000,4.000000,4.000000,4.000000,4.000000,4.000000,,,,,,,,,,,,,,,,,,,,,,,,,
1577998043.204714,70.000000,0.000000,4194.358887,4194.871582,4158.461426,4165.641113,4214.358887,16135.000000,4.000000,,,,0.000000,4.000000,4.000000,4.000000,4.000000,4.000000,,,,,,,,,,,,,,,,,,,,,,,,,
1577998043.212516,71.000000,0.000000,4185.641113,4168.205078,4147.179688,4152.307617,4200.000000,450.000000,4.000000,,,,0.000000,4.000000,4.000000,4.000000,4.000000,4.000000,,,,,,,,,,,,,,,,,,,,,,,,,
1577998043.220419,72.000000,0.000000,4171.794922,4171.794922,4136.922852,4135.897461,4179.487305,450.000000,4.000000,,,,0.000000,4.000000,4.000000,4.000000,4.000000,4.000000,11.396977,1.041537,0.421085,0.961167,0.997986,145.246918,55.153194,26.419668,13.916119,3.200840,5.900023,2.192216,1.072717,0.692290,0.743140,3.205405,1.112862,0.722060,0.918939,1.569874,7.923238,1.620632,0.677963,1.214006,1.073622
1577998043.228222,73.000000,0.000000,4179.487305,4201.538574,4152.820313,4149.743652,4191.282227,16171.000000,4.000000,,,,0.000000,4.000000,4.000000,4.000000,4.000000,4.000000,,,,,,,,,,,,,,,,,,,,,,,,,
1577998043.236124,74.000000,0.000000,4192.820313,4205.641113,4169.743652,4167.179688,4208.205078,450.000000,4.000000,,,,0.000000,4.000000,4.000000,4.000000,4.000000,4.000000,,,,,,,,,,,,,,,,,,,,,,,,,
1577998043.243927,75.000000,0.000000,4190.256348,4207.179688,4161.538574,4160.512695,4205.128418,16196.000000,4.000000,,,,0.000000,4.000000,4.000000,4.000000,4.000000,4.000000,,,,,,,,,,,,,,,,,,,,,,,,,
1577998043.251829,76.000000,0.000000,4193.333496,4228.205078,4145.641113,4156.922852,4203.589844,450.000000,4.000000,,,,0.000000,4.000000,4.000000,4.000000,4.000000,4.000000,,,,,,,,,,,,,,,,,,,,,,,,,
1577998043.259733,77.000000,0.000000,4217.436035,4248.205078,4154.358887,4180.512695,4220.000000,450.000000,4.000000,,,,0.000000,4.000000,4.000000,4.000000,4.000000,4.000000,,,,,,,,,,,,,,,,,,,,,,,,,
1577998043.267536,78.000000,0.000000,4225.641113,4250.769043,4164.102539,4191.282227,4229.230957,450.000000,4.000000,,,,0.000000,4.000000,4.000000,4.000000,4.000000,4.000000,,,,,,,,,,,,,,,,,,,,,,,,,
1577998043.275439,79.000000,0.000000,4201.025879,4227.692383,4143.589844,4160.000000,4210.256348,16196.000000,4.000000,,,,0.000000,4.000000,4.000000,4.000000,4.000000,4.000000,,,,,,,,,,,,,,,,,,,,,,,,,
1577998043.283243,80.000000,0.000000,4190.256348,4212.307617,4126.153809,4141.025879,4191.794922,450.000000,4.000000,,,,0.000000,4.000000,4.000000,4.000000,4.000000,4.000000,,,,,,,,,,,,,,,,,,,,,,,,,
1577998043.291146,81.000000,0.000000,4201.538574,4230.256348,4137.948730,4161.025879,4195.897461,450.000000,4.000000,,,,0.000000,4.000000,4.000000,4.000000,4.000000,4.000000,,,,,,,,,,,,,,,,,,,,,,,,,
1577998043.298949,82.000000,0.000000,4204.102539,4232.307617,4147.179688,4176.922852,4207.692383,450.000000,4.000000,,,,0.000000,4.000000,4.000000,4.000000,4.000000,4.000000,,,,,,,,,,,,,,,,,,,,,,,,,
1577998043.306852,83.000000,0.000000,4201.025879,4208.205078,4140.000000,4177.948730,4212.820313,16196.000000,4.000000,,,,0.000000,4.000000,4.000000,4.000000,4.000000,4.000000,,,,,,,,,,,,,,,,,,,,,,,,,
1577998043.314655,84.000000,0.000000,4207.179688,4217.436035,4142.051270,4181.025879,4220.512695,450.000000,4.000000,,,,0.000000,4.000000,4.000000,4.000000,4.000000,4.000000,,,,,,,,,,,,,,,,,,,,,,,,,
1577998043.322558,85.000000,0.000000,4205.128418,4224.102539,4138.461426,4171.282227,4217.948730,450.000000,4.000000,,,,0.000000,4.000000,4.000000,4.000000,4.000000,4.000000,,,,,,,,,,,,,,,,,,,,,,,,,
1577998043.330361,86.000000,0.000000,4200.000000,4193.846191,4124.615234,4152.820313,4210.256348,450.000000,4.000000,,,,0.000000,4.000000,4.000000,4.000000,4.000000,4.000000,,,,,,,,,,,,,,,,,,,,,,,,,
1577998043.338264,87.000000,0.000000,4219.487305,4191.794922,4135.384766,4161.025879,4229.230957,16196.000000,4.000000,,,,0.000000,4.000000,4.000000,4.000000,4.000000,4.000000,,,,,,,,,,,,,,,,,,,,,,,,,
1577998043.346067,88.000000,0.000000,4234.871582,4203.589844,4149.230957,4175.897461,4243.589844,450.000000,4.000000,,,,0.000000,4.000000,4.000000,4.000000,4.000000,4.000000,6.417922,1.201230,0.435617,1.099684,0.913547,114.967529,51.947926,22.839794,12.507776,3.514884,5.625664,1.767707,1.134511,0.717449,0.787860,3.013837,1.273173,0.881098,0.988979,1.574196,6.310247,1.487928,0.760457,1.497428,1.132852
1577998043.353970,89.000000,0.000000,4213.333496,4168.717773,4134.358887,4159.487305,4223.589844,450.000000,4.000000,,,,0.000000,4.000000,4.000000,4.000000,4.000000,4.000000,,,,,,,,,,,,,,,,,,,,,,,,,
1577998043.361773,90.000000,0.000000,4203.077148,4154.871582,4128.205078,4152.820313,4222.051270,450.000000,4.000000,,,,0.000000,4.000000,4.000000,4.000000,4.000000,4.000000,,,,,,,,,,,,,,,,,,,,,,,,,
1577998043.369676,91.000000,0.000000,4229.230957,4203.077148,4131.794922,4175.384766,4252.820313,16196.000000,4.000000,,,,0.000000,4.000000,4.000000,4.000000,4.000000,4.000000,,,,,,,,,,,,,,,,,,,,,,,,,
1577998043.377479,92.000000,0.000000,4253.846191,4240.000000,4123.077148,4182.051270,4270.769043,450.000000,4.000000,,,,0.000000,4.000000,4.000000,4.000000,4.000000,4.000000,,,,,,,,,,,,,,,,,,,,,,,,,
1577998043.385382,93.000000,0.000000,4281.025879,4255.897461,4129.230957,4173.846191,4284.102539,450.000000,4.000000,,,,0.000000,4.000000,4.000000,4.000000,4.000000,4.000000,,,,,,,,,,,,,,,,,,,,,,,,,
1577998043.393185,94.000000,0.000000,4320.000000,4277.436035,4147.692383,4173.846191,4310.769043,450.000000,4.000000,,,,0.000000,4.000000,4.000000,4.000000,4.000000,4.000000,,,,,,,,,,,,,,,,,,,,,,,,,
1577998043.401087,95.000000,0.000000,4352.820313,4297.436035,4151.794922,4171.282227,4335.384766,16196.000000,4.000000,,,,0.000000,4.000000,4.000000,4.000000,4.000000,4.000000,,,,,,,,,,,,,,,,,,,,,,,,,
1577998043.408991,96.000000,0.000000,4397.436035,4336.922852,4150.256348,4168.205078,4365.128418,450.000000,4.000000,,,,0.000000,4.000000,4.000000,4.000000,4.000000,4.000000,,,,,,,,,,,,,,,,,,,,,,,,,
1577998043.416794,97.000000,0.000000,4466.666504,4387.179688,4157.948730,4181.538574,4411.282227,450.000000,4.000000,,,,0.000000,4.000000,4.000000,4.000000,4.000000,4.000000,,,,,,,,,,,,,,,,,,,,,,,,,
1577998043.424598,98.000000,0.000000,4513.846191,4365.641113,4163.589844,4195.384766,4449.743652,450.000000,4.000000,,,,0.000000,4.000000,4.000000,4.000000,4.000000,4.000000,,,,,,,,,,,,,,,,,,,,,,,,,
1577998043.432500,99.000000,0.000000,4521.025879,4299.487305,4152.820313,4180.000000,4453.333496,16196.000000,4.000000,,,,0.000000,4.000000,4.000000,4.000000,4.000000,4.000000,,,,,,,,,,,,,,,,,,,,,,,,,
1577998043.440404,100.000000,1.000000,4516.125488,4299.088379,4155.099609,4181.424316,4448.262207,14446.444336,4.000000,,,,0.000000,4.000000,4.000000,4.000000,4.000000,4.000000,,,,,,,,,,,,,,,,,,,,,,,,,
1577998043.448207,101.000000,1.000000,4511.225098,4298.689453,4157.378906,4182.849121,4443.190918,12696.888672,4.000000,,,,0.000000,4.000000,4.000000,4.000000,4.000000,4.000000,,,,,,,,,,,,,,,,,,,,,,,,,
1577998043.456010,102.000000,1.000000,4506.324707,4298.290527,4159.658203,4184.273438,4438.119629,10947.333008,4.000000,,,,0.000000,4.000000,4.000000,4.000000,4.000000,4.000000,,,,,,,,,,,,,,,,,,,,,,,,,
1577998043.463814,103.000000,1.000000,4501.424316,4297.891602,4161.937500,4185.698242,4433.048340,9197.777344,4.000000,,,,0.000000,4.000000,4.000000,4.000000,4.000000,4.000000,,,,,,,,,,,,,,,,,,,,,,,,,
1577998043.471617,104.000000,1.000000,4496.524414,4297.492676,4164.216309,4187.122559,4427.977051,7448.222168,4.000000,,,,0.000000,4.000000,4.000000,4.000000,4.000000,4.000000,5.822293,1.440877,0.496752,1.286564,0.901512,94.563278,48.309196,19.992115,11.283131,3.895950,5.653838,1.559706,1.305734,0.721495,0.813297,2.985311,1.491717,1.030265,1.055886,1.536926,6.417531,1.357646,0.953799,1.817228,1.202255
1577998043.479421,105.000000,1.000000,4491.624023,4297.094238,4166.495605,4188.546875,4422.905762,5698.666504,4.000000,,,,0.000000,4.000000,4.000000,4.000000,4.000000,4.000000,,,,,,,,,,,,,,,,,,,,,,,,,
1577998043.487224,106.000000,1.000000,4486.723633,4296.695313,4168.774902,4189.971680,4417.834961,3949.111084,4.000000,,,,0.000000,4.000000,4.000000,4.000000,4.000000,4.000000,,,,,,,,,,,,,,,,,,,,,,,,,
1577998043.495028,107.000000,1.000000,4481.823242,4296.296387,4171.054199,4191.395996,4412.763672,2199.555664,4.000000,,,,0.000000,4.000000,4.000000,4.000000,4.000000,4.000000,,,,,,,,,,,,,,,,,,,,,,,,,
1577998043.502831,108.000000,0.000000,4476.922852,4295.897461,4173.333496,4192.820313,4407.692383,450.000000,4.000000,,,,0.000000,4.000000,4.000000,4.000000,4.000000,4.000000,,,,,,,,,,,,,,,,,,,,,,,,,
1577998043.510529,109.000000,0.000000,4466.153809,4324.102539,4182.563965,4202.051270,4405.128418,450.000000,4.000000,,,,0.000000,4.000000,4.000000,4.000000,4.000000,4.000000,,,,,,,,,,,,,,,,,,,,,,,,,
1577998043.518326,110.000000,0.000000,4434.871582,4401.025879,4177.948730,4184.102539,4368.717773,450.000000,4.000000,,,,0.000000,4.000000,4.000000,4.000000,4.000000,4.000000,,,,,,,,,,,,,,,,,,,,,,,,,
1577998043.526024,111.000000,0.000000,4404.615234,4405.128418,4164.102539,4169.743652,4341.538574,16196.000000,4.000000,,,,0.000000,4.000000,4.000000,4.000000,4.000000,4.000000,,,,,,,,,,,,,,,,,,,,,,,,,
1577998043.533821,112.000000,0.000000,4391.282227,4384.615234,4163.589844,4170.769043,4333.846191,450.000000,4.000000,,,,0.000000,4.000000,4.000000,4.000000,4.000000,4.000000,,,,,,,,,,,,,,,,,,,,,,,,,
1577998043.541519,113.000000,0.000000,4380.000000,4406.666504,4165.641113,4168.205078,4320.000000,450.000000,4.000000,,,,0.000000,4.000000,4.000000,4.000000,4.000000,4.000000,,,,,,,,,,,,,,,,,,,,,,,,,
1577998043.549316,114.000000,0.000000,4356.410156,4386.666504,4156.922852,4163.077148,4302.563965,450.000000,4.000000,,,,0.000000,4.000000,4.000000,4.000000,4.000000,4.000000,,,,,,,,,,,,,,,,,,,,,,,,,
1577998043.557014,115.000000,0.000000,4337.948730,4308.717773,4165.128418,4174.358887,4295.897461,16196.000000,4.000000,,,,0.000000,4.000000,4.000000,4.000000,4.000000,4.000000,,,,,,,,,,,,,,,,,,,,,,,,,
1577998043.564811,116.000000,0.000000,4325.641113,4259.487305,4174.871582,4190.769043,4290.769043,450.000000,4.000000,,,,0.000000,4.000000,4.000000,4.000000,4.000000,4.000000,,,,,,,,,,,,,,,,,,,,,,,,,
1577998043.572508,117.000000,0.000000,4302.563965,4247.179688,4165.641113,4190.769043,4276.922852,450.000000,4.000000,,,,0.000000,4.000000,4.000000,4.000000,4.000000,4.000000,,,,,,,,,,,,,,,,,,,,,,,,,
1577998043.580305,118.000000,0.000000,4287.179688,4234.871582,4167.179688,4190.769043,4270.256348,450.000000,4.000000,,,,0.000000,4.000000,4.000000,4.000000,4.000000,4.000000,,,,,,,,,,,,,,,,,,,,,,,,,
1577998043.588103,119.000000,0.000000,4291.282227,4215.897461,4170.256348,4196.922852,4270.769043,16196.000000,4.000000,,,,0.000000,4.000000,4.000000,4.000000,4.000000,4.000000,,,,,,,,,,,,,,,,,,,,,,,,,
1577998043.595799,120.000000,0.000000,4288.717773,4218.974121,4167.179688,4194.358887,4269.743652,450.000000,4.000000,,,,0.000000,4.000000,4.000000,4.000000,4.000000,4.000000,6.791743,1.631082,0.613840,1.453196,0.961498,90.292862,46.019772,18.240995,10.417022,4.250525,5.714818,1.530100,1.495534,0.699056,0.806734,3.097535,1.714771,1.153191,1.106074,1.458010,7.113955,1.270793,1.170489,2.085351,1.265300
1577998043.603496,121.000000,0.000000,4278.974121,4260.000000,4169.743652,4190.769043,4269.230957,450.000000,4.000000,,,,0.000000,4.000000,4.000000,4.000000,4.000000,4.000000,,,,,,,,,,,,,,,,,,,,,,,,,
1577998043.611194,122.000000,0.000000,4269.743652,4310.769043,4164.102539,4178.974121,4254.358887,450.000000,4.000000,,,,0.000000,4.000000,4.000000,4.000000,4.000000,4.000000,,,,,,,,,,,,,,,,,,,,,,,,,
1577998043.618992,123.000000,0.000000,4253.846191,4332.307617,4158.461426,4155.384766,4227.179688,16196.000000,4.000000,,,,0.000000,4.000000,4.000000,4.000000,4.000000,4.000000,,,,,,,,,,,,,,,,,,,,,,,,,
1577998043.626691,124.000000,0.000000,4245.641113,4315.897461,4165.641113,4152.307617,4221.538574,450.000000,4.000000,,,,0.000000,4.000000,4.000000,4.000000,4.000000,4.000000,,,,,,,,,,,,,,,,,,,,,,,,,
1577998043.634490,125.000000,0.000000,4245.641113,4306.666504,4166.666504,4170.256348,4227.692383,450.000000,4.000000,,,,0.000000,4.000000,4.000000,4.000000,4.000000,4.000000,,,,,,,,,,,,,,,,,,,,,,,,,
1577998043.642288,126.000000,0.000000,4229.230957,4323.077148,4157.436035,4174.871582,4212.307617,450.000000,4.000000,,,,0.000000,4.000000,4.000000,4.000000,4.000000,4.000000,,,,,,,,,,,,,,,,,,,,,,,,,
1577998043.649986,127.000000,0.000000,4205.128418,4333.846191,4149.743652,4170.769043,4193.846191,238.000000,4.000000,,,,0.000000,4.000000,4.000000,4.000000,4.000000,4.000000,,,,,,,,,,,,,,,,,,,,,,,,,
1577998043.657783,0.000000,0.000000,4202.051270,4352.307617,4155.384766,4181.025879,4199.487305,450.000000,4.000000,,,,0.000000,4.000000,4.000000,4.000000,4.000000,4.000000,,,,,,,,,,,,,,,,,,,,,,,,,
1577998043.665480,1.000000,0.000000,4203.077148,4354.871582,4166.153809,4189.743652,4195.384766,450.000000,4.000000,,,,0.000000,4.000000,4.000000,4.000000,4.000000,4.000000,,,,,,,,,,,,,,,,,,,,,,,,,
1577998043.673178,2.000000,0.000000,4191.794922,4303.589844,4162.563965,4180.512695,4182.051270,16208.000000,4.000000,,,,0.000000,4.000000,4.000000,4.000000,4.000000,4.000000,,,,,,,,,,,,,,,,,,,,,,,,,
1577998043.680975,3.000000,0.000000,4203.589844,4286.153809,4165.128418,4188.717773,4197.436035,450.000000,4.000000,,,,0.000000,4.000000,4.000000,4.000000,4.000000,4.000000,,,,,,,,,,,,,,,,,,,,,,,,,
1577998043.688773,4.000000,0.000000,4219.487305,4322.563965,4176.922852,4206.666504,4211.794922,16202.000000,4.000000,,,,0.000000,4.000000,4.000000,4.000000,4.000000,4.000000,,,,,,,,,,,,,,,,,,,,,,,,,
1577998043.696470,5.000000,0.000000,4199.487305,4324.615234,4172.820313,4193.846191,4204.102539,450.000000,4.000000,,,,0.000000,4.000000,4.000000,4.000000,4.000000,4.000000,,,,,,,,,,,,,,,,,,,,,,,,,
1577998043.704167,6.000000,0.000000,4184.615234,4293.333496,4163.077148,4174.871582,4206.666504,16141.000000,4.000000,,,,0.000000,4.000000,4.000000,4.000000,4.000000,4.000000,,,,,,,,,,,,,,,,,,,,,,,,,
1577998043.711965,7.000000,0.000000,4192.820313,4288.717773,4161.025879,4175.897461,4207.179688,450.000000,4.000000,,,,0.000000,4.000000,4.000000,4.000000,4.000000,4.000000,,,,,,,,,,,,,,,,,,,,,,,,,
1577998043.719662,8.000000,0.000000,4191.282227,4317.436035,4154.871582,4180.512695,4201.025879,450.000000,4.000000,,,,0.000000,4.000000,4.000000,4.000000,4.000000,4.000000,10.008076,1.982116,0.871094,1.547640,1.069344,99.136734,45.902054,17.531057,9.773451,4.483562,5.475715,1.552280,1.615026,0.656357,0.769551,3.191047,1.855910,1.233122,1.128512,1.347645,8.937855,1.390007,1.374288,2.221480,1.303026
1577998043.727460,9.000000,0.000000,4180.512695,4367.692383,4145.641113,4178.974121,4206.153809,16172.000000,4.000000,,,,0.000000,4.000000,4.000000,4.000000,4.000000,4.000000,,,,,,,,,,,,,,,,,,,,,,,,,
1577998043.735158,10.000000,0.000000,4174.871582,4413.333496,4150.256348,4175.384766,4202.563965,450.000000,4.000000,,,,0.000000,4.000000,4.000000,4.000000,4.000000,4.000000,,,,,,,,,,,,,,,,,,,,,,,,,
1577998043.742856,11.000000,0.000000,4172.820313,4416.922852,4159.487305,4173.846191,4182.563965,16197.000000,4.000000,,,,0.000000,4.000000,4.000000,4.000000,4.000000,4.000000,,,,,,,,,,,,,,,,,,,,,,,,,
1577998043.750654,12.000000,0.000000,4174.358887,4390.769043,4161.025879,4176.922852,4177.436035,450.000000,4.000000,,,,0.000000,4.000000,4.000000,4.000000,4.000000,4.000000,,,,,,,,,,,,,,,,,,,,,,,,,
1577998043.758452,13.000000,0.000000,4181.025879,4356.922852,4170.256348,4186.153809,4196.410156,450.000000,4.000000,,,,0.000000,4.000000,4.000000,4.000000,4.000000,4.000000,,,,,,,,,,,,,,,,,,,,,,,,,
1577998043.766150,14.000000,0.000000,4181.025879,4316.410156,4176.922852,4193.333496,4208.205078,450.000000,4.000000,,,,0.000000,4.000000,4.000000,4.000000,4.000000,4.000000,,,,,,,,,,,,,,,,,,,,,,,,,
1577998043.773947,15.000000,0.000000,4164.102539,4258.974121,4155.384766,4179.487305,4196.922852,16197.000000,4.000000,,,,0.000000,4.000000,4.000000,4.000000,4.000000,4.000000,,,,,,,,,,,,,,,,,,,,,,,,,
1577998043.781644,16.000000,0.000000,4160.000000,4210.769043,4139.487305,4164.102539,4192.820313,0.000000,4.000000,,,,0.000000,4.000000,4.000000,4.000000,4.000000,4.000000,,,,,,,,,,,,,,,,,,,,,,,,,
1577998043.789441,17.000000,0.000000,4174.871582,4207.179688,4147.692383,4168.205078,4203.077148,0.000000,4.000000,,,,0.000000,4.000000,4.000000,4.000000,4.000000,4.000000,,,,,,,,,,,,,,,,,,,,,,,,,
1577998043.797139,18.000000,0.000000,4175.897461,4220.512695,4149.743652,4175.384766,4204.102539,0.000000,4.000000,,,,0.000000,4.000000,4.000000,4.000000,4.000000,4.000000,,,,,,,,,,,,,,,,,,,,,,,,,
1577998043.804936,19.000000,0.000000,4172.307617,4236.410156,4139.487305,4174.358887,4197.436035,0.000000,4.000000,,,,0.000000,4.000000,4.000000,4.000000,4.000000,4.000000,,,,,,,,,,,,,,,,,,,,,,,,,
1577998043.812633,20.000000,0.000000,4177.436035,4261.538574,4143.589844,4175.384766,4196.410156,0.000000,4.000000,,,,0.000000,4.000000,4.000000,4.000000,4.000000,4.000000,,,,,,,,,,,,,,,,,,,,,,,,,
1577998043.820430,21.000000,0.000000,4169.230957,4263.077148,4153.846191,4176.922852,4194.871582,0.000000,4.000000,,,,0.000000,4.000000,4.000000,4.000000,4.000000,4.000000,,,,,,,,,,,,,,,,,,,,,,,,,
1577998043.828127,22.000000,0.000000,4154.871582,4233.333496,4145.641113,4166.153809,4183.589844,0.000000,4.000000,,,,0.000000,4.000000,4.000000,4.000000,4.000000,4.000000,,,,,,,,,,,,,,,,,,,,,,,,,
1577998043.835924,23.000000,0.000000,4168.717773,4212.307617,4146.666504,4169.230957,4184.102539,0.000000,4.000000,,,,0.000000,4.000000,4.000000,4.000000,4.000000,4.000000,,,,,,,,,,,,,,,,,,,,,,,,,
1577998043.843621,24.000000,0.000000,4195.897461,4209.230957,4166.153809,4191.794922,4203.077148,0.000000,4.000000,,,,0.000000,4.000000,4.000000,4.000000,4.000000,4.000000,17.939472,2.791224,1.351857,1.550889,1.182604,112.052872,47.998928,17.509726,9.037313,4.541141,4.791770,1.522515,1.621237,0.605625,0.712853,3.129213,1.879211,1.278997,1.114503,1.222784,13.144639,1.766691,1.578115,2.179357,1.298048
1577998043.851418,25.000000,0.000000,4182.051270,4196.410156,4156.410156,4176.922852,4195.897461,0.000000,4.000000,,,,0.000000,4.000000,4.000000,4.000000,4.000000,4.000000,,,,,,,,,,,,,,,,,,,,,,,,,
1577998043.859115,26.000000,0.000000,4156.922852,4178.974121,4140.512695,4149.743652,4175.897461,0.000000,4.000000,,,,0.000000,4.000000,4.000000,4.000000,4.000000,4.000000,,,,,,,,,,,,,,,,,,,,,,,,,
1577998043.866813,27.000000,0.000000,4176.410156,4173.846191,4154.358887,4173.846191,4194.358887,0.000000,4.000000,,,,0.000000,4.000000,4.000000,4.000000,4.000000,4.000000,,,,,,,,,,,,,,,,,,,,,,,,,
1577998043.874611,28.000000,0.000000,4202.051270,4172.307617,4157.948730,4201.025879,4220.512695,0.000000,4.000000,,,,0.000000,4.000000,4.000000,4.000000,4.000000,4.000000,,,,,,,,,,,,,,,,,,,,,,,,,
1577998043.882309,29.000000,0.000000,4190.769043,4172.307617,4144.102539,4189.743652,4213.333496,0.000000,4.000000,,,,0.000000,4.000000,4.000000,4.000000,4.000000,4.000000,,,,,,,,,,,,,,,,,,,,,,,,,
1577998043.890106,30.000000,0.000000,4175.384766,4182.051270,4144.615234,4176.922852,4197.948730,0.000000,4.000000,,,,0.000000,4.000000,4.000000,4.000000,4.000000,4.000000,,,,,,,,,,,,,,,,,,,,,,,,,
1577998043.897804,31.000000,0.000000,4176.922852,4207.692383,4153.333496,4175.897461,4190.769043,0.000000,4.000000,,,,0.000000,4.000000,4.000000,4.000000,4.000000,4.000000,,,,,,,,,,,,,,,,,,,,,,,,,
1577998043.905602,32.000000,0.000000,4178.974121,4227.692383,4156.922852,4173.333496,4186.153809,0.000000,4.000000,,,,0.000000,4.000000,4.000000,4.000000,4.000000,4.000000,,,,,,,,,,,,,,,,,,,,,,,,,
1577998043.913300,33.000000,0.000000,4190.769043,4209.743652,4169.743652,4181.538574,4196.922852,0.000000,4.000000,,,,0.000000,4.000000,4.000000,4.000000,4.000000,4.000000,,,,,,,,,,,,,,,,,,,,,,,,,
1577998043.921097,34.000000,0.000000,4210.256348,4186.666504,4183.589844,4198.974121,4217.436035,0.000000,4.000000,,,,0.000000,4.000000,4.000000,4.000000,4.000000,4.000000,,,,,,,,,,,,,,,,,,,,,,,,,
1577998043.928795,35.000000,0.000000,4204.102539,4176.410156,4178.461426,4192.307617,4209.230957,0.000000,4.000000,,,,0.000000,4.000000,4.000000,4.000000,4.000000,4.000000,,,,,,,,,,,,,,,,,,,,,,,,,
1577998043.936592,36.000000,0.000000,4181.538574,4154.871582,4168.717773,4173.333496,4192.820313,0.000000,4.000000,,,,0.000000,4.000000,4.000000,4.000000,4.000000,4.000000,,,,,,,,,,,,,,,,,,,,,,,,,
1577998043.944290,37.000000,0.000000,4178.974121,4134.871582,4159.487305,4174.358887,4195.897461,0.000000,4.000000,,,,0.000000,4.000000,4.000000,4.000000,4.000000,4.000000,,,,,,,,,,,,,,,,,,,,,,,,,
1577998043.952087,38.000000,0.000000,4186.666504,4128.205078,4150.256348,4180.000000,4197.436035,0.000000,4.000000,,,,0.000000,4.000000,4.000000,4.000000,4.000000,4.000000,,,,,,,,,,,,,,,,,,,,,,,,,
1577998043.959785,39.000000,0.000000,4184.615234,4130.769043,4149.230957,4170.256348,4187.692383,0.000000,4.000000,,,,0.000000,4.000000,4.000000,4.000000,4.000000,4.000000,,,,,,,,,,,,,,,,,,,,,,,,,
1577998043.967582,40.000000,0.000000,4175.897461,4148.205078,4151.794922,4165.128418,4175.384766,0.000000,4.000000,,,,0.000000,4.000000,4.000000,4.000000,4.000000,4.000000,31.337912,4.222182,2.048089,1.476528,1.253033,120.674629,52.978760,17.767197,7.974446,4.417465,3.804772,1.457034,1.517041,0.554147,0.649307,2.885007,1.876752,1.325342,1.064054,1.099632,19.925396,2.433340,1.776810,1.968950,1.241738
1577998043.975279,41.000000,0.000000,4173.333496,4178.974121,4158.461426,4177.436035,4176.922852,0.000000,4.000000,,,,0.000000,4.000000,4.000000,4.000000,4.000000,4.000000,,,,,,,,,,,,,,,,,,,,,,,,,
1577998043.982977,42.000000,0.000000,4173.333496,4194.358887,4158.974121,4177.948730,4183.077148,0.000000,4.000000,,,,0.000000,4.000000,4.000000,4.000000,4.000000,4.000000,,,,,,,,,,,,,,,,,,,,,,,,,
1577998043.990775,43.000000,0.000000,4178.974121,4184.102539,4156.410156,4171.794922,4186.666504,0.000000,4.000000,,,,0.000000,4.000000,4.000000,4.000000,4.000000,4.000000,,,,,,,,,,,,,,,,,,,,,,,,,
1577998043.998573,44.000000,0.000000,4198.461426,4152.820313,4170.256348,4183.589844,4197.948730,0.000000,4.000000,,,,0.000000,4.000000,4.000000,4.000000,4.000000,4.000000,,,,,,,,,,,,,,,,,,,,,,,,,
1577998044.006270,45.000000,0.000000,4200.000000,4097.436035,4176.922852,4182.051270,4194.358887,0.000000,4.000000,,,,0.000000,4.000000,4.000000,4.000000,4.000000,4.000000,,,,,,,,,,,,,,,,,,,,,,,,,
1577998044.014067,46.000000,0.000000,4167.692383,4065.128174,4160.000000,4151.794922,4168.717773,0.000000,4.000000,,,,0.000000,4.000000,4.000000,4.000000,4.000000,4.000000,,,,,,,,,,,,,,,,,,,,,,,,,
1577998044.021764,47.000000,0.000000,4161.538574,4084.615479,4155.384766,4146.153809,4168.205078,0.000000,4.000000,,,,0.000000,4.000000,4.000000,4.000000,4.000000,4.000000,,,,,,,,,,,,,,,,,,,,,,,,,
1577998044.029561,48.000000,0.000000,4177.948730,4095.384521,4156.922852,4163.589844,4183.077148,0.000000,4.000000,,,,0.000000,4.000000,4.000000,4.000000,4.000000,4.000000,,,,,,,,,,,,,,,,,,,,,,,,,
1577998044.037258,49.000000,0.000000,4176.410156,4093.333252,4148.717773,4165.641113,4183.589844,0.000000,4.000000,,,,0.000000,4.000000,4.000000,4.000000,4.000000,4.000000,,,,,,,,,,,,,,,,,,,,,,,,,
1577998044.045055,50.000000,0.000000,4186.666504,4115.897461,4157.436035,4177.948730,4194.871582,0.000000,4.000000,,,,0.000000,4.000000,4.000000,4.000000,4.000000,4.000000,,,,,,,,,,,,,,,,,,,,,,,,,
1577998044.052753,51.000000,0.000000,4204.615234,4105.641113,4172.820313,4197.948730,4213.333496,0.000000,4.000000,,,,0.000000,4.000000,4.000000,4.000000,4.000000,4.000000,,,,,,,,,,,,,,,,,,,,,,,,,
1577998044.060450,52.000000,0.000000,4186.153809,4064.102539,4158.461426,4184.102539,4205.128418,0.000000,4.000000,,,,0.000000,4.000000,4.000000,4.000000,4.000000,4.000000,,,,,,,,,,,,,,,,,,,,,,,,,
1577998044.068248,53.000000,0.000000,4164.102539,4083.076904,4134.871582,4156.410156,4182.563965,0.000000,4.000000,,,,0.000000,4.000000,4.000000,4.000000,4.000000,4.000000,,,,,,,,,,,,,,,,,,,,,,,,,
1577998044.075946,54.000000,0.000000,4183.077148,4146.153809,4150.256348,4160.512695,4180.512695,0.000000,4.000000,,,,0.000000,4.000000,4.000000,4.000000,4.000000,4.000000,,,,,,,,,,,,,,,,,,,,,,,,,
1577998044.083644,55.000000,0.000000,4203.589844,4168.717773,4170.256348,4182.563965,4188.205078,0.000000,4.000000,,,,0.000000,4.000000,4.000000,4.000000,4.000000,4.000000,,,,,,,,,,,,,,,,,,,,,,,,,
1577998044.091443,56.000000,0.000000,4182.051270,4138.461426,4147.692383,4168.717773,4178.461426,0.000000,4.000000,,,,0.000000,4.000000,4.000000,4.000000,4.000000,4.000000,48.391308,6.099408,2.833573,1.362941,1.248835,120.387360,60.379459,18.112778,6.671914,4.149797,2.789434,1.417366,1.363683,0.511090,0.589675,2.507927,1.964313,1.402898,0.991329,0.991313,28.257046,3.292770,1.953971,1.660160,1.142044
1577998044.099141,57.000000,0.000000,4165.128418,4105.641113,4131.282227,4141.538574,4172.307617,0.000000,4.000000,,,,0.000000,4.000000,4.000000,4.000000,4.000000,4.000000,,,,,,,,,,,,,,,,,,,,,,,,,
1577998044.106939,58.000000,0.000000,4178.461426,4088.718018,4149.743652,4143.589844,4178.461426,0.000000,4.000000,,,,0.000000,4.000000,4.000000,4.000000,4.000000,4.000000,,,,,,,,,,,,,,,,,,,,,,,,,
1577998044.114738,59.000000,0.000000,4187.692383,4081.025635,4167.692383,4156.922852,4184.102539,0.000000,4.000000,,,,0.000000,4.000000,4.000000,4.000000,4.000000,4.000000,,,,,,,,,,,,,,,,,,,,,,,,,
1577998044.122435,60.000000,0.000000,4182.563965,4082.564209,4166.153809,4154.358887,4183.077148,0.000000,4.000000,,,,0.000000,4.000000,4.000000,4.000000,4.000000,4.000000,,,,,,,,,,,,,,,,,,,,,,,,,
1577998044.130133,61.000000,0.000000,4186.666504,4147.179688,4165.641113,4145.128418,4179.487305,0.000000,4.000000,,,,0.000000,4.000000,4.000000,4.000000,4.000000,4.000000,,,,,,,,,,,,,,,,,,,,,,,,,
1577998044.137932,62.000000,0.000000,4188.205078,4245.128418,4171.794922,4144.102539,4175.897461,0.000000,4.000000,,,,0.000000,4.000000,4.000000,4.000000,4.000000,4.000000,,,,,,,,,,,,,,,,,,,,,,,,,
1577998044.145630,63.000000,0.000000,4169.743652,4276.410156,4158.974121,4137.948730,4170.256348,0.000000,4.000000,,,,0.000000,4.000000,4.000000,4.000000,4.000000,4.000000,,,,,,,,,,,,,,,,,,,,,,,,,
1577998044.153428,64.000000,0.000000,4178.461426,4292.307617,4152.307617,4142.563965,4178.974121,450.000000,4.000000,,,,0.000000,4.000000,4.000000,4.000000,4.000000,4.000000,,,,,,,,,,,,,,,,,,,,,,,,,
1577998044.161126,65.000000,0.000000,4216.922852,4372.307617,4169.230957,4166.153809,4198.461426,450.000000,4.000000,,,,0.000000,4.000000,4.000000,4.000000,4.000000,4.000000,,,,,,,,,,,,,,,,,,,,,,,,,
1577998044.168925,66.000000,0.000000,4216.410156,4435.897461,4167.179688,4161.025879,4195.897461,16216.000000,4.000000,,,,0.000000,4.000000,4.000000,4.000000,4.000000,4.000000,,,,,,,,,,,,,,,,,,,,,,,,,
1577998044.176623,67.000000,0.000000,4188.717773,4443.589844,4145.128418,4134.871582,4181.538574,450.000000,4.000000,,,,0.000000,4.000000,4.000000,4.000000,4.000000,4.000000,,,,,,,,,,,,,,,,,,,,,,,,,
1577998044.184421,68.000000,0.000000,4195.384766,4505.128418,4142.051270,4143.589844,4189.230957,16210.000000,4.000000,,,,0.000000,4.000000,4.000000,4.000000,4.000000,4.000000,,,,,,,,,,,,,,,,,,,,,,,,,
1577998044.192119,69.000000,0.000000,4215.897461,4601.538574,4158.974121,4172.307617,4205.641113,450.000000,4.000000,,,,0.000000,4.000000,4.000000,4.000000,4.000000,4.000000,,,,,,,,,,,,,,,,,,,,,,,,,
1577998044.199917,70.000000,0.000000,4210.769043,4577.436035,4161.025879,4165.641113,4198.461426,16145.000000,4.000000,,,,0.000000,4.000000,4.000000,4.000000,4.000000,4.000000,,,,,,,,,,,,,,,,,,,,,,,,,
1577998044.207615,71.000000,0.000000,4198.974121,4461.025879,4147.179688,4143.589844,4184.102539,450.000000,4.000000,,,,0.000000,4.000000,4.000000,4.000000,4.000000,4.000000,,,,,,,,,,,,,,,,,,,,,,,,,
1577998044.215413,72.000000,0.000000,4204.615234,4438.461426,4145.128418,4151.794922,4192.307617,450.000000,4.000000,,,,0.000000,4.000000,4.000000,4.000000,4.000000,4.000000,64.707733,7.927629,3.500274,1.258559,1.168818,109.653931,69.437599,18.873159,5.439249,3.792432,1.976346,1.445762,1.254501,0.482817,0.537860,2.074485,2.181509,1.519046,0.925073,0.905526,35.874012,4.131127,2.074310,1.351615,1.022329
1577998044.223111,73.000000,0.000000,4219.487305,4535.897461,4148.205078,4161.025879,4207.692383,16180.000000,4.000000,,,,0.000000,4.000000,4.000000,4.000000,4.000000,4.000000,,,,,,,,,,,,,,,,,,,,,,,,,
1577998044.230909,74.000000,0.000000,4211.794922,4607.179688,4143.077148,4137.948730,4200.000000,450.000000,4.000000,,,,0.000000,4.000000,4.000000,4.000000,4.000000,4.000000,,,,,,,,,,,,,,,,,,,,,,,,,
1577998044.238607,75.000000,0.000000,4196.922852,4622.563965,4145.641113,4126.666504,4190.769043,16214.000000,4.000000,,,,0.000000,4.000000,4.000000,4.000000,4.000000,4.000000,,,,,,,,,,,,,,,,,,,,,,,,,
1577998044.246405,76.000000,0.000000,4201.025879,4612.820313,4150.256348,4143.589844,4196.922852,450.000000,4.000000,,,,0.000000,4.000000,4.000000,4.000000,4.000000,4.000000,,,,,,,,,,,,,,,,,,,,,,,,,
1577998044.254103,77.000000,0.000000,4200.512695,4560.000000,4137.948730,4143.589844,4194.871582,450.000000,4.000000,,,,0.000000,4.000000,4.000000,4.000000,4.000000,4.000000,,,,,,,,,,,,,,,,,,,,,,,,,
1577998044.261900,78.000000,0.000000,4194.871582,4521.025879,4137.436035,4139.487305,4185.128418,450.000000,4.000000,,,,0.000000,4.000000,4.000000,4.000000,4.000000,4.000000,,,,,,,,,,,,,,,,,,,,,,,,,
1577998044.269598,79.000000,0.000000,4202.563965,4526.153809,4156.922852,4157.948730,4187.692383,16214.000000,4.000000,,,,0.000000,4.000000,4.000000,4.000000,4.000000,4.000000,,,,,,,,,,,,,,,,,,,,,,,,,
1577998044.277396,80.000000,0.000000,4201.025879,4502.051270,4157.436035,4158.974121,4192.820313,450.000000,4.000000,,,,0.000000,4.000000,4.000000,4.000000,4.000000,4.000000,,,,,,,,,,,,,,,,,,,,,,,,,
1577998044.285093,81.000000,0.000000,4184.102539,4466.666504,4139.487305,4137.436035,4178.461426,450.000000,4.000000,,,,0.000000,4.000000,4.000000,4.000000,4.000000,4.000000,,,,,,,,,,,,,,,,,,,,,,,,,
1577998044.292792,82.000000,0.000000,4193.333496,4487.692383,4151.794922,4152.820313,4174.871582,450.000000,4.000000,,,,0.000000,4.000000,4.000000,4.000000,4.000000,4.000000,,,,,,,,,,,,,,,,,,,,,,,,,
1577998044.300590,83.000000,0.000000,4217.948730,4543.589844,4176.922852,4191.282227,4198.974121,16214.000000,4.000000,,,,0.000000,4.000000,4.000000,4.000000,4.000000,4.000000,,,,,,,,,,,,,,,,,,,,,,,,,
1577998044.308289,84.000000,0.000000,4208.205078,4546.666504,4166.666504,4179.487305,4203.077148,450.000000,4.000000,,,,0.000000,4.000000,4.000000,4.000000,4.000000,4.000000,,,,,,,,,,,,,,,,,,,,,,,,,
1577998044.316087,85.000000,0.000000,4186.666504,4496.922852,4156.410156,4149.743652,4186.666504,450.000000,4.000000,,,,0.000000,4.000000,4.000000,4.000000,4.000000,4.000000,,,,,,,,,,,,,,,,,,,,,,,,,
1577998044.323786,86.000000,0.000000,4187.179688,4477.436035,4162.051270,4158.461426,4184.102539,450.000000,4.000000,,,,0.000000,4.000000,4.000000,4.000000,4.000000,4.000000,,,,,,,,,,,,,,,,,,,,,,,,,
1577998044.331584,87.000000,0.000000,4191.794922,4492.820313,4156.922852,4164.102539,4186.666504,16214.000000,4.000000,,,,0.000000,4.000000,4.000000,4.000000,4.000000,4.000000,,,,,,,,,,,,,,,,,,,,,,,,,
1577998044.339282,88.000000,0.000000,4185.641113,4486.666504,4146.153809,4143.589844,4176.922852,450.000000,4.000000,,,,0.000000,4.000000,4.000000,4.000000,4.000000,4.000000,75.019897,9.104506,3.850280,1.212225,1.045354,94.178139,78.268311,20.406197,4.662910,3.404729,1.479045,1.522611,1.258834,0.471954,0.496144,1.703683,2.474020,1.633036,0.895655,0.849127,40.072708,4.714819,2.097928,1.125813,0.908341
1577998044.347080,89.000000,0.000000,4183.077148,4468.717773,4141.025879,4138.461426,4168.717773,450.000000,4.000000,,,,0.000000,4.000000,4.000000,4.000000,4.000000,4.000000,,,,,,,,,,,,,,,,,,,,,,,,,
1577998044.354778,90.000000,0.000000,4188.205078,4510.256348,4145.641113,4155.897461,4177.948730,450.000000,4.000000,,,,0.000000,4.000000,4.000000,4.000000,4.000000,4.000000,,,,,,,,,,,,,,,,,,,,,,,,,
1577998044.362576,91.000000,0.000000,4188.717773,4558.461426,4147.692383,4152.820313,4183.077148,16214.000000,4.000000,,,,0.000000,4.000000,4.000000,4.000000,4.000000,4.000000,,,,,,,,,,,,,,,,,,,,,,,,,
1577998044.370274,92.000000,0.000000,4197.948730,4530.769043,4153.333496,4144.615234,4188.717773,450.000000,4.000000,,,,0.000000,4.000000,4.000000,4.000000,4.000000,4.000000,,,,,,,,,,,,,,,,,,,,,,,,,
1577998044.378072,93.000000,0.000000,4219.487305,4460.512695,4173.333496,4167.179688,4207.692383,450.000000,4.000000,,,,0.000000,4.000000,4.000000,4.000000,4.000000,4.000000,,,,,,,,,,,,,,,,,,,,,,,,,
1577998044.385770,94.000000,0.000000,4209.743652,4426.153809,4162.051270,4166.666504,4202.563965,450.000000,4.000000,,,,0.000000,4.000000,4.000000,4.000000,4.000000,4.000000,,,,,,,,,,,,,,,,,,,,,,,,,
1577998044.393568,95.000000,0.000000,4175.384766,4480.512695,4126.153809,4130.256348,4176.410156,16214.000000,4.000000,,,,0.000000,4.000000,4.000000,4.000000,4.000000,4.000000,,,,,,,,,,,,,,,,,,,,,,,,,
1577998044.401266,96.000000,0.000000,4174.358887,4524.615234,4125.641113,4127.692383,4176.410156,450.000000,4.000000,,,,0.000000,4.000000,4.000000,4.000000,4.000000,4.000000,,,,,,,,,,,,,,,,,,,,,,,,,
1577998044.408965,97.000000,0.000000,4190.769043,4494.358887,4139.487305,4142.051270,4188.717773,450.000000,4.000000,,,,0.000000,4.000000,4.000000,4.000000,4.000000,4.000000,,,,,,,,,,,,,,,,,,,,,,,,,
1577998044.416764,98.000000,0.000000,4188.717773,4484.102539,4138.974121,4136.410156,4189.230957,450.000000,4.000000,,,,0.000000,4.000000,4.000000,4.000000,4.000000,4.000000,,,,,,,,,,,,,,,,,,,,,,,,,
1577998044.424563,99.000000,0.000000,4187.179688,4531.794922,4142.051270,4142.051270,4190.769043,16214.000000,4.000000,,,,0.000000,4.000000,4.000000,4.000000,4.000000,4.000000,,,,,,,,,,,,,,,,,,,,,,,,,
1577998044.432260,100.000000,0.000000,4188.717773,4579.487305,4150.256348,4156.922852,4190.256348,450.000000,4.000000,,,,0.000000,4.000000,4.000000,4.000000,4.000000,4.000000,,,,,,,,,,,,,,,,,,,,,,,,,
1577998044.439959,101.000000,0.000000,4188.205078,4614.871582,4154.871582,4153.333496,4174.358887,450.000000,4.000000,,,,0.000000,4.000000,4.000000,4.000000,4.000000,4.000000,,,,,,,,,,,,,,,,,,,,,,,,,
1577998044.447758,102.000000,0.000000,4191.282227,4625.128418,4160.512695,4147.179688,4166.153809,450.000000,4.000000,,,,0.000000,4.000000,4.000000,4.000000,4.000000,4.000000,,,,,,,,,,,,,,,,,,,,,,,,,
1577998044.455456,103.000000,0.000000,4205.641113,4589.230957,4165.128418,4155.384766,4179.487305,16214.000000,4.000000,,,,0.000000,4.000000,4.000000,4.000000,4.000000,4.000000,,,,,,,,,,,,,,,,,,,,,,,,,
1577998044.463255,104.000000,0.000000,4213.333496,4587.692383,4150.256348,4153.846191,4178.461426,450.000000,4.000000,,,,0.000000,4.000000,4.000000,4.000000,4.000000,4.000000,75.711426,9.148553,3.764051,1.252762,0.935984,81.840225,84.437607,22.639406,4.715388,3.074669,1.277842,1.599832,1.388812,0.481851,0.473682,1.462216,2.726218,1.694466,0.925426,0.834926,39.347443,4.855906,1.990619,1.022890,0.821235
1577998044.470953,105.000000,0.000000,4197.436035,4645.641113,4131.282227,4137.436035,4161.538574,450.000000,4.000000,,,,0.000000,4.000000,4.000000,4.000000,4.000000,4.000000,,,,,,,,,,,,,,,,,,,,,,,,,
1577998044.478752,106.000000,0.000000,4192.820313,4704.615234,4136.922852,4140.512695,4174.871582,450.000000,4.000000,,,,0.000000,4.000000,4.000000,4.000000,4.000000,4.000000,,,,,,,,,,,,,,,,,,,,,,,,,
1577998044.486450,107.000000,0.000000,4198.461426,4701.538574,4144.615234,4146.153809,4191.794922,16214.000000,4.000000,,,,0.000000,4.000000,4.000000,4.000000,4.000000,4.000000,,,,,,,,,,,,,,,,,,,,,,,,,
1577998044.494249,108.000000,0.000000,4191.794922,4622.051270,4140.000000,4132.820313,4184.102539,450.000000,4.000000,,,,0.000000,4.000000,4.000000,4.000000,4.000000,4.000000,,,,,,,,,,,,,,,,,,,,,,,,,
1577998044.501947,109.000000,0.000000,4183.589844,4557.948730,4137.948730,4128.717773,4181.538574,450.000000,4.000000,,,,0.000000,4.000000,4.000000,4.000000,4.000000,4.000000,,,,,,,,,,,,,,,,,,,,,,,,,
1577998044.509746,110.000000,0.000000,4190.256348,4556.410156,4151.794922,4135.384766,4191.282227,450.000000,4.000000,,,,0.000000,4.000000,4.000000,4.000000,4.000000,4.000000,,,,,,,,,,,,,,,,,,,,,,,,,
1577998044.517544,111.000000,0.000000,4199.487305,4546.153809,4163.077148,4133.333496,4193.846191,16214.000000,4.000000,,,,0.000000,4.000000,4.000000,4.000000,4.000000,4.000000,,,,,,,,,,,,,,,,,,,,,,,,,
1577998044.525242,112.000000,0.000000,4190.769043,4511.282227,4148.717773,4126.153809,4183.589844,450.000000,4.000000,,,,0.000000,4.000000,4.000000,4.000000,4.000000,4.000000,,,,,,,,,,,,,,,,,,,,,,,,,
1577998044.532940,113.000000,0.000000,4182.563965,4521.025879,4143.589844,4126.153809,4178.974121,450.000000,4.000000,,,,0.000000,4.000000,4.000000,4.000000,4.000000,4.000000,,,,,,,,,,,,,,,,,,,,,,,,,
1577998044.540738,114.000000,0.000000,4193.333496,4560.512695,4153.846191,4134.358887,4188.205078,450.000000,4.000000,,,,0.000000,4.000000,4.000000,4.000000,4.000000,4.000000,,,,,,,,,,,,,,,,,,,,,,,,,
1577998044.548436,115.000000,0.000000,4189.743652,4536.410156,4131.794922,4132.820313,4185.128418,16214.000000,4.000000,,,,0.000000,4.000000,4.000000,4.000000,4.000000,4.000000,,,,,,,,,,,,,,,,,,,,,,,,,
1577998044.556235,116.000000,0.000000,4175.384766,4458.974121,4111.282227,4129.230957,4177.436035,450.000000,4.000000,,,,0.000000,4.000000,4.000000,4.000000,4.000000,4.000000,,,,,,,,,,,,,,,,,,,,,,,,,
1577998044.563933,117.000000,0.000000,4195.897461,4413.846191,4135.897461,4150.769043,4193.333496,450.000000,4.000000,,,,0.000000,4.000000,4.000000,4.000000,4.000000,4.000000,,,,,,,,,,,,,,,,,,,,,,,,,
1577998044.571731,118.000000,0.000000,4218.461426,4405.641113,4161.538574,4162.563965,4208.205078,450.000000,4.000000,,,,0.000000,4.000000,4.000000,4.000000,4.000000,4.000000,,,,,,,,,,,,,,,,,,,,,,,,,
1577998044.579429,119.000000,0.000000,4200.000000,4376.410156,4154.871582,4137.436035,4191.794922,16214.000000,4.000000,,,,0.000000,4.000000,4.000000,4.000000,4.000000,4.000000,,,,,,,,,,,,,,,,,,,,,,,,,
1577998044.587127,120.000000,0.000000,4185.128418,4359.487305,4151.282227,4126.666504,4172.307617,450.000000,4.000000,,,,0.000000,4.000000,4.000000,4.000000,4.000000,4.000000,66.302811,7.966020,3.284554,1.364344,0.891892,79.668625,85.828468,25.123625,5.972999,2.933188,1.269540,1.601489,1.597276,0.508568,0.483747,1.380552,2.810511,1.678263,1.010918,0.876954,33.784000,4.507059,1.788762,1.027173,0.770697
1577998044.594926,121.000000,0.000000,4183.589844,4412.820313,4157.436035,4141.538574,4174.358887,450.000000,4.000000,,,,0.000000,4.000000,4.000000,4.000000,4.000000,4.000000,,,,,,,,,,,,,,,,,,,,,,,,,
1577998044.602625,122.000000,0.000000,4176.922852,4457.948730,4150.769043,4140.000000,4177.436035,450.000000,4.000000,,,,0.000000,4.000000,4.000000,4.000000,4.000000,4.000000,,,,,,,,,,,,,,,,,,,,,,,,,
1577998044.610424,123.000000,0.000000,4185.128418,4446.153809,4146.153809,4135.897461,4179.487305,16214.000000,4.000000,,,,0.000000,4.000000,4.000000,4.000000,4.000000,4.000000,,,,,,,,,,,,,,,,,,,,,,,,,
1577998044.618222,124.000000,0.000000,4198.461426,4469.230957,4151.282227,4146.666504,4189.743652,450.000000,4.000000,,,,0.000000,4.000000,4.000000,4.000000,4.000000,4.000000,,,,,,,,,,,,,,,,,,,,,,,,,
1577998044.625920,125.000000,0.000000,4191.282227,4526.666504,4142.051270,4136.410156,4181.538574,450.000000,4.000000,,,,0.000000,4.000000,4.000000,4.000000,4.000000,4.000000,,,,,,,,,,,,,,,,,,,,,,,,,
1577998044.633718,126.000000,0.000000,4191.282227,4582.051270,4131.794922,4124.102539,4171.282227,450.000000,4.000000,,,,0.000000,4.000000,4.000000,4.000000,4.000000,4.000000,,,,,,,,,,,,,,,,,,,,,,,,,
1577998044.641416,127.000000,0.000000,4204.102539,4661.025879,4140.512695,4145.641113,4186.153809,238.000000,4.000000,,,,0.000000,4.000000,4.000000,4.000000,4.000000,4.000000,,,,,,,,,,,,,,,,,,,,,,,,,
1577998044.649114,0.000000,0.000000,4209.743652,4716.410156,4149.230957,4162.563965,4197.948730,450.000000,4.000000,,,,0.000000,4.000000,4.000000,4.000000,4.000000,4.000000,,,,,,,,,,,,,,,,,,,,,,,,,
1577998044.656913,1.000000,0.000000,4211.794922,4717.436035,4150.769043,4153.846191,4195.384766,450.000000,4.000000,,,,0.000000,4.000000,4.000000,4.000000,4.000000,4.000000,,,,,,,,,,,,,,,,,,,,,,,,,
1577998044.664611,2.000000,0.000000,4212.820313,4727.179688,4152.820313,4140.000000,4196.410156,16216.000000,4.000000,,,,0.000000,4.000000,4.000000,4.000000,4.000000,4.000000,,,,,,,,,,,,,,,,,,,,,,,,,
1577998044.672410,3.000000,0.000000,4213.333496,4767.692383,4153.846191,4136.922852,4205.641113,450.000000,4.000000,,,,0.000000,4.000000,4.000000,4.000000,4.000000,4.000000,,,,,,,,,,,,,,,,,,,,,,,,,
1577998044.680208,4.000000,0.000000,4215.384766,4788.205078,4146.666504,4137.948730,4212.307617,16208.000000,4.000000,,,,0.000000,4.000000,4.000000,4.000000,4.000000,4.000000,,,,,,,,,,,,,,,,,,,,,,,,,
1577998044.687906,5.000000,0.000000,4216.922852,4780.000000,4144.102539,4136.410156,4211.282227,450.000000,4.000000,,,,0.000000,4.000000,4.000000,4.000000,4.000000,4.000000,,,,,,,,,,,,,,,,,,,,,,,,,
1577998044.695604,6.000000,0.000000,4225.128418,4754.871582,4156.922852,4144.102539,4213.846191,16139.000000,4.000000,,,,0.000000,4.000000,4.000000,4.000000,4.000000,4.000000,,,,,,,,,,,,,,,,,,,,,,,,,
1577998044.703402,7.000000,0.000000,4220.000000,4702.563965,4152.820313,4144.102539,4215.384766,450.000000,4.000000,,,,0.000000,4.000000,4.000000,4.000000,4.000000,4.000000,,,,,,,,,,,,,,,,,,,,,,,,,
1577998044.711100,8.000000,0.000000,4197.436035,4625.128418,4137.948730,4126.666504,4206.666504,450.000000,4.000000,,,,0.000000,4.000000,4.000000,4.000000,4.000000,4.000000,49.922119,5.970847,2.600240,1.485130,0.930662,92.277161,81.785667,27.385468,8.648179,3.096252,1.343302,1.505910,1.846292,0.537102,0.536600,1.429207,2.693349,1.620375,1.117236,0.979534,25.239552,3.788699,1.574507,1.078893,0.755157
1577998044.718899,9.000000,0.000000,4202.563965,4557.436035,4148.205078,4129.230957,4206.153809,16168.000000,4.000000,,,,0.000000,4.000000,4.000000,4.000000,4.000000,4.000000,,,,,,,,,,,,,,,,,,,,,,,,,
1577998044.726597,10.000000,0.000000,4211.794922,4522.051270,4160.000000,4144.615234,4215.384766,450.000000,4.000000,,,,0.000000,4.000000,4.000000,4.000000,4.000000,4.000000,,,,,,,,,,,,,,,,,,,,,,,,,
1577998044.734395,11.000000,0.000000,4207.692383,4510.256348,4166.666504,4148.205078,4222.563965,16210.000000,4.000000,,,,0.000000,4.000000,4.000000,4.000000,4.000000,4.000000,,,,,,,,,,,,,,,,,,,,,,,,,
1577998044.742093,12.000000,0.000000,4235.384766,4511.794922,4183.077148,4164.102539,4235.897461,450.000000,4.000000,,,,0.000000,4.000000,4.000000,4.000000,4.000000,4.000000,,,,,,,,,,,,,,,,,,,,,,,,,
1577998044.749891,13.000000,0.000000,4257.436035,4516.410156,4194.871582,4178.461426,4243.589844,450.000000,4.000000,,,,0.000000,4.000000,4.000000,4.000000,4.000000,4.000000,,,,,,,,,,,,,,,,,,,,,,,,,
1577998044.757589,14.000000,0.000000,4227.692383,4505.641113,4173.846191,4150.769043,4215.897461,450.000000,4.000000,,,,0.000000,4.000000,4.000000,4.000000,4.000000,4.000000,,,,,,,,,,,,,,,,,,,,,,,,,
1577998044.765388,15.000000,0.000000,4206.153809,4485.641113,4138.974121,4120.000000,4183.589844,16210.000000,4.000000,,,,0.000000,4.000000,4.000000,4.000000,4.000000,4.000000,,,,,,,,,,,,,,,,,,,,,,,,,
1577998044.773086,16.000000,0.000000,4221.025879,4500.512695,4138.461426,4127.179688,4193.333496,0.000000,4.000000,,,,0.000000,4.000000,4.000000,4.000000,4.000000,4.000000,,,,,,,,,,,,,,,,,,,,,,,,,
1577998044.780884,17.000000,0.000000,4225.641113,4585.641113,4156.410156,4137.436035,4207.692383,0.000000,4.000000,,,,0.000000,4.000000,4.000000,4.000000,4.000000,4.000000,,,,,,,,,,,,,,,,,,,,,,,,,
1577998044.788582,18.000000,0.000000,4231.794922,4642.563965,4164.615234,4146.666504,4205.128418,0.000000,4.000000,,,,0.000000,4.000000,4.000000,4.000000,4.000000,4.000000,,,,,,,,,,,,,,,,,,,,,,,,,
1577998044.796380,19.000000,0.000000,4252.820313,4578.461426,4170.256348,4164.615234,4215.384766,0.000000,4.000000,,,,0.000000,4.000000,4.000000,4.000000,4.000000,4.000000,,,,,,,,,,,,,,,,,,,,,,,,,
1577998044.804078,20.000000,0.000000,4235.384766,4535.384766,4162.051270,4147.692383,4208.717773,0.000000,4.000000,,,,0.000000,4.000000,4.000000,4.000000,4.000000,4.000000,,,,,,,,,,,,,,,,,,,,,,,,,
1577998044.811876,21.000000,0.000000,4200.512695,4562.563965,4152.820313,4117.948730,4181.025879,0.000000,4.000000,,,,0.000000,4.000000,4.000000,4.000000,4.000000,4.000000,,,,,,,,,,,,,,,,,,,,,,,,,
1577998044.819573,22.000000,0.000000,4211.282227,4494.358887,4166.153809,4133.333496,4183.077148,0.000000,4.000000,,,,0.000000,4.000000,4.000000,4.000000,4.000000,4.000000,,,,,,,,,,,,,,,,,,,,,,,,,
1577998044.827371,23.000000,0.000000,4228.717773,4371.282227,4171.794922,4144.102539,4190.769043,0.000000,4.000000,,,,0.000000,4.000000,4.000000,4.000000,4.000000,4.000000,,,,,,,,,,,,,,,,,,,,,,,,,
1577998044.835069,24.000000,0.000000,4227.179688,4378.461426,4159.487305,4131.794922,4187.692383,0.000000,4.000000,,,,0.000000,4.000000,4.000000,4.000000,4.000000,4.000000,31.744972,3.847136,1.956111,1.546405,1.028212,122.400810,73.436981,28.578815,12.560533,3.603509,1.431652,1.329225,2.135185,0.557043,0.629647,1.562470,2.443968,1.568663,1.193520,1.125748,16.160170,2.899616,1.428650,1.115070,0.764740
1577998044.842867,25.000000,0.000000,4239.487305,4471.282227,4165.641113,4145.128418,4194.358887,0.000000,4.000000,,,,0.000000,4.000000,4.000000,4.000000,4.000000,4.000000,,,,,,,,,,,,,,,,,,,,,,,,,
1577998044.850565,26.000000,0.000000,4239.487305,4534.871582,4178.461426,4156.922852,4191.282227,0.000000,4.000000,,,,0.000000,4.000000,4.000000,4.000000,4.000000,4.000000,,,,,,,,,,,,,,,,,,,,,,,,,
1577998044.858263,27.000000,0.000000,4207.179688,4574.358887,4168.205078,4135.384766,4174.871582,0.000000,4.000000,,,,0.000000,4.000000,4.000000,4.000000,4.000000,4.000000,,,,,,,,,,,,,,,,,,,,,,,,,
1577998044.866061,28.000000,0.000000,4196.922852,4609.230957,4155.897461,4125.641113,4176.922852,0.000000,4.000000,,,,0.000000,4.000000,4.000000,4.000000,4.000000,4.000000,,,,,,,,,,,,,,,,,,,,,,,,,
1577998044.873760,29.000000,0.000000,4221.025879,4659.487305,4162.563965,4138.461426,4194.358887,0.000000,4.000000,,,,0.000000,4.000000,4.000000,4.000000,4.000000,4.000000,,,,,,,,,,,,,,,,,,,,,,,,,
1577998044.881558,30.000000,0.000000,4231.282227,4691.282227,4172.820313,4146.666504,4207.179688,0.000000,4.000000,,,,0.000000,4.000000,4.000000,4.000000,4.000000,4.000000,,,,,,,,,,,,,,,,,,,,,,,,,
1577998044.889257,31.000000,0.000000,4244.615234,4683.077148,4183.589844,4160.512695,4224.615234,0.000000,4.000000,,,,0.000000,4.000000,4.000000,4.000000,4.000000,4.000000,,,,,,,,,,,,,,,,,,,,,,,,,
1577998044.897055,32.000000,0.000000,4281.025879,4700.512695,4192.307617,4169.230957,4240.000000,0.000000,4.000000,,,,0.000000,4.000000,4.000000,4.000000,4.000000,4.000000,,,,,,,,,,,,,,,,,,,,,,,,,
1577998044.904753,33.000000,0.000000,4279.487305,4738.974121,4180.000000,4147.692383,4230.769043,0.000000,4.000000,,,,0.000000,4.000000,4.000000,4.000000,4.000000,4.000000,,,,,,,,,,,,,,,,,,,,,,,,,
1577998044.912551,34.000000,0.000000,4246.666504,4705.128418,4170.769043,4130.769043,4225.128418,0.000000,4.000000,,,,0.000000,4.000000,4.000000,4.000000,4.000000,4.000000,,,,,,,,,,,,,,,,,,,,,,,,,
1577998044.920250,35.000000,0.000000,4249.230957,4624.615234,4178.974121,4138.461426,4232.820313,0.000000,4.000000,,,,0.000000,4.000000,4.000000,4.000000,4.000000,4.000000,,,,,,,,,,,,,,,,,,,,,,,,,
1577998044.928048,36.000000,0.000000,4263.077148,4627.179688,4175.897461,4134.358887,4232.820313,0.000000,4.000000,,,,0.000000,4.000000,4.000000,4.000000,4.000000,4.000000,,,,,,,,,,,,,,,,,,,,,,,,,
1577998044.935746,37.000000,0.000000,4268.205078,4702.563965,4170.769043,4131.282227,4241.025879,0.000000,4.000000,,,,0.000000,4.000000,4.000000,4.000000,4.000000,4.000000,,,,,,,,,,,,,,,,,,,,,,,,,
1577998044.943544,38.000000,0.000000,4289.743652,4735.384766,4180.000000,4154.358887,4271.282227,0.000000,4.000000,,,,0.000000,4.000000,4.000000,4.000000,4.000000,4.000000,,,,,,,,,,,,,,,,,,,,,,,,,
1577998044.951243,39.000000,0.000000,4297.948730,4709.230957,4191.282227,4170.256348,4293.846191,0.000000,4.000000,,,,0.000000,4.000000,4.000000,4.000000,4.000000,4.000000,,,,,,,,,,,,,,,,,,,,,,,,,
1577998044.959041,40.000000,0.000000,4277.436035,4669.743652,4186.153809,4159.487305,4296.410156,0.000000,4.000000,,,,0.000000,4.000000,4.000000,4.000000,4.000000,4.000000,16.718058,2.173848,1.511799,1.528045,1.132099,174.599503,63.111576,28.303032,17.123684,4.381130,1.519349,1.101858,2.483351,0.574028,0.740155,1.736356,2.147467,1.546334,1.219094,1.275638,8.991314,2.043828,1.385215,1.116292,0.781285
1577998044.966739,41.000000,0.000000,4281.025879,4619.487305,4176.410156,4146.153809,4302.563965,0.000000,4.000000,,,,0.000000,4.000000,4.000000,4.000000,4.000000,4.000000,,,,,,,,,,,,,,,,,,,,,,,,,
1577998044.974537,42.000000,0.000000,4304.102539,4562.563965,4183.589844,4152.820313,4313.333496,0.000000,4.000000,,,,0.000000,4.000000,4.000000,4.000000,4.000000,4.000000,,,,,,,,,,,,,,,,,,,,,,,,,
1577998044.982235,43.000000,0.000000,4303.589844,4510.256348,4193.846191,4161.025879,4310.256348,0.000000,4.000000,,,,0.000000,4.000000,4.000000,4.000000,4.000000,4.000000,,,,,,,,,,,,,,,,,,,,,,,,,
1577998044.990033,44.000000,0.000000,4297.436035,4452.307617,4201.025879,4163.589844,4311.794922,0.000000,4.000000,,,,0.000000,4.000000,4.000000,4.000000,4.000000,4.000000,,,,,,,,,,,,,,,,,,,,,,,,,
1577998044.997731,45.000000,0.000000,4301.025879,4426.153809,4203.077148,4170.769043,4323.077148,0.000000,4.000000,,,,0.000000,4.000000,4.000000,4.000000,4.000000,4.000000,,,,,,,,,,,,,,,,,,,,,,,,,
1577998045.005529,46.000000,0.000000,4283.077148,4431.282227,4184.102539,4157.948730,4310.769043,0.000000,4.000000,,,,0.000000,4.000000,4.000000,4.000000,4.000000,4.000000,,,,,,,,,,,,,,,,,,,,,,,,,
1577998045.013227,47.000000,0.000000,4264.102539,4414.871582,4168.717773,4142.051270,4295.384766,0.000000,4.000000,,,,0.000000,4.000000,4.000000,4.000000,4.000000,4.000000,,,,,,,,,,,,,,,,,,,,,,,,,
1577998045.020925,48.000000,0.000000,4275.384766,4376.922852,4166.153809,4142.051270,4301.538574,0.000000,4.000000,,,,0.000000,4.000000,4.000000,4.000000,4.000000,4.000000,,,,,,,,,,,,,,,,,,,,,,,,,
1577998045.028724,49.000000,0.000000,4303.077148,4341.025879,4167.179688,4140.000000,4315.897461,0.000000,4.000000,,,,0.000000,4.000000,4.000000,4.000000,4.000000,4.000000,,,,,,,,,,,,,,,,,,,,,,,,,
1577998045.036422,50.000000,0.000000,4347.692383,4326.153809,4180.512695,4150.256348,4347.179688,0.000000,4.000000,,,,0.000000,4.000000,4.000000,4.000000,4.000000,4.000000,,,,,,,,,,,,,,,,,,,,,,,,,
1577998045.044221,51.000000,0.000000,4404.615234,4327.179688,4189.230957,4165.128418,4390.256348,0.000000,4.000000,,,,0.000000,4.000000,4.000000,4.000000,4.000000,4.000000,,,,,,,,,,,,,,,,,,,,,,,,,
1577998045.051919,52.000000,0.000000,4453.333496,4330.769043,4174.358887,4155.384766,4416.410156,0.000000,4.000000,,,,0.000000,4.000000,4.000000,4.000000,4.000000,4.000000,,,,,,,,,,,,,,,,,,,,,,,,,
1577998045.059718,53.000000,0.000000,4497.436035,4306.153809,4167.692383,4141.538574,4438.974121,0.000000,4.000000,,,,0.000000,4.000000,4.000000,4.000000,4.000000,4.000000,,,,,,,,,,,,,,,,,,,,,,,,,
1577998045.067516,54.000000,0.000000,4543.077148,4258.974121,4180.512695,4149.743652,4473.333496,0.000000,4.000000,,,,0.000000,4.000000,4.000000,4.000000,4.000000,4.000000,,,,,,,,,,,,,,,,,,,,,,,,,
1577998045.075214,55.000000,0.000000,4575.384766,4235.384766,4179.487305,4161.538574,4493.846191,0.000000,4.000000,,,,0.000000,4.000000,4.000000,4.000000,4.000000,4.000000,,,,,,,,,,,,,,,,,,,,,,,,,
1577998045.083011,56.000000,0.000000,4584.102539,4203.077148,4165.641113,4164.102539,4496.922852,0.000000,4.000000,,,,0.000000,4.000000,4.000000,4.000000,4.000000,4.000000,7.198355,1.266629,1.278222,1.473719,1.191097,249.003540,55.066040,26.956038,21.397205,5.274239,1.579525,0.856224,2.886050,0.608397,0.834319,1.856724,1.897496,1.529468,1.218011,1.379717,4.762561,1.391437,1.407383,1.102494,0.786097
1577998045.090709,57.000000,0.000000,4590.769043,4177.948730,4180.000000,4169.230957,4505.128418,0.000000,4.000000,,,,0.000000,4.000000,4.000000,4.000000,4.000000,4.000000,,,,,,,,,,,,,,,,,,,,,,,,,
1577998045.098407,58.000000,0.000000,4589.743652,4164.102539,4201.025879,4170.256348,4495.897461,0.000000,4.000000,,,,0.000000,4.000000,4.000000,4.000000,4.000000,4.000000,,,,,,,,,,,,,,,,,,,,,,,,,
1577998045.106205,59.000000,0.000000,4559.487305,4121.538574,4194.358887,4165.128418,4463.077148,0.000000,4.000000,,,,0.000000,4.000000,4.000000,4.000000,4.000000,4.000000,,,,,,,,,,,,,,,,,,,,,,,,,
1577998045.113904,60.000000,0.000000,4531.282227,4103.077148,4192.820313,4167.692383,4448.205078,0.000000,4.000000,,,,0.000000,4.000000,4.000000,4.000000,4.000000,4.000000,,,,,,,,,,,,,,,,,,,,,,,,,
1577998045.121603,61.000000,0.000000,4524.615234,4145.128418,4209.230957,4181.025879,4442.051270,0.000000,4.000000,,,,0.000000,4.000000,4.000000,4.000000,4.000000,4.000000,,,,,,,,,,,,,,,,,,,,,,,,,
1577998045.129401,62.000000,0.000000,4497.948730,4151.282227,4212.307617,4179.487305,4411.794922,0.000000,4.000000,,,,0.000000,4.000000,4.000000,4.000000,4.000000,4.000000,,,,,,,,,,,,,,,,,,,,,,,,,
1577998045.137200,63.000000,0.000000,4437.948730,4070.769287,4190.769043,4151.282227,4376.410156,0.000000,4.000000,,,,0.000000,4.000000,4.000000,4.000000,4.000000,4.000000,,,,,,,,,,,,,,,,,,,,,,,,,
1577998045.144898,64.000000,0.000000,4390.256348,4026.153809,4171.282227,4132.820313,4358.974121,450.000000,4.000000,,,,0.000000,4.000000,4.000000,4.000000,4.000000,4.000000,,,,,,,,,,,,,,,,,,,,,,,,,
1577998045.152597,65.000000,0.000000,4378.461426,4063.589844,4174.871582,4152.820313,4353.333496,450.000000,4.000000,,,,0.000000,4.000000,4.000000,4.000000,4.000000,4.000000,,,,,,,,,,,,,,,,,,,,,,,,,
1577998045.160396,66.000000,0.000000,4370.769043,4076.410156,4185.128418,4177.436035,4351.282227,16208.000000,4.000000,,,,0.000000,4.000000,4.000000,4.000000,4.000000,4.000000,,,,,,,,,,,,,,,,,,,,,,,,,
1577998045.168195,67.000000,0.000000,4343.589844,4007.692383,4181.538574,4170.769043,4339.487305,450.000000,4.000000,,,,0.000000,4.000000,4.000000,4.000000,4.000000,4.000000,,,,,,,,,,,,,,,,,,,,,,,,,
1577998045.175893,68.000000,0.000000,4323.077148,3968.718018,4173.846191,4164.102539,4322.563965,16212.000000,4.000000,,,,0.000000,4.000000,4.000000,4.000000,4.000000,4.000000,,,,,,,,,,,,,,,,,,,,,,,,,
1577998045.183691,69.000000,0.000000,4309.230957,4022.051270,4177.948730,4169.743652,4304.615234,450.000000,4.000000,,,,0.000000,4.000000,4.000000,4.000000,4.000000,4.000000,,,,,,,,,,,,,,,,,,,,,,,,,
1577998045.191389,70.000000,0.000000,4298.974121,4040.512939,4189.743652,4169.743652,4293.846191,16139.000000,4.000000,,,,0.000000,4.000000,4.000000,4.000000,4.000000,4.000000,,,,,,,,,,,,,,,,,,,,,,,,,
1577998045.199187,71.000000,0.000000,4295.897461,4006.666748,4191.794922,4165.641113,4285.128418,450.000000,4.000000,,,,0.000000,4.000000,4.000000,4.000000,4.000000,4.000000,,,,,,,,,,,,,,,,,,,,,,,,,
1577998045.206885,72.000000,0.000000,4292.820313,4041.025635,4184.615234,4162.051270,4269.743652,450.000000,4.000000,,,,0.000000,4.000000,4.000000,4.000000,4.000000,4.000000,2.978187,1.125896,1.206691,1.487577,1.183959,344.594025,53.503632,25.656132,24.332644,6.097386,1.587734,0.617880,3.304136,0.692480,0.884747,1.849741,1.743255,1.503994,1.257307,1.403087,3.153095,1.055035,1.482324,1.125228,0.768781
1577998045.214683,73.000000,0.000000,4265.641113,4113.333496,4166.666504,4150.769043,4246.666504,16171.000000,4.000000,,,,0.000000,4.000000,4.000000,4.000000,4.000000,4.000000,,,,,,,,,,,,,,,,,,,,,,,,,
1577998045.222381,74.000000,0.000000,4233.333496,4147.692383,4152.820313,4150.256348,4229.743652,450.000000,4.000000,,,,0.000000,4.000000,4.000000,4.000000,4.000000,4.000000,,,,,,,,,,,,,,,,,,,,,,,,,
1577998045.230178,75.000000,0.000000,4233.333496,4209.230957,4167.179688,4170.256348,4226.153809,16205.000000,4.000000,,,,0.000000,4.000000,4.000000,4.000000,4.000000,4.000000,,,,,,,,,,,,,,,,,,,,,,,,,
1577998045.237876,76.000000,0.000000,4237.436035,4291.794922,4175.897461,4169.743652,4214.358887,450.000000,4.000000,,,,0.000000,4.000000,4.000000,4.000000,4.000000,4.000000,,,,,,,,,,,,,,,,,,,,,,,,,
1577998045.245674,77.000000,0.000000,4212.307617,4287.179688,4160.512695,4145.128418,4189.743652,450.000000,4.000000,,,,0.000000,4.000000,4.000000,4.000000,4.000000,4.000000,,,,,,,,,,,,,,,,,,,,,,,,,
1577998045.253372,78.000000,0.000000,4197.436035,4257.948730,4157.436035,4143.589844,4187.179688,450.000000,4.000000,,,,0.000000,4.000000,4.000000,4.000000,4.000000,4.000000,,,,,,,,,,,,,,,,,,,,,,,,,
1577998045.261169,79.000000,0.000000,4210.256348,4278.974121,4163.077148,4156.410156,4188.717773,16205.000000,4.000000,,,,0.000000,4.000000,4.000000,4.000000,4.000000,4.000000,,,,,,,,,,,,,,,,,,,,,,,,,
1577998045.268867,80.000000,0.000000,4202.563965,4295.384766,4159.487305,4151.794922,4171.794922,450.000000,4.000000,,,,0.000000,4.000000,4.000000,4.000000,4.000000,4.000000,,,,,,,,,,,,,,,,,,,,,,,,,
1577998045.276566,81.000000,0.000000,4169.743652,4307.179688,4154.871582,4133.846191,4158.461426,450.000000,4.000000,,,,0.000000,4.000000,4.000000,4.000000,4.000000,4.000000,,,,,,,,,,,,,,,,,,,,,,,,,
1577998045.284364,82.000000,0.000000,4165.128418,4366.666504,4154.871582,4132.307617,4161.025879,450.000000,4.000000,,,,0.000000,4.000000,4.000000,4.000000,4.000000,4.000000,,,,,,,,,,,,,,,,,,,,,,,,,
1577998045.292063,83.000000,0.000000,4171.282227,4430.256348,4152.307617,4142.051270,4160.512695,16205.000000,4.000000,,,,0.000000,4.000000,4.000000,4.000000,4.000000,4.000000,,,,,,,,,,,,,,,,,,,,,,,,,
1577998045.299861,84.000000,0.000000,4172.307617,4452.307617,4155.384766,4148.717773,4162.563965,450.000000,4.000000,,,,0.000000,4.000000,4.000000,4.000000,4.000000,4.000000,,,,,,,,,,,,,,,,,,,,,,,,,
1577998045.307559,85.000000,0.000000,4188.717773,4476.410156,4175.897461,4156.922852,4180.000000,450.000000,4.000000,,,,0.000000,4.000000,4.000000,4.000000,4.000000,4.000000,,,,,,,,,,,,,,,,,,,,,,,,,
1577998045.315357,86.000000,0.000000,4199.487305,4502.051270,4188.205078,4162.051270,4184.615234,450.000000,4.000000,,,,0.000000,4.000000,4.000000,4.000000,4.000000,4.000000,,,,,,,,,,,,,,,,,,,,,,,,,
1577998045.323056,87.000000,0.000000,4164.615234,4471.282227,4174.871582,4150.256348,4161.538574,16205.000000,4.000000,,,,0.000000,4.000000,4.000000,4.000000,4.000000,4.000000,,,,,,,,,,,,,,,,,,,,,,,,,
1577998045.330854,88.000000,0.000000,4138.461426,4430.256348,4165.128418,4140.000000,4146.666504,450.000000,4.000000,,,,0.000000,4.000000,4.000000,4.000000,4.000000,4.000000,4.027260,1.668443,1.273483,1.656697,1.123773,443.909515,60.564365,25.392569,25.277708,6.691494,1.547155,0.424945,3.661845,0.844931,0.882210,1.708521,1.673856,1.456837,1.404924,1.339829,3.351825,1.209387,1.587275,1.224035,0.728730
1577998045.338552,89.000000,0.000000,4157.436035,4457.948730,4166.666504,4142.051270,4148.717773,450.000000,4.000000,,,,0.000000,4.000000,4.000000,4.000000,4.000000,4.000000,,,,,,,,,,,,,,,,,,,,,,,,,
1577998045.346350,90.000000,0.000000,4170.256348,4526.153809,4170.769043,4146.153809,4152.307617,450.000000,4.000000,,,,0.000000,4.000000,4.000000,4.000000,4.000000,4.000000,,,,,,,,,,,,,,,,,,,,,,,,,
1577998045.354048,91.000000,0.000000,4160.000000,4552.820313,4161.025879,4142.051270,4148.717773,16205.000000,4.000000,,,,0.000000,4.000000,4.000000,4.000000,4.000000,4.000000,,,,,,,,,,,,,,,,,,,,,,,,,
1577998045.361846,92.000000,0.000000,4153.846191,4520.000000,4138.974121,4127.179688,4147.692383,450.000000,4.000000,,,,0.000000,4.000000,4.000000,4.000000,4.000000,4.000000,,,,,,,,,,,,,,,,,,,,,,,,,
1577998045.369544,93.000000,0.000000,4160.512695,4502.051270,4144.102539,4128.717773,4161.025879,450.000000,4.000000,,,,0.000000,4.000000,4.000000,4.000000,4.000000,4.000000,,,,,,,,,,,,,,,,,,,,,,,,,
1577998045.377342,94.000000,0.000000,4163.589844,4546.666504,4161.538574,4146.666504,4172.820313,450.000000,4.000000,,,,0.000000,4.000000,4.000000,4.000000,4.000000,4.000000,,,,,,,,,,,,,,,,,,,,,,,,,
1577998045.385040,95.000000,0.000000,4152.820313,4591.794922,4149.743652,4143.077148,4165.641113,16205.000000,4.000000,,,,0.000000,4.000000,4.000000,4.000000,4.000000,4.000000,,,,,,,,,,,,,,,,,,,,,,,,,
1577998045.392838,96.000000,0.000000,4152.307617,4582.051270,4144.102539,4142.051270,4163.077148,450.000000,4.000000,,,,0.000000,4.000000,4.000000,4.000000,4.000000,4.000000,,,,,,,,,,,,,,,,,,,,,,,,,
1577998045.400536,97.000000,0.000000,4152.307617,4541.025879,4151.282227,4155.384766,4166.666504,450.000000,4.000000,,,,0.000000,4.000000,4.000000,4.000000,4.000000,4.000000,,,,,,,,,,,,,,,,,,,,,,,,,
1577998045.408235,98.000000,0.000000,4143.077148,4558.461426,4145.128418,4153.333496,4162.051270,450.000000,4.000000,,,,0.000000,4.000000,4.000000,4.000000,4.000000,4.000000,,,,,,,,,,,,,,,,,,,,,,,,,
1577998045.416033,99.000000,0.000000,4144.615234,4623.589844,4139.487305,4132.307617,4151.794922,16205.000000,4.000000,,,,0.000000,4.000000,4.000000,4.000000,4.000000,4.000000,,,,,,,,,,,,,,,,,,,,,,,,,
1577998045.423732,100.000000,0.000000,4154.871582,4608.205078,4141.538574,4118.461426,4147.179688,450.000000,4.000000,,,,0.000000,4.000000,4.000000,4.000000,4.000000,4.000000,,,,,,,,,,,,,,,,,,,,,,,,,
1577998045.431530,101.000000,0.000000,4153.846191,4483.589844,4134.871582,4118.974121,4151.794922,450.000000,4.000000,,,,0.000000,4.000000,4.000000,4.000000,4.000000,4.000000,,,,,,,,,,,,,,,,,,,,,,,,,
1577998045.439229,102.000000,0.000000,4146.666504,4368.205078,4132.307617,4122.563965,4148.205078,450.000000,4.000000,,,,0.000000,4.000000,4.000000,4.000000,4.000000,4.000000,,,,,,,,,,,,,,,,,,,,,,,,,
1577998045.447027,103.000000,0.000000,4153.333496,4355.384766,4156.410156,4133.333496,4147.692383,16205.000000,4.000000,,,,0.000000,4.000000,4.000000,4.000000,4.000000,4.000000,,,,,,,,,,,,,,,,,,,,,,,,,
1577998045.454726,104.000000,0.000000,4173.846191,4389.743652,4180.000000,4151.282227,4167.179688,450.000000,4.000000,,,,0.000000,4.000000,4.000000,4.000000,4.000000,4.000000,13.095283,3.193947,1.486984,2.006217,1.045079,516.623657,74.694962,26.356823,24.224651,7.013776,1.504478,0.335785,3.875535,1.046961,0.837948,1.473155,1.656287,1.386486,1.680074,1.215747,5.755592,2.230757,1.705606,1.402034,0.673444
1577998045.462524,105.000000,0.000000,4173.846191,4344.615234,4173.333496,4146.666504,4167.179688,450.000000,4.000000,,,,0.000000,4.000000,4.000000,4.000000,4.000000,4.000000,,,,,,,,,,,,,,,,,,,,,,,,,
1577998045.470223,106.000000,0.000000,4153.333496,4243.589844,4162.563965,4132.307617,4148.717773,450.000000,4.000000,,,,0.000000,4.000000,4.000000,4.000000,4.000000,4.000000,,,,,,,,,,,,,,,,,,,,,,,,,
1577998045.478021,107.000000,0.000000,4147.179688,4196.922852,4155.897461,4135.384766,4146.666504,16205.000000,4.000000,,,,0.000000,4.000000,4.000000,4.000000,4.000000,4.000000,,,,,,,,,,,,,,,,,,,,,,,,,
1577998045.485719,108.000000,0.000000,4149.230957,4212.307617,4141.025879,4137.948730,4147.179688,450.000000,4.000000,,,,0.000000,4.000000,4.000000,4.000000,4.000000,4.000000,,,,,,,,,,,,,,,,,,,,,,,,,
1577998045.493517,109.000000,0.000000,4150.769043,4227.179688,4145.128418,4145.128418,4144.615234,450.000000,4.000000,,,,0.000000,4.000000,4.000000,4.000000,4.000000,4.000000,,,,,,,,,,,,,,,,,,,,,,,,,
1577998045.501216,110.000000,0.000000,4162.051270,4216.922852,4167.692383,4152.820313,4158.461426,450.000000,4.000000,,,,0.000000,4.000000,4.000000,4.000000,4.000000,4.000000,,,,,,,,,,,,,,,,,,,,,,,,,
1577998045.509014,111.000000,0.000000,4169.743652,4189.230957,4162.051270,4136.922852,4158.461426,16205.000000,4.000000,,,,0.000000,4.000000,4.000000,4.000000,4.000000,4.000000,,,,,,,,,,,,,,,,,,,,,,,,,
1577998045.516712,112.000000,0.000000,4159.487305,4170.769043,4134.358887,4127.692383,4127.179688,450.000000,4.000000,,,,0.000000,4.000000,4.000000,4.000000,4.000000,4.000000,,,,,,,,,,,,,,,,,,,,,,,,,
1577998045.524510,113.000000,0.000000,4157.436035,4174.871582,4132.820313,4146.666504,4118.461426,450.000000,4.000000,,,,0.000000,4.000000,4.000000,4.000000,4.000000,4.000000,,,,,,,,,,,,,,,,,,,,,,,,,
1577998045.532208,114.000000,0.000000,4169.230957,4176.922852,4150.256348,4151.794922,4138.974121,450.000000,4.000000,,,,0.000000,4.000000,4.000000,4.000000,4.000000,4.000000,,,,,,,,,,,,,,,,,,,,,,,,,
1577998045.540006,115.000000,0.000000,4163.589844,4162.563965,4140.512695,4126.153809,4133.333496,16205.000000,4.000000,,,,0.000000,4.000000,4.000000,4.000000,4.000000,4.000000,,,,,,,,,,,,,,,,,,,,,,,,,
1577998045.547704,116.000000,0.000000,4150.769043,4145.641113,4127.692383,4113.333496,4118.461426,450.000000,4.000000,,,,0.000000,4.000000,4.000000,4.000000,4.000000,4.000000,,,,,,,,,,,,,,,,,,,,,,,,,
1577998045.555502,117.000000,0.000000,4151.282227,4125.128418,4136.922852,4122.563965,4123.077148,450.000000,4.000000,,,,0.000000,4.000000,4.000000,4.000000,4.000000,4.000000,,,,,,,,,,,,,,,,,,,,,,,,,
1577998045.563200,118.000000,0.000000,4152.820313,4111.794922,4147.692383,4130.769043,4128.205078,450.000000,4.000000,,,,0.000000,4.000000,4.000000,4.000000,4.000000,4.000000,,,,,,,,,,,,,,,,,,,,,,,,,
1577998045.570899,119.000000,0.000000,4150.256348,4126.153809,4151.794922,4135.897461,4125.128418,16205.000000,4.000000,,,,0.000000,4.000000,4.000000,4.000000,4.000000,4.000000,,,,,,,,,,,,,,,,,,,,,,,,,
1577998045.578698,120.000000,0.000000,4154.871582,4132.820313,4152.820313,4153.333496,4129.230957,450.000000,4.000000,,,,0.000000,4.000000,4.000000,4.000000,4.000000,4.000000,32.328869,5.887460,1.852190,2.461697,0.983199,538.008118,90.805756,27.888626,21.780123,7.149892,1.523945,0.396941,3.886898,1.241239,0.775485,1.209517,1.652385,1.319368,2.014298,1.071953,10.728635,4.315913,1.834597,1.607990,0.612370
1577998045.586397,121.000000,0.000000,4165.641113,4116.922852,4154.871582,4169.743652,4144.102539,450.000000,4.000000,,,,0.000000,4.000000,4.000000,4.000000,4.000000,4.000000,,,,,,,,,,,,,,,,,,,,,,,,,
1577998045.594195,122.000000,0.000000,4166.153809,4124.615234,4154.871582,4155.897461,4151.794922,450.000000,4.000000,,,,0.000000,4.000000,4.000000,4.000000,4.000000,4.000000,,,,,,,,,,,,,,,,,,,,,,,,,
1577998045.601894,123.000000,0.000000,4160.000000,4134.871582,4159.487305,4146.666504,4149.230957,16205.000000,4.000000,,,,0.000000,4.000000,4.000000,4.000000,4.000000,4.000000,,,,,,,,,,,,,,,,,,,,,,,,,
1577998045.609692,124.000000,0.000000,4163.589844,4103.589844,4169.230957,4178.461426,4151.794922,450.000000,4.000000,,,,0.000000,4.000000,4.000000,4.000000,4.000000,4.000000,,,,,,,,,,,,,,,,,,,,,,,,,
1577998045.617391,125.000000,0.000000,4165.128418,4061.025635,4160.512695,4199.487305,4151.282227,450.000000,4.000000,,,,0.000000,4.000000,4.000000,4.000000,4.000000,4.000000,,,,,,,,,,,,,,,,,,,,,,,,,
1577998045.625189,126.000000,0.000000,4155.384766,4040.000000,4140.000000,4175.384766,4139.487305,450.000000,4.000000,,,,0.000000,4.000000,4.000000,4.000000,4.000000,4.000000,,,,,,,,,,,,,,,,,,,,,,,,,
1577998045.632988,127.000000,0.000000,4163.077148,4044.102539,4136.410156,4168.717773,4135.384766,238.000000,4.000000,,,,0.000000,4.000000,4.000000,4.000000,4.000000,4.000000,,,,,,,,,,,,,,,,,,,,,,,,,
1577998045.640685,0.000000,0.000000,4181.025879,4077.948730,4141.025879,4183.589844,4141.025879,450.000000,4.000000,,,,0.000000,4.000000,4.000000,4.000000,4.000000,4.000000,,,,,,,,,,,,,,,,,,,,,,,,,
1577998045.648483,1.000000,0.000000,4166.153809,4092.307617,4127.692383,4167.179688,4135.384766,450.000000,4.000000,,,,0.000000,4.000000,4.000000,4.000000,4.000000,4.000000,,,,,,,,,,,,,,,,,,,,,,,,,
1577998045.656180,2.000000,0.000000,4147.179688,4071.794922,4107.179688,4147.179688,4126.666504,16199.000000,4.000000,,,,0.000000,4.000000,4.000000,4.000000,4.000000,4.000000,,,,,,,,,,,,,,,,,,,,,,,,,
1577998045.663878,3.000000,0.000000,4172.820313,4069.230713,4116.410156,4160.512695,4142.051270,450.000000,4.000000,,,,0.000000,4.000000,4.000000,4.000000,4.000000,4.000000,,,,,,,,,,,,,,,,,,,,,,,,,
1577998045.671677,4.000000,0.000000,4196.922852,4094.871826,4134.871582,4182.051270,4155.897461,16209.000000,4.000000,,,,0.000000,4.000000,4.000000,4.000000,4.000000,4.000000,,,,,,,,,,,,,,,,,,,,,,,,,
1577998045.679475,5.000000,0.000000,4166.666504,4118.974121,4115.897461,4178.461426,4133.333496,450.000000,4.000000,,,,0.000000,4.000000,4.000000,4.000000,4.000000,4.000000,,,,,,,,,,,,,,,,,,,,,,,,,
1577998045.687172,6.000000,0.000000,4135.384766,4120.000000,4098.461426,4156.922852,4115.897461,16141.000000,4.000000,,,,0.000000,4.000000,4.000000,4.000000,4.000000,4.000000,,,,,,,,,,,,,,,,,,,,,,,,,
1577998045.694871,7.000000,0.000000,4143.589844,4103.077148,4112.820313,4154.871582,4125.641113,450.000000,4.000000,,,,0.000000,4.000000,4.000000,4.000000,4.000000,4.000000,,,,,,,,,,,,,,,,,,,,,,,,,
1577998045.702669,8.000000,0.000000,4148.205078,4095.897461,4112.820313,4169.743652,4121.538574,450.000000,4.000000,,,,0.000000,4.000000,4.000000,4.000000,4.000000,4.000000,61.065315,9.513658,2.302967,2.862450,0.960189,504.951141,102.826881,28.710587,18.818535,7.282246,1.684207,0.619698,3.696214,1.358131,0.722323,0.999623,1.647657,1.292516,2.285923,0.946839,17.966480,7.237459,1.950009,1.754209,0.555618
1577998045.710367,9.000000,0.000000,4133.846191,4084.102539,4098.461426,4174.871582,4108.717773,16171.000000,4.000000,,,,0.000000,4.000000,4.000000,4.000000,4.000000,4.000000,,,,,,,,,,,,,,,,,,,,,,,,,
1577998045.718165,10.000000,0.000000,4124.615234,4006.153809,4101.538574,4166.153809,4109.743652,450.000000,4.000000,,,,0.000000,4.000000,4.000000,4.000000,4.000000,4.000000,,,,,,,,,,,,,,,,,,,,,,,,,
1577998045.725864,11.000000,0.000000,4128.717773,3937.948730,4105.128418,4165.641113,4118.974121,16205.000000,4.000000,,,,0.000000,4.000000,4.000000,4.000000,4.000000,4.000000,,,,,,,,,,,,,,,,,,,,,,,,,
1577998045.733662,12.000000,0.000000,4134.358887,3948.718018,4091.281982,4157.948730,4121.538574,450.000000,4.000000,,,,0.000000,4.000000,4.000000,4.000000,4.000000,4.000000,,,,,,,,,,,,,,,,,,,,,,,,,
1577998045.741360,13.000000,0.000000,4126.666504,3959.487061,4084.102539,4144.615234,4118.461426,450.000000,4.000000,,,,0.000000,4.000000,4.000000,4.000000,4.000000,4.000000,,,,,,,,,,,,,,,,,,,,,,,,,
1577998045.749158,14.000000,0.000000,4122.563965,3967.692383,4086.153809,4175.384766,4127.179688,450.000000,4.000000,,,,0.000000,4.000000,4.000000,4.000000,4.000000,4.000000,,,,,,,,,,,,,,,,,,,,,,,,,
1577998045.756856,15.000000,0.000000,4134.358887,3958.461426,4077.948730,4189.743652,4142.051270,16205.000000,4.000000,,,,0.000000,4.000000,4.000000,4.000000,4.000000,4.000000,,,,,,,,,,,,,,,,,,,,,,,,,
1577998045.764654,16.000000,0.000000,4148.205078,3889.743652,4097.436035,4133.333496,4155.897461,0.000000,4.000000,,,,0.000000,4.000000,4.000000,4.000000,4.000000,4.000000,,,,,,,,,,,,,,,,,,,,,,,,,
1577998045.772352,17.000000,0.000000,4141.025879,3867.179443,4113.846191,4122.563965,4145.128418,0.000000,4.000000,,,,0.000000,4.000000,4.000000,4.000000,4.000000,4.000000,,,,,,,,,,,,,,,,,,,,,,,,,
1577998045.780150,18.000000,0.000000,4153.846191,3880.000000,4103.077148,4163.077148,4147.179688,0.000000,4.000000,,,,0.000000,4.000000,4.000000,4.000000,4.000000,4.000000,,,,,,,,,,,,,,,,,,,,,,,,,
1577998045.787848,19.000000,0.000000,4199.487305,3769.743652,4127.692383,4126.153809,4206.666504,0.000000,4.000000,,,,0.000000,4.000000,4.000000,4.000000,4.000000,4.000000,,,,,,,,,,,,,,,,,,,,,,,,,
1577998045.795646,20.000000,0.000000,4145.128418,3689.230713,4090.769287,4139.487305,4170.769043,0.000000,4.000000,,,,0.000000,4.000000,4.000000,4.000000,4.000000,4.000000,,,,,,,,,,,,,,,,,,,,,,,,,
1577998045.803343,21.000000,0.000000,4077.948730,3639.487061,4021.025635,4172.820313,4122.563965,0.000000,4.000000,,,,0.000000,4.000000,4.000000,4.000000,4.000000,4.000000,,,,,,,,,,,,,,,,,,,,,,,,,
1577998045.811141,22.000000,0.000000,4215.384766,3377.948730,4129.230957,4007.692383,4318.461426,0.000000,4.000000,,,,0.000000,4.000000,4.000000,4.000000,4.000000,4.000000,,,,,,,,,,,,,,,,,,,,,,,,,
1577998045.818839,23.000000,0.000000,4271.282227,3200.512939,4192.307617,3991.281982,4394.871582,0.000000,4.000000,,,,0.000000,4.000000,4.000000,4.000000,4.000000,4.000000,,,,,,,,,,,,,,,,,,,,,,,,,
1577998045.826537,24.000000,0.000000,4059.487061,3215.897461,3985.641113,4263.077148,4143.077148,0.000000,4.000000,,,,0.000000,4.000000,4.000000,4.000000,4.000000,4.000000,92.707405,13.225626,2.721340,3.047620,0.976871,428.733185,105.787560,27.633926,16.088312,7.587109,2.036811,0.959103,3.367090,1.357283,0.699476,0.922231,1.663848,1.339224,2.392398,0.865067,25.825714,10.257334,2.027423,1.769975,0.513938
1577998045.834336,25.000000,0.000000,4150.256348,2758.974365,3986.153809,4190.769043,4277.436035,0.000000,4.000000,,,,0.000000,4.000000,4.000000,4.000000,4.000000,4.000000,,,,,,,,,,,,,,,,,,,,,,,,,
1577998045.842034,26.000000,0.000000,4445.641113,2077.435791,4242.051270,3901.025635,4620.000000,0.000000,4.000000,,,,0.000000,4.000000,4.000000,4.000000,4.000000,4.000000,,,,,,,,,,,,,,,,,,,,,,,,,
1577998045.849833,27.000000,0.000000,4217.948730,2029.743530,4101.025879,4151.282227,4303.589844,0.000000,4.000000,,,,0.000000,4.000000,4.000000,4.000000,4.000000,4.000000,,,,,,,,,,,,,,,,,,,,,,,,,
1577998045.857531,28.000000,0.000000,3960.512939,2123.076904,3841.538574,4457.436035,4016.923096,0.000000,4.000000,,,,0.000000,4.000000,4.000000,4.000000,4.000000,4.000000,,,,,,,,,,,,,,,,,,,,,,,,,
1577998045.865330,29.000000,0.000000,4291.282227,1726.153809,4081.025635,4130.256348,4424.615234,0.000000,4.000000,,,,0.000000,4.000000,4.000000,4.000000,4.000000,4.000000,,,,,,,,,,,,,,,,,,,,,,,,,
1577998045.873028,30.000000,0.000000,4490.769043,1254.871826,4293.846191,3853.846191,4617.948730,0.000000,4.000000,,,,0.000000,4.000000,4.000000,4.000000,4.000000,4.000000,,,,,,,,,,,,,,,,,,,,,,,,,
1577998045.880826,31.000000,0.000000,4080.000000,1458.974365,3968.718018,4278.461426,4177.948730,0.000000,4.000000,,,,0.000000,4.000000,4.000000,4.000000,4.000000,4.000000,,,,,,,,,,,,,,,,,,,,,,,,,
1577998045.888525,32.000000,0.000000,3953.333252,2125.128174,3826.666748,4709.230957,4086.666748,0.000000,4.000000,,,,0.000000,4.000000,4.000000,4.000000,4.000000,4.000000,,,,,,,,,,,,,,,,,,,,,,,,,
1577998045.896323,33.000000,0.000000,4336.410156,2382.564209,4161.025879,4391.282227,4483.077148,0.000000,4.000000,,,,0.000000,4.000000,4.000000,4.000000,4.000000,4.000000,,,,,,,,,,,,,,,,,,,,,,,,,
1577998045.904021,34.000000,0.000000,4302.563965,2207.179443,4166.153809,4144.615234,4445.641113,0.000000,4.000000,,,,0.000000,4.000000,4.000000,4.000000,4.000000,4.000000,,,,,,,,,,,,,,,,,,,,,,,,,
1577998045.911819,35.000000,0.000000,4007.692383,2018.974365,3906.666748,4507.692383,4157.436035,0.000000,4.000000,,,,0.000000,4.000000,4.000000,4.000000,4.000000,4.000000,,,,,,,,,,,,,,,,,,,,,,,,,
1577998045.919518,36.000000,0.000000,4092.820557,1790.256470,3956.923096,4625.128418,4243.077148,0.000000,4.000000,,,,0.000000,4.000000,4.000000,4.000000,4.000000,4.000000,,,,,,,,,,,,,,,,,,,,,,,,,
1577998045.927316,37.000000,0.000000,4250.769043,1342.051270,4094.358887,4445.641113,4391.282227,0.000000,4.000000,,,,0.000000,4.000000,4.000000,4.000000,4.000000,4.000000,,,,,,,,,,,,,,,,,,,,,,,,,
1577998045.935014,38.000000,0.000000,4146.153809,1133.333374,4040.000000,4509.230957,4272.820313,0.000000,4.000000,,,,0.000000,4.000000,4.000000,4.000000,4.000000,4.000000,,,,,,,,,,,,,,,,,,,,,,,,,
1577998045.942812,39.000000,0.000000,4072.820557,1430.256470,3975.384521,4555.897461,4209.743652,0.000000,4.000000,,,,0.000000,4.000000,4.000000,4.000000,4.000000,4.000000,,,,,,,,,,,,,,,,,,,,,,,,,
1577998045.950510,40.000000,0.000000,4140.000000,1617.435913,3968.718018,4493.333496,4289.230957,0.000000,4.000000,,,,0.000000,4.000000,4.000000,4.000000,4.000000,4.000000,117.976097,15.901464,2.959136,2.936364,1.063504,337.088898,100.265068,24.408161,13.966221,8.159831,2.567858,1.320431,2.989793,1.243328,0.746683,1.096069,1.697681,1.444426,2.299213,0.892942,32.502167,12.523020,2.039274,1.632338,0.559165
1577998045.958308,41.000000,0.000000,4158.461426,1334.359009,3975.384521,4563.589844,4282.051270,0.000000,4.000000,,,,0.000000,4.000000,4.000000,4.000000,4.000000,4.000000,,,,,,,,,,,,,,,,,,,,,,,,,
1577998045.966006,42.000000,0.000000,4159.487305,1104.102539,4031.794922,4486.153809,4290.769043,0.000000,4.000000,,,,0.000000,4.000000,4.000000,4.000000,4.000000,4.000000,,,,,,,,,,,,,,,,,,,,,,,,,
1577998045.973705,43.000000,0.000000,4090.256348,1298.974365,3989.230713,4405.641113,4264.102539,0.000000,4.000000,,,,0.000000,4.000000,4.000000,4.000000,4.000000,4.000000,,,,,,,,,,,,,,,,,,,,,,,,,
1577998045.981503,44.000000,0.000000,4036.923096,1373.846191,3910.769287,4596.410156,4195.897461,0.000000,4.000000,,,,0.000000,4.000000,4.000000,4.000000,4.000000,4.000000,,,,,,,,,,,,,,,,,,,,,,,,,
1577998045.989302,45.000000,0.000000,4072.307617,1259.487183,3942.564209,4623.077148,4189.743652,0.000000,4.000000,,,,0.000000,4.000000,4.000000,4.000000,4.000000,4.000000,,,,,,,,,,,,,,,,,,,,,,,,,
1577998045.997000,46.000000,0.000000,4045.128174,1284.102539,3956.923096,4513.846191,4154.871582,0.000000,4.000000,,,,0.000000,4.000000,4.000000,4.000000,4.000000,4.000000,,,,,,,,,,,,,,,,,,,,,,,,,
1577998046.004698,47.000000,0.000000,3963.589844,1373.846191,3910.769287,4552.820313,4074.871826,0.000000,4.000000,,,,0.000000,4.000000,4.000000,4.000000,4.000000,4.000000,,,,,,,,,,,,,,,,,,,,,,,,,
1577998046.012497,48.000000,0.000000,3935.384521,1458.461548,3883.589844,4574.358887,4046.153809,0.000000,4.000000,,,,0.000000,4.000000,4.000000,4.000000,4.000000,4.000000,,,,,,,,,,,,,,,,,,,,,,,,,
1577998046.020195,49.000000,0.000000,4002.051270,1471.794922,3942.564209,4532.307617,4112.307617,0.000000,4.000000,,,,0.000000,4.000000,4.000000,4.000000,4.000000,4.000000,,,,,,,,,,,,,,,,,,,,,,,,,
1577998046.027994,50.000000,0.000000,4034.871826,1410.256470,3989.230713,4518.974121,4140.000000,0.000000,4.000000,,,,0.000000,4.000000,4.000000,4.000000,4.000000,4.000000,,,,,,,,,,,,,,,,,,,,,,,,,
1577998046.035692,51.000000,0.000000,3988.718018,1406.153809,3958.974365,4514.871582,4088.718018,0.000000,4.000000,,,,0.000000,4.000000,4.000000,4.000000,4.000000,4.000000,,,,,,,,,,,,,,,,,,,,,,,,,
1577998046.043491,52.000000,0.000000,3989.743652,1421.538452,3966.666748,4496.922852,4092.820557,0.000000,4.000000,,,,0.000000,4.000000,4.000000,4.000000,4.000000,4.000000,,,,,,,,,,,,,,,,,,,,,,,,,
1577998046.051289,53.000000,0.000000,4014.358887,1414.871826,3995.897461,4482.563965,4122.563965,0.000000,4.000000,,,,0.000000,4.000000,4.000000,4.000000,4.000000,4.000000,,,,,,,,,,,,,,,,,,,,,,,,,
1577998046.058987,54.000000,0.000000,4004.615479,1418.974365,3987.692383,4451.282227,4115.384766,0.000000,4.000000,,,,0.000000,4.000000,4.000000,4.000000,4.000000,4.000000,,,,,,,,,,,,,,,,,,,,,,,,,
1577998046.066685,55.000000,0.000000,3996.923096,1417.435913,3990.256348,4434.358887,4112.307617,0.000000,4.000000,,,,0.000000,4.000000,4.000000,4.000000,4.000000,4.000000,,,,,,,,,,,,,,,,,,,,,,,,,
1577998046.074483,56.000000,0.000000,4003.589844,1542.051270,3997.435791,4407.692383,4122.051270,0.000000,4.000000,,,,0.000000,4.000000,4.000000,4.000000,4.000000,4.000000,128.927216,16.655592,2.932737,2.579821,2.014518,273.042206,99.633751,22.258783,13.696357,9.937605,3.214801,1.626934,2.637706,1.076034,1.440770,2.338427,1.683308,1.578069,2.142709,2.149061,37.010330,13.394882,2.028848,1.395671,1.765741
1577998046.082281,57.000000,0.000000,4003.076904,1794.871826,3989.230713,4353.846191,4114.871582,0.000000,4.000000,,,,0.000000,4.000000,4.000000,4.000000,4.000000,4.000000,,,,,,,,,,,,,,,,,,,,,,,,,
1577998046.089979,58.000000,0.000000,4024.615479,1901.025635,4006.666748,4342.051270,4123.589844,0.000000,4.000000,,,,0.000000,4.000000,4.000000,4.000000,4.000000,4.000000,,,,,,,,,,,,,,,,,,,,,,,,,
1577998046.097677,59.000000,0.000000,4048.205078,1809.743530,4029.743652,4350.769043,4138.974121,0.000000,4.000000,,,,0.000000,4.000000,4.000000,4.000000,4.000000,4.000000,,,,,,,,,,,,,,,,,,,,,,,,,
1577998046.105475,60.000000,0.000000,4026.153809,1744.102539,4029.230713,4334.358887,4127.692383,0.000000,4.000000,,,,0.000000,4.000000,4.000000,4.000000,4.000000,4.000000,,,,,,,,,,,,,,,,,,,,,,,,,
1577998046.113173,61.000000,0.000000,4003.589844,1766.153809,4032.820557,4316.410156,4114.871582,0.000000,4.000000,,,,0.000000,4.000000,4.000000,4.000000,4.000000,4.000000,,,,,,,,,,,,,,,,,,,,,,,,,
1577998046.120971,62.000000,0.000000,4022.051270,1805.640991,4045.641113,4319.487305,4125.641113,0.000000,4.000000,,,,0.000000,4.000000,4.000000,4.000000,4.000000,4.000000,,,,,,,,,,,,,,,,,,,,,,,,,
1577998046.128669,63.000000,0.000000,4038.974365,1838.974365,4041.538574,4316.922852,4133.846191,0.000000,4.000000,,,,0.000000,4.000000,4.000000,4.000000,4.000000,4.000000,,,,,,,,,,,,,,,,,,,,,,,,,
1577998046.136368,64.000000,0.000000,4036.923096,1862.564087,4033.846191,4290.769043,4129.230957,450.000000,4.000000,,,,0.000000,4.000000,4.000000,4.000000,4.000000,4.000000,,,,,,,,,,,,,,,,,,,,,,,,,
1577998046.144167,65.000000,0.000000,4054.871826,1922.051270,4064.102539,4272.307617,4152.307617,450.000000,4.000000,,,,0.000000,4.000000,4.000000,4.000000,4.000000,4.000000,,,,,,,,,,,,,,,,,,,,,,,,,
1577998046.151866,66.000000,0.000000,4071.281982,2046.666626,4081.025635,4255.384766,4175.384766,16167.000000,4.000000,,,,0.000000,4.000000,4.000000,4.000000,4.000000,4.000000,,,,,,,,,,,,,,,,,,,,,,,,,
1577998046.159664,67.000000,0.000000,4053.333252,2154.358887,4044.615479,4210.256348,4156.922852,450.000000,4.000000,,,,0.000000,4.000000,4.000000,4.000000,4.000000,4.000000,,,,,,,,,,,,,,,,,,,,,,,,,
1577998046.167463,68.000000,0.000000,4042.051270,2206.666748,4027.179443,4173.333496,4145.128418,16242.000000,4.000000,,,,0.000000,4.000000,4.000000,4.000000,4.000000,4.000000,,,,,,,,,,,,,,,,,,,,,,,,,
1577998046.175161,69.000000,0.000000,4059.487061,2258.461426,4050.769287,4168.205078,4170.769043,450.000000,4.000000,,,,0.000000,4.000000,4.000000,4.000000,4.000000,4.000000,,,,,,,,,,,,,,,,,,,,,,,,,
1577998046.182959,70.000000,0.000000,4071.281982,2361.025635,4066.153809,4161.538574,4191.282227,16128.000000,4.000000,,,,0.000000,4.000000,4.000000,4.000000,4.000000,4.000000,,,,,,,,,,,,,,,,,,,,,,,,,
1577998046.190657,71.000000,0.000000,4062.051270,2528.718018,4059.487061,4134.871582,4179.487305,450.000000,4.000000,,,,0.000000,4.000000,4.000000,4.000000,4.000000,4.000000,,,,,,,,,,,,,,,,,,,,,,,,,
1577998046.198454,72.000000,0.000000,4057.948730,2725.641113,4054.358887,4113.846191,4172.307617,450.000000,4.000000,,,,0.000000,4.000000,4.000000,4.000000,4.000000,4.000000,122.613602,15.499679,2.668191,2.134996,6.165749,279.877502,141.060715,35.046848,20.899769,15.762068,3.962673,1.877437,2.330248,0.934620,4.456474,6.727041,1.776269,1.752122,2.362550,7.980404,39.255543,12.961533,2.189845,1.174146,7.077139
1577998046.206152,73.000000,0.000000,4067.692383,2916.923096,4048.205078,4108.717773,4176.922852,16209.000000,4.000000,,,,0.000000,4.000000,4.000000,4.000000,4.000000,4.000000,,,,,,,,,,,,,,,,,,,,,,,,,
1577998046.213950,74.000000,0.000000,4080.512939,3112.820557,4047.692383,4093.846191,4177.948730,450.000000,4.000000,,,,0.000000,4.000000,4.000000,4.000000,4.000000,4.000000,,,,,,,,,,,,,,,,,,,,,,,,,
1577998046.221648,75.000000,0.000000,4090.769287,3317.435791,4077.948730,4077.435791,4184.615234,16149.000000,4.000000,,,,0.000000,4.000000,4.000000,4.000000,4.000000,4.000000,,,,,,,,,,,,,,,,,,,,,,,,,
1577998046.229446,76.000000,0.000000,4084.615479,3501.025635,4094.871826,4072.307617,4181.025879,450.000000,4.000000,,,,0.000000,4.000000,4.000000,4.000000,4.000000,4.000000,,,,,,,,,,,,,,,,,,,,,,,,,
1577998046.237143,77.000000,0.000000,4060.000000,3654.871826,4063.076904,4041.025635,4156.410156,450.000000,4.000000,,,,0.000000,4.000000,4.000000,4.000000,4.000000,4.000000,,,,,,,,,,,,,,,,,,,,,,,,,
1577998046.244842,78.000000,0.000000,4059.487061,3801.538574,4059.487061,4009.743652,4156.410156,450.000000,4.000000,,,,0.000000,4.000000,4.000000,4.000000,4.000000,4.000000,,,,,,,,,,,,,,,,,,,,,,,,,
1577998046.252541,79.000000,0.000000,4091.794922,3904.102539,4106.153809,4020.000000,4186.153809,16149.000000,4.000000,,,,0.000000,4.000000,4.000000,4.000000,4.000000,4.000000,,,,,,,,,,,,,,,,,,,,,,,,,
1577998046.260340,80.000000,0.000000,4107.692383,3920.512939,4129.230957,4025.128174,4201.538574,450.000000,4.000000,,,,0.000000,4.000000,4.000000,4.000000,4.000000,4.000000,,,,,,,,,,,,,,,,,,,,,,,,,
1577998046.268039,81.000000,0.000000,4107.179688,3880.000000,4116.922852,4004.615479,4200.512695,450.000000,4.000000,,,,0.000000,4.000000,4.000000,4.000000,4.000000,4.000000,,,,,,,,,,,,,,,,,,,,,,,,,
1577998046.275838,82.000000,0.000000,4120.000000,3884.102539,4124.615234,4002.564209,4198.974121,450.000000,4.000000,,,,0.000000,4.000000,4.000000,4.000000,4.000000,4.000000,,,,,,,,,,,,,,,,,,,,,,,,,
1577998046.283537,83.000000,0.000000,4137.436035,3940.512939,4149.743652,4016.923096,4201.025879,16149.000000,4.000000,,,,0.000000,4.000000,4.000000,4.000000,4.000000,4.000000,,,,,,,,,,,,,,,,,,,,,,,,,
1577998046.291336,84.000000,0.000000,4134.871582,3938.974365,4145.128418,4012.307617,4198.974121,450.000000,4.000000,,,,0.000000,4.000000,4.000000,4.000000,4.000000,4.000000,,,,,,,,,,,,,,,,,,,,,,,,,
1577998046.299035,85.000000,0.000000,4115.897461,3915.384521,4126.153809,3997.435791,4181.538574,450.000000,4.000000,,,,0.000000,4.000000,4.000000,4.000000,4.000000,4.000000,,,,,,,,,,,,,,,,,,,,,,,,,
1577998046.306834,86.000000,0.000000,4119.487305,4005.128174,4135.384766,4006.666748,4181.538574,450.000000,4.000000,,,,0.000000,4.000000,4.000000,4.000000,4.000000,4.000000,,,,,,,,,,,,,,,,,,,,,,,,,
1577998046.314533,87.000000,0.000000,4137.948730,4119.487305,4152.820313,4010.256348,4197.436035,16149.000000,4.000000,,,,0.000000,4.000000,4.000000,4.000000,4.000000,4.000000,,,,,,,,,,,,,,,,,,,,,,,,,
1577998046.322332,88.000000,0.000000,4149.230957,4135.897461,4158.974121,3991.281982,4200.000000,450.000000,4.000000,,,,0.000000,4.000000,4.000000,4.000000,4.000000,4.000000,101.279854,13.168174,2.307573,1.786360,15.965850,433.274506,260.207184,80.801880,42.945129,28.921789,4.781911,2.123084,2.064193,0.886057,11.544250,16.026382,2.456992,2.016103,3.446860,21.962894,40.039623,11.868596,2.750650,1.089647,19.442678
1577998046.330031,89.000000,0.000000,4158.461426,4145.641113,4161.538574,3985.641113,4202.051270,450.000000,4.000000,,,,0.000000,4.000000,4.000000,4.000000,4.000000,4.000000,,,,,,,,,,,,,,,,,,,,,,,,,
1577998046.337829,90.000000,0.000000,4166.153809,4172.307617,4170.769043,3994.871826,4217.948730,450.000000,4.000000,,,,0.000000,4.000000,4.000000,4.000000,4.000000,4.000000,,,,,,,,,,,,,,,,,,,,,,,,,
1577998046.345528,91.000000,0.000000,4181.025879,4164.615234,4186.153809,3998.461426,4223.589844,16149.000000,4.000000,,,,0.000000,4.000000,4.000000,4.000000,4.000000,4.000000,,,,,,,,,,,,,,,,,,,,,,,,,
1577998046.353327,92.000000,0.000000,4192.820313,4204.102539,4181.538574,3990.256348,4205.128418,450.000000,4.000000,,,,0.000000,4.000000,4.000000,4.000000,4.000000,4.000000,,,,,,,,,,,,,,,,,,,,,,,,,
1577998046.361026,93.000000,0.000000,4184.102539,4293.846191,4160.512695,3978.974365,4195.384766,450.000000,4.000000,,,,0.000000,4.000000,4.000000,4.000000,4.000000,4.000000,,,,,,,,,,,,,,,,,,,,,,,,,
1577998046.368824,94.000000,0.000000,4174.871582,4342.563965,4159.487305,3973.333252,4205.641113,450.000000,4.000000,,,,0.000000,4.000000,4.000000,4.000000,4.000000,4.000000,,,,,,,,,,,,,,,,,,,,,,,,,
1577998046.376523,95.000000,0.000000,4176.410156,4344.615234,4165.128418,3973.333252,4203.589844,16149.000000,4.000000,,,,0.000000,4.000000,4.000000,4.000000,4.000000,4.000000,,,,,,,,,,,,,,,,,,,,,,,,,
1577998046.384322,96.000000,0.000000,4180.512695,4338.974121,4169.230957,3984.102539,4192.307617,450.000000,4.000000,,,,0.000000,4.000000,4.000000,4.000000,4.000000,4.000000,,,,,,,,,,,,,,,,,,,,,,,,,
1577998046.392020,97.000000,0.000000,4192.820313,4360.512695,4185.641113,4001.538574,4189.230957,450.000000,4.000000,,,,0.000000,4.000000,4.000000,4.000000,4.000000,4.000000,,,,,,,,,,,,,,,,,,,,,,,,,
1577998046.399720,98.000000,0.000000,4207.179688,4405.128418,4198.461426,4014.358887,4199.487305,450.000000,4.000000,,,,0.000000,4.000000,4.000000,4.000000,4.000000,4.000000,,,,,,,,,,,,,,,,,,,,,,,,,
1577998046.407519,99.000000,0.000000,4192.820313,4420.000000,4179.487305,4006.153809,4195.897461,16149.000000,4.000000,,,,0.000000,4.000000,4.000000,4.000000,4.000000,4.000000,,,,,,,,,,,,,,,,,,,,,,,,,
1577998046.415218,100.000000,0.000000,4190.769043,4435.897461,4170.256348,4003.076904,4185.641113,450.000000,4.000000,,,,0.000000,4.000000,4.000000,4.000000,4.000000,4.000000,,,,,,,,,,,,,,,,,,,,,,,,,
1577998046.423017,101.000000,0.000000,4228.205078,4486.153809,4202.563965,4030.256348,4202.563965,450.000000,4.000000,,,,0.000000,4.000000,4.000000,4.000000,4.000000,4.000000,,,,,,,,,,,,,,,,,,,,,,,,,
1577998046.430716,102.000000,0.000000,4227.179688,4489.743652,4204.615234,4033.333252,4209.743652,450.000000,4.000000,,,,0.000000,4.000000,4.000000,4.000000,4.000000,4.000000,,,,,,,,,,,,,,,,,,,,,,,,,
1577998046.438515,103.000000,0.000000,4188.205078,4483.589844,4172.307617,3999.487061,4184.102539,16149.000000,4.000000,,,,0.000000,4.000000,4.000000,4.000000,4.000000,4.000000,,,,,,,,,,,,,,,,,,,,,,,,,
1577998046.446215,104.000000,0.000000,4206.666504,4548.205078,4180.512695,4005.641113,4192.307617,450.000000,4.000000,,,,0.000000,4.000000,4.000000,4.000000,4.000000,4.000000,74.202164,10.823493,2.055092,1.664705,31.829992,701.856628,469.272156,166.281082,83.130585,50.286148,5.987055,2.412946,1.850044,0.957254,22.997053,30.723761,4.164547,2.419636,5.561202,44.780899,40.613506,11.036904,3.822154,1.213553,39.205223
1577998046.454014,105.000000,0.000000,4250.256348,4568.205078,4207.692383,4044.102539,4226.153809,450.000000,4.000000,,,,0.000000,4.000000,4.000000,4.000000,4.000000,4.000000,,,,,,,,,,,,,,,,,,,,,,,,,
1577998046.461713,106.000000,0.000000,4233.846191,4507.692383,4195.897461,4036.923096,4217.436035,450.000000,4.000000,,,,0.000000,4.000000,4.000000,4.000000,4.000000,4.000000,,,,,,,,,,,,,,,,,,,,,,,,,
1577998046.469512,107.000000,0.000000,4205.128418,4491.794922,4168.205078,4000.512939,4186.153809,16149.000000,4.000000,,,,0.000000,4.000000,4.000000,4.000000,4.000000,4.000000,,,,,,,,,,,,,,,,,,,,,,,,,
1577998046.477211,108.000000,0.000000,4222.051270,4551.794922,4170.769043,4002.051270,4178.974121,450.000000,4.000000,,,,0.000000,4.000000,4.000000,4.000000,4.000000,4.000000,,,,,,,,,,,,,,,,,,,,,,,,,
1577998046.485010,109.000000,0.000000,4240.000000,4613.846191,4187.179688,4031.794922,4189.743652,450.000000,4.000000,,,,0.000000,4.000000,4.000000,4.000000,4.000000,4.000000,,,,,,,,,,,,,,,,,,,,,,,,,
1577998046.492709,110.000000,0.000000,4225.128418,4614.871582,4187.179688,4033.846191,4185.128418,450.000000,4.000000,,,,0.000000,4.000000,4.000000,4.000000,4.000000,4.000000,,,,,,,,,,,,,,,,,,,,,,,,,
1577998046.500508,111.000000,0.000000,4205.641113,4546.153809,4183.589844,4013.333252,4164.615234,16149.000000,4.000000,,,,0.000000,4.000000,4.000000,4.000000,4.000000,4.000000,,,,,,,,,,,,,,,,,,,,,,,,,
1577998046.508307,112.000000,0.000000,4225.641113,4494.358887,4190.769043,4028.205078,4173.846191,450.000000,4.000000,,,,0.000000,4.000000,4.000000,4.000000,4.000000,4.000000,,,,,,,,,,,,,,,,,,,,,,,,,
1577998046.516005,113.000000,0.000000,4258.461426,4538.461426,4203.077148,4062.051270,4208.205078,450.000000,4.000000,,,,0.000000,4.000000,4.000000,4.000000,4.000000,4.000000,,,,,,,,,,,,,,,,,,,,,,,,,
1577998046.523703,114.000000,0.000000,4253.846191,4616.410156,4213.846191,4052.820557,4205.128418,450.000000,4.000000,,,,0.000000,4.000000,4.000000,4.000000,4.000000,4.000000,,,,,,,,,,,,,,,,,,,,,,,,,
1577998046.531403,115.000000,0.000000,4232.820313,4658.974121,4206.666504,4028.205078,4174.871582,16149.000000,4.000000,,,,0.000000,4.000000,4.000000,4.000000,4.000000,4.000000,,,,,,,,,,,,,,,,,,,,,,,,,
1577998046.539202,116.000000,0.000000,4242.051270,4681.025879,4198.461426,4041.538574,4185.128418,450.000000,4.000000,,,,0.000000,4.000000,4.000000,4.000000,4.000000,4.000000,,,,,,,,,,,,,,,,,,,,,,,,,
1577998046.547002,117.000000,0.000000,4252.307617,4692.307617,4206.153809,4061.538574,4202.563965,450.000000,4.000000,,,,0.000000,4.000000,4.000000,4.000000,4.000000,4.000000,,,,,,,,,,,,,,,,,,,,,,,,,
1577998046.554700,118.000000,0.000000,4222.563965,4673.846191,4200.000000,4041.025635,4169.230957,450.000000,4.000000,,,,0.000000,4.000000,4.000000,4.000000,4.000000,4.000000,,,,,,,,,,,,,,,,,,,,,,,,,
1577998046.562400,119.000000,0.000000,4208.717773,4687.179688,4191.794922,4029.230713,4152.820313,16149.000000,4.000000,,,,0.000000,4.000000,4.000000,4.000000,4.000000,4.000000,,,,,,,,,,,,,,,,,,,,,,,,,
1577998046.570199,120.000000,0.000000,4229.230957,4755.384766,4196.410156,4040.000000,4171.794922,450.000000,4.000000,,,,0.000000,4.000000,4.000000,4.000000,4.000000,4.000000,49.529812,9.399967,2.082037,1.793631,50.975765,1068.074951,735.602051,279.995087,136.202911,76.574547,7.718977,2.754086,1.716784,1.132992,36.820415,48.645889,6.914624,2.964197,8.327110,72.491158,41.537697,11.143476,5.284061,1.532764,62.766792
1577998046.577899,121.000000,0.000000,4225.128418,4750.256348,4193.333496,4024.102539,4160.512695,450.000000,4.000000,,,,0.000000,4.000000,4.000000,4.000000,4.000000,4.000000,,,,,,,,,,,,,,,,,,,,,,,,,
1577998046.585698,122.000000,0.000000,4213.846191,4666.153809,4193.333496,4011.794922,4143.077148,450.000000,4.000000,,,,0.000000,4.000000,4.000000,4.000000,4.000000,4.000000,,,,,,,,,,,,,,,,,,,,,,,,,
1577998046.593498,123.000000,0.000000,4218.974121,4609.230957,4198.974121,4016.410156,4146.153809,16149.000000,4.000000,,,,0.000000,4.000000,4.000000,4.000000,4.000000,4.000000,,,,,,,,,,,,,,,,,,,,,,,,,
1577998046.601196,124.000000,0.000000,4221.538574,4608.717773,4196.922852,4013.333252,4146.153809,450.000000,4.000000,,,,0.000000,4.000000,4.000000,4.000000,4.000000,4.000000,,,,,,,,,,,,,,,,,,,,,,,,,
