title:h2, start timestamp:2019-12-27T07:16:09.849220+03:00, stop timestamp:2019-12-27T07:16:49.922187+03:00, headset type:INSIGHT, headset serial:A2D200FB, headset firmware:930, subject name:Qasim, channels:75, sampling rate:eeg_128;pm_0.1;pow_8, samples:5142      , version:2.0
Timestamp,EEG.Counter,EEG.Interpolated,EEG.AF3,EEG.T7,EEG.Pz,EEG.T8,EEG.AF4,EEG.RawCq,EEG.Battery,MarkerIndex,MarkerType,MarkerValueInt,EEG.MarkerHardware,CQ.AF3,CQ.T7,CQ.Pz,CQ.T8,CQ.AF4,PM.Engagement.IsActive,PM.Engagement.Scaled,PM.Engagement.Raw,PM.Engagement.Min,PM.Engagement.Max,PM.Excitement.IsActive,PM.Excitement.Scaled,PM.Excitement.Raw,PM.Excitement.Min,PM.Excitement.Max,PM.LongTermExcitement,PM.Stress.IsActive,PM.Stress.Scaled,PM.Stress.Raw,PM.Stress.Min,PM.Stress.Max,PM.Relaxation.IsActive,PM.Relaxation.Scaled,PM.Relaxation.Raw,PM.Relaxation.Min,PM.Relaxation.Max,PM.Interest.IsActive,PM.Interest.Scaled,PM.Interest.Raw,PM.Interest.Min,PM.Interest.Max,PM.Focus.IsActive,PM.Focus.Scaled,PM.Focus.Raw,PM.Focus.Min,PM.Focus.Max,POW.AF3.Theta,POW.AF3.Alpha,POW.AF3.BetaL,POW.AF3.BetaH,POW.AF3.Gamma,POW.T7.Theta,POW.T7.Alpha,POW.T7.BetaL,POW.T7.BetaH,POW.T7.Gamma,POW.Pz.Theta,POW.Pz.Alpha,POW.Pz.BetaL,POW.Pz.BetaH,POW.Pz.Gamma,POW.T8.Theta,POW.T8.Alpha,POW.T8.BetaL,POW.T8.BetaH,POW.T8.Gamma,POW.AF4.Theta,POW.AF4.Alpha,POW.AF4.BetaL,POW.AF4.BetaH,POW.AF4.Gamma
1577420169.849220,10.000000,0.000000,4327.179688,4318.974121,4187.179688,4172.307617,4269.230957,450.000000,4.000000,,,,0.000000,4.000000,4.000000,4.000000,4.000000,4.000000,,,,,,,,,,,,,,,,,,,,,,,,,,,,,,,,,,,,,,,,,,,,,,,,,,,,,,,,
1577420169.856917,11.000000,0.000000,4344.102539,4325.641113,4194.871582,4187.692383,4297.436035,16172.000000,4.000000,,,,0.000000,4.000000,4.000000,4.000000,4.000000,4.000000,,,,,,,,,,,,,,,,,,,,,,,,,,,,,,,,,,,,,,,,,,,,,,,,,,,,,,,,
1577420169.864713,12.000000,0.000000,4358.461426,4324.102539,4215.897461,4191.282227,4298.974121,450.000000,4.000000,,,,0.000000,4.000000,4.000000,4.000000,4.000000,4.000000,,,,,,,,,,,,,,,,,,,,,,,,,,,,,,,,,,,,,,,,,,,,,,,,,,,,,,,,
1577420169.872410,13.000000,0.000000,4340.512695,4336.410156,4215.897461,4184.102539,4268.717773,450.000000,4.000000,,,,0.000000,4.000000,4.000000,4.000000,4.000000,4.000000,,,,,,,,,,,,,,,,,,,,,,,,,,,,,,,,,,,,,,,,,,,,,,,,,,,,,,,,
1577420169.880207,14.000000,0.000000,4307.179688,4341.025879,4206.153809,4184.102539,4247.692383,450.000000,4.000000,,,,0.000000,4.000000,4.000000,4.000000,4.000000,4.000000,,,,,,,,,,,,,,,,,,,,,,,,,,,,,,,,,,,,,,,,,,,,,,,,,,,,,,,,
1577420169.887903,15.000000,0.000000,4315.897461,4333.333496,4218.974121,4183.589844,4261.025879,16172.000000,4.000000,,,,0.000000,4.000000,4.000000,4.000000,4.000000,4.000000,,,,,,,,,,,,,,,,,,,,,,,,,,,,,,,,,,,,,,,,,,,,,,,,,,,,,,,,
1577420169.895700,16.000000,0.000000,4338.974121,4315.384766,4229.230957,4192.820313,4276.922852,0.000000,4.000000,,,,0.000000,4.000000,4.000000,4.000000,4.000000,4.000000,,,,,,,,,,,,,,,,,,,,,,,,,,,,,,,,,,,,,,,,,,,,,,,,,,,,,,,,
1577420169.903396,17.000000,0.000000,4339.487305,4316.410156,4233.333496,4209.743652,4276.410156,0.000000,4.000000,,,,0.000000,4.000000,4.000000,4.000000,4.000000,4.000000,,,,,,,,,,,,,,,,,,,,,,,,,,,,,,,,,,,,,,,,,,,,,,,,,,,,,,,,
1577420169.911193,18.000000,0.000000,4331.282227,4330.256348,4231.794922,4191.282227,4254.871582,0.000000,4.000000,,,,0.000000,4.000000,4.000000,4.000000,4.000000,4.000000,,,,,,,,,,,,,,,,,,,,,,,,,,,,,,,,,,,,,,,,,,,,,,,,,,,,,,,,
1577420169.918890,19.000000,0.000000,4316.922852,4326.153809,4223.077148,4164.615234,4230.256348,0.000000,4.000000,,,,0.000000,4.000000,4.000000,4.000000,4.000000,4.000000,,,,,,,,,,,,,,,,,,,,,,,,,,,,,,,,,,,,,,,,,,,,,,,,,,,,,,,,
1577420169.926686,20.000000,0.000000,4324.102539,4330.769043,4237.948730,4186.666504,4250.256348,0.000000,4.000000,,,,0.000000,4.000000,4.000000,4.000000,4.000000,4.000000,,,,,,,,,,,,,,,,,,,,,,,,,,,,,,,,23.710440,7.933482,8.740269,6.479611,8.365256,63.629108,3.514157,3.624384,3.726002,6.498802,68.158127,5.361057,5.996801,3.969180,4.734253,29.512278,4.285764,8.959951,7.648768,5.532648,32.488415,7.037951,6.239889,4.773115,3.694268
1577420169.934382,21.000000,0.000000,4328.205078,4338.974121,4247.692383,4187.692383,4262.563965,0.000000,4.000000,,,,0.000000,4.000000,4.000000,4.000000,4.000000,4.000000,,,,,,,,,,,,,,,,,,,,,,,,,,,,,,,,,,,,,,,,,,,,,,,,,,,,,,,,
1577420169.942179,22.000000,0.000000,4320.000000,4340.512695,4246.666504,4184.102539,4255.384766,0.000000,4.000000,,,,0.000000,4.000000,4.000000,4.000000,4.000000,4.000000,,,,,,,,,,,,,,,,,,,,,,,,,,,,,,,,,,,,,,,,,,,,,,,,,,,,,,,,
1577420169.949875,23.000000,0.000000,4340.512695,4342.563965,4259.487305,4222.051270,4272.307617,0.000000,4.000000,,,,0.000000,4.000000,4.000000,4.000000,4.000000,4.000000,,,,,,,,,,,,,,,,,,,,,,,,,,,,,,,,,,,,,,,,,,,,,,,,,,,,,,,,
1577420169.957671,24.000000,0.000000,4348.205078,4342.051270,4253.333496,4245.128418,4276.410156,0.000000,4.000000,,,,0.000000,4.000000,4.000000,4.000000,4.000000,4.000000,,,,,,,,,,,,,,,,,,,,,,,,,,,,,,,,,,,,,,,,,,,,,,,,,,,,,,,,
1577420169.965368,25.000000,0.000000,4339.487305,4354.871582,4251.794922,4222.051270,4278.974121,0.000000,4.000000,,,,0.000000,4.000000,4.000000,4.000000,4.000000,4.000000,,,,,,,,,,,,,,,,,,,,,,,,,,,,,,,,,,,,,,,,,,,,,,,,,,,,,,,,
1577420169.973164,26.000000,0.000000,4334.871582,4363.589844,4263.589844,4176.410156,4284.102539,0.000000,4.000000,,,,0.000000,4.000000,4.000000,4.000000,4.000000,4.000000,,,,,,,,,,,,,,,,,,,,,,,,,,,,,,,,,,,,,,,,,,,,,,,,,,,,,,,,
1577420169.980861,27.000000,0.000000,4324.102539,4350.256348,4254.358887,4186.666504,4262.563965,0.000000,4.000000,,,,0.000000,4.000000,4.000000,4.000000,4.000000,4.000000,,,,,,,,,,,,,,,,,,,,,,,,,,,,,,,,,,,,,,,,,,,,,,,,,,,,,,,,
1577420169.988657,28.000000,0.000000,4337.948730,4340.512695,4242.563965,4232.820313,4253.333496,0.000000,4.000000,,,,0.000000,4.000000,4.000000,4.000000,4.000000,4.000000,,,,,,,,,,,,,,,,,,,,,,,,,,,,,,,,,,,,,,,,,,,,,,,,,,,,,,,,
1577420169.996353,29.000000,0.000000,4348.717773,4336.922852,4240.512695,4239.487305,4261.538574,0.000000,4.000000,,,,0.000000,4.000000,4.000000,4.000000,4.000000,4.000000,,,,,,,,,,,,,,,,,,,,,,,,,,,,,,,,,,,,,,,,,,,,,,,,,,,,,,,,
1577420170.004050,30.000000,0.000000,4347.179688,4338.461426,4253.846191,4234.871582,4270.256348,0.000000,4.000000,,,,0.000000,4.000000,4.000000,4.000000,4.000000,4.000000,,,,,,,,,,,,,,,,,,,,,,,,,,,,,,,,,,,,,,,,,,,,,,,,,,,,,,,,
1577420170.011746,31.000000,0.000000,4345.641113,4340.000000,4260.000000,4225.128418,4269.230957,0.000000,4.000000,,,,0.000000,4.000000,4.000000,4.000000,4.000000,4.000000,,,,,,,,,,,,,,,,,,,,,,,,,,,,,,,,,,,,,,,,,,,,,,,,,,,,,,,,
1577420170.019543,32.000000,0.000000,4320.000000,4341.538574,4240.000000,4192.820313,4251.282227,0.000000,4.000000,,,,0.000000,4.000000,4.000000,4.000000,4.000000,4.000000,,,,,,,,,,,,,,,,,,,,,,,,,,,,,,,,,,,,,,,,,,,,,,,,,,,,,,,,
1577420170.027240,33.000000,0.000000,4316.922852,4358.974121,4237.948730,4196.410156,4247.179688,0.000000,4.000000,,,,0.000000,4.000000,4.000000,4.000000,4.000000,4.000000,,,,,,,,,,,,,,,,,,,,,,,,,,,,,,,,,,,,,,,,,,,,,,,,,,,,,,,,
1577420170.035036,34.000000,0.000000,4348.717773,4345.128418,4255.897461,4230.769043,4261.025879,0.000000,4.000000,,,,0.000000,4.000000,4.000000,4.000000,4.000000,4.000000,,,,,,,,,,,,,,,,,,,,,,,,,,,,,,,,,,,,,,,,,,,,,,,,,,,,,,,,
1577420170.042733,35.000000,0.000000,4376.410156,4330.769043,4268.717773,4245.128418,4282.563965,0.000000,4.000000,,,,0.000000,4.000000,4.000000,4.000000,4.000000,4.000000,,,,,,,,,,,,,,,,,,,,,,,,,,,,,,,,,,,,,,,,,,,,,,,,,,,,,,,,
1577420170.050429,36.000000,0.000000,4371.282227,4357.436035,4273.846191,4236.922852,4289.743652,0.000000,4.000000,,,,0.000000,4.000000,4.000000,4.000000,4.000000,4.000000,,,,,,,,,,,,,,,,,,,,,,,,,,,,,,,,28.487150,12.099528,10.985378,7.552555,14.524868,73.166931,4.348318,4.263041,4.856214,9.798991,82.252037,6.830880,7.340322,4.296251,8.116036,25.734426,5.967724,7.937976,7.334362,7.319181,32.828762,11.651599,7.366818,4.917642,5.914114
1577420170.058226,37.000000,0.000000,4338.461426,4372.820313,4273.846191,4233.333496,4272.307617,0.000000,4.000000,,,,0.000000,4.000000,4.000000,4.000000,4.000000,4.000000,,,,,,,,,,,,,,,,,,,,,,,,,,,,,,,,,,,,,,,,,,,,,,,,,,,,,,,,
1577420170.065923,38.000000,0.000000,4348.205078,4377.436035,4283.077148,4270.256348,4271.282227,0.000000,4.000000,,,,0.000000,4.000000,4.000000,4.000000,4.000000,4.000000,,,,,,,,,,,,,,,,,,,,,,,,,,,,,,,,,,,,,,,,,,,,,,,,,,,,,,,,
1577420170.073719,39.000000,0.000000,4359.487305,4369.743652,4283.077148,4245.128418,4265.641113,0.000000,4.000000,,,,0.000000,4.000000,4.000000,4.000000,4.000000,4.000000,,,,,,,,,,,,,,,,,,,,,,,,,,,,,,,,,,,,,,,,,,,,,,,,,,,,,,,,
1577420170.081416,40.000000,0.000000,4335.897461,4362.051270,4290.769043,4180.000000,4257.948730,0.000000,4.000000,,,,0.000000,4.000000,4.000000,4.000000,4.000000,4.000000,,,,,,,,,,,,,,,,,,,,,,,,,,,,,,,,,,,,,,,,,,,,,,,,,,,,,,,,
1577420170.089212,41.000000,0.000000,4346.153809,4376.922852,4320.000000,4217.948730,4278.974121,0.000000,4.000000,,,,0.000000,4.000000,4.000000,4.000000,4.000000,4.000000,,,,,,,,,,,,,,,,,,,,,,,,,,,,,,,,,,,,,,,,,,,,,,,,,,,,,,,,
1577420170.096909,42.000000,0.000000,4359.487305,4375.897461,4321.538574,4271.794922,4278.974121,0.000000,4.000000,,,,0.000000,4.000000,4.000000,4.000000,4.000000,4.000000,,,,,,,,,,,,,,,,,,,,,,,,,,,,,,,,,,,,,,,,,,,,,,,,,,,,,,,,
1577420170.104705,43.000000,0.000000,4351.282227,4364.615234,4315.897461,4252.307617,4268.205078,0.000000,4.000000,,,,0.000000,4.000000,4.000000,4.000000,4.000000,4.000000,,,,,,,,,,,,,,,,,,,,,,,,,,,,,,,,,,,,,,,,,,,,,,,,,,,,,,,,
1577420170.112402,44.000000,0.000000,4329.230957,4348.717773,4312.820313,4215.897461,4258.461426,0.000000,4.000000,,,,0.000000,4.000000,4.000000,4.000000,4.000000,4.000000,,,,,,,,,,,,,,,,,,,,,,,,,,,,,,,,,,,,,,,,,,,,,,,,,,,,,,,,
1577420170.120299,45.000000,0.000000,4287.692383,4337.436035,4297.436035,4222.051270,4236.410156,0.000000,4.000000,,,,0.000000,4.000000,4.000000,4.000000,4.000000,4.000000,,,,,,,,,,,,,,,,,,,,,,,,,,,,,,,,,,,,,,,,,,,,,,,,,,,,,,,,
1577420170.128095,46.000000,0.000000,4284.615234,4351.282227,4296.410156,4239.487305,4229.743652,0.000000,4.000000,,,,0.000000,4.000000,4.000000,4.000000,4.000000,4.000000,,,,,,,,,,,,,,,,,,,,,,,,,,,,,,,,,,,,,,,,,,,,,,,,,,,,,,,,
1577420170.135992,47.000000,0.000000,4309.743652,4352.307617,4302.051270,4232.307617,4235.384766,0.000000,4.000000,,,,0.000000,4.000000,4.000000,4.000000,4.000000,4.000000,,,,,,,,,,,,,,,,,,,,,,,,,,,,,,,,,,,,,,,,,,,,,,,,,,,,,,,,
1577420170.143789,48.000000,0.000000,4323.077148,4354.871582,4320.512695,4240.000000,4248.717773,0.000000,4.000000,,,,0.000000,4.000000,4.000000,4.000000,4.000000,4.000000,,,,,,,,,,,,,,,,,,,,,,,,,,,,,,,,,,,,,,,,,,,,,,,,,,,,,,,,
1577420170.151686,49.000000,0.000000,4310.769043,4361.538574,4321.538574,4252.820313,4252.307617,0.000000,4.000000,,,,0.000000,4.000000,4.000000,4.000000,4.000000,4.000000,,,,,,,,,,,,,,,,,,,,,,,,,,,,,,,,,,,,,,,,,,,,,,,,,,,,,,,,
1577420170.159482,50.000000,0.000000,4284.615234,4334.358887,4296.410156,4262.051270,4248.205078,0.000000,4.000000,,,,0.000000,4.000000,4.000000,4.000000,4.000000,4.000000,,,,,,,,,,,,,,,,,,,,,,,,,,,,,,,,,,,,,,,,,,,,,,,,,,,,,,,,
1577420170.167379,51.000000,0.000000,4305.641113,4323.077148,4307.179688,4276.410156,4271.794922,0.000000,4.000000,,,,0.000000,4.000000,4.000000,4.000000,4.000000,4.000000,,,,,,,,,,,,,,,,,,,,,,,,,,,,,,,,,,,,,,,,,,,,,,,,,,,,,,,,
1577420170.175176,52.000000,0.000000,4335.384766,4343.077148,4315.384766,4253.846191,4286.666504,0.000000,4.000000,,,,0.000000,4.000000,4.000000,4.000000,4.000000,4.000000,,,,,,,,,,,,,,,,,,,,,,,,,,,,,,,,40.346828,16.298134,13.574634,9.171931,21.307375,76.672829,5.059488,4.958924,6.231535,13.410573,101.418846,7.770895,8.795534,4.918788,11.875133,25.335085,7.765717,7.144749,7.612409,9.309153,39.338310,16.607140,8.759630,5.449549,8.436743
1577420170.183072,53.000000,0.000000,4336.410156,4359.487305,4304.102539,4236.410156,4284.102539,0.000000,4.000000,,,,0.000000,4.000000,4.000000,4.000000,4.000000,4.000000,,,,,,,,,,,,,,,,,,,,,,,,,,,,,,,,,,,,,,,,,,,,,,,,,,,,,,,,
1577420170.190869,54.000000,0.000000,4328.717773,4354.871582,4308.717773,4257.436035,4277.436035,0.000000,4.000000,,,,0.000000,4.000000,4.000000,4.000000,4.000000,4.000000,,,,,,,,,,,,,,,,,,,,,,,,,,,,,,,,,,,,,,,,,,,,,,,,,,,,,,,,
1577420170.198765,55.000000,0.000000,4303.589844,4336.410156,4309.743652,4285.641113,4257.948730,0.000000,4.000000,,,,0.000000,4.000000,4.000000,4.000000,4.000000,4.000000,,,,,,,,,,,,,,,,,,,,,,,,,,,,,,,,,,,,,,,,,,,,,,,,,,,,,,,,
1577420170.206562,56.000000,0.000000,4305.128418,4340.000000,4312.307617,4303.589844,4257.948730,0.000000,4.000000,,,,0.000000,4.000000,4.000000,4.000000,4.000000,4.000000,,,,,,,,,,,,,,,,,,,,,,,,,,,,,,,,,,,,,,,,,,,,,,,,,,,,,,,,
1577420170.214458,57.000000,0.000000,4318.974121,4347.692383,4305.641113,4264.102539,4268.717773,0.000000,4.000000,,,,0.000000,4.000000,4.000000,4.000000,4.000000,4.000000,,,,,,,,,,,,,,,,,,,,,,,,,,,,,,,,,,,,,,,,,,,,,,,,,,,,,,,,
1577420170.222255,58.000000,0.000000,4307.692383,4356.410156,4302.563965,4243.589844,4273.333496,0.000000,4.000000,,,,0.000000,4.000000,4.000000,4.000000,4.000000,4.000000,,,,,,,,,,,,,,,,,,,,,,,,,,,,,,,,,,,,,,,,,,,,,,,,,,,,,,,,
1577420170.230051,59.000000,0.000000,4301.025879,4372.307617,4314.358887,4280.512695,4274.358887,0.000000,4.000000,,,,0.000000,4.000000,4.000000,4.000000,4.000000,4.000000,,,,,,,,,,,,,,,,,,,,,,,,,,,,,,,,,,,,,,,,,,,,,,,,,,,,,,,,
1577420170.237748,60.000000,0.000000,4304.102539,4361.025879,4307.692383,4276.922852,4269.230957,0.000000,4.000000,,,,0.000000,4.000000,4.000000,4.000000,4.000000,4.000000,,,,,,,,,,,,,,,,,,,,,,,,,,,,,,,,,,,,,,,,,,,,,,,,,,,,,,,,
1577420170.245544,61.000000,0.000000,4320.000000,4365.128418,4316.410156,4270.769043,4278.974121,0.000000,4.000000,,,,0.000000,4.000000,4.000000,4.000000,4.000000,4.000000,,,,,,,,,,,,,,,,,,,,,,,,,,,,,,,,,,,,,,,,,,,,,,,,,,,,,,,,
1577420170.253341,62.000000,0.000000,4315.897461,4377.948730,4335.384766,4301.538574,4286.153809,0.000000,4.000000,,,,0.000000,4.000000,4.000000,4.000000,4.000000,4.000000,,,,,,,,,,,,,,,,,,,,,,,,,,,,,,,,,,,,,,,,,,,,,,,,,,,,,,,,
1577420170.261137,63.000000,0.000000,4288.205078,4353.333496,4323.077148,4303.589844,4276.922852,0.000000,4.000000,,,,0.000000,4.000000,4.000000,4.000000,4.000000,4.000000,,,,,,,,,,,,,,,,,,,,,,,,,,,,,,,,,,,,,,,,,,,,,,,,,,,,,,,,
1577420170.268834,64.000000,0.000000,4292.307617,4345.641113,4307.179688,4280.000000,4280.000000,450.000000,4.000000,,,,0.000000,4.000000,4.000000,4.000000,4.000000,4.000000,,,,,,,,,,,,,,,,,,,,,,,,,,,,,,,,,,,,,,,,,,,,,,,,,,,,,,,,
1577420170.276531,65.000000,0.000000,4300.512695,4357.436035,4291.794922,4263.589844,4289.743652,450.000000,4.000000,,,,0.000000,4.000000,4.000000,4.000000,4.000000,4.000000,,,,,,,,,,,,,,,,,,,,,,,,,,,,,,,,,,,,,,,,,,,,,,,,,,,,,,,,
1577420170.284327,66.000000,0.000000,4300.512695,4371.794922,4289.743652,4251.282227,4296.410156,16245.000000,4.000000,,,,0.000000,4.000000,4.000000,4.000000,4.000000,4.000000,,,,,,,,,,,,,,,,,,,,,,,,,,,,,,,,,,,,,,,,,,,,,,,,,,,,,,,,
1577420170.292024,67.000000,0.000000,4286.153809,4362.051270,4290.769043,4248.205078,4277.436035,450.000000,4.000000,,,,0.000000,4.000000,4.000000,4.000000,4.000000,4.000000,,,,,,,,,,,,,,,,,,,,,,,,,,,,,,,,,,,,,,,,,,,,,,,,,,,,,,,,
1577420170.299920,68.000000,0.000000,4254.358887,4332.307617,4274.358887,4271.282227,4247.179688,16227.000000,4.000000,,,,0.000000,4.000000,4.000000,4.000000,4.000000,4.000000,,,,,,,,,,,,,,,,,,,,,,,,,,,,,,,,51.855209,19.544067,15.554110,10.701066,26.637949,72.614586,5.449615,5.348945,7.404599,16.209610,116.797089,7.910126,9.851415,5.513122,14.843369,26.719391,9.180398,6.516563,8.180147,10.826283,47.488995,20.764132,9.831839,6.070346,10.502313
1577420170.307717,69.000000,0.000000,4263.589844,4347.692383,4278.974121,4280.512695,4261.538574,450.000000,4.000000,,,,0.000000,4.000000,4.000000,4.000000,4.000000,4.000000,,,,,,,,,,,,,,,,,,,,,,,,,,,,,,,,,,,,,,,,,,,,,,,,,,,,,,,,
1577420170.315514,70.000000,0.000000,4286.153809,4366.153809,4282.051270,4255.384766,4290.256348,16137.000000,4.000000,,,,0.000000,4.000000,4.000000,4.000000,4.000000,4.000000,,,,,,,,,,,,,,,,,,,,,,,,,,,,,,,,,,,,,,,,,,,,,,,,,,,,,,,,
1577420170.323211,71.000000,0.000000,4287.692383,4342.563965,4271.282227,4237.948730,4296.922852,450.000000,4.000000,,,,0.000000,4.000000,4.000000,4.000000,4.000000,4.000000,,,,,,,,,,,,,,,,,,,,,,,,,,,,,,,,,,,,,,,,,,,,,,,,,,,,,,,,
1577420170.331007,72.000000,0.000000,4278.461426,4330.256348,4266.666504,4220.000000,4280.512695,450.000000,4.000000,,,,0.000000,4.000000,4.000000,4.000000,4.000000,4.000000,,,,,,,,,,,,,,,,,,,,,,,,,,,,,,,,,,,,,,,,,,,,,,,,,,,,,,,,
1577420170.338704,73.000000,0.000000,4259.487305,4352.307617,4262.563965,4222.051270,4258.974121,16167.000000,4.000000,,,,0.000000,4.000000,4.000000,4.000000,4.000000,4.000000,,,,,,,,,,,,,,,,,,,,,,,,,,,,,,,,,,,,,,,,,,,,,,,,,,,,,,,,
1577420170.346500,74.000000,0.000000,4274.871582,4369.230957,4270.769043,4262.563965,4276.922852,450.000000,4.000000,,,,0.000000,4.000000,4.000000,4.000000,4.000000,4.000000,,,,,,,,,,,,,,,,,,,,,,,,,,,,,,,,,,,,,,,,,,,,,,,,,,,,,,,,
1577420170.354197,75.000000,0.000000,4298.461426,4355.897461,4272.307617,4249.230957,4298.974121,16205.000000,4.000000,,,,0.000000,4.000000,4.000000,4.000000,4.000000,4.000000,,,,,,,,,,,,,,,,,,,,,,,,,,,,,,,,,,,,,,,,,,,,,,,,,,,,,,,,
1577420170.361993,76.000000,0.000000,4292.307617,4348.205078,4269.743652,4228.205078,4304.615234,450.000000,4.000000,,,,0.000000,4.000000,4.000000,4.000000,4.000000,4.000000,,,,,,,,,,,,,,,,,,,,,,,,,,,,,,,,,,,,,,,,,,,,,,,,,,,,,,,,
1577420170.369690,77.000000,0.000000,4288.205078,4355.384766,4276.922852,4277.948730,4310.769043,450.000000,4.000000,,,,0.000000,4.000000,4.000000,4.000000,4.000000,4.000000,,,,,,,,,,,,,,,,,,,,,,,,,,,,,,,,,,,,,,,,,,,,,,,,,,,,,,,,
1577420170.377487,78.000000,0.000000,4301.025879,4362.051270,4278.974121,4273.846191,4317.436035,450.000000,4.000000,,,,0.000000,4.000000,4.000000,4.000000,4.000000,4.000000,,,,,,,,,,,,,,,,,,,,,,,,,,,,,,,,,,,,,,,,,,,,,,,,,,,,,,,,
1577420170.385183,79.000000,0.000000,4325.128418,4368.205078,4293.846191,4218.974121,4341.025879,16205.000000,4.000000,,,,0.000000,4.000000,4.000000,4.000000,4.000000,4.000000,,,,,,,,,,,,,,,,,,,,,,,,,,,,,,,,,,,,,,,,,,,,,,,,,,,,,,,,
1577420170.393080,80.000000,0.000000,4306.153809,4338.461426,4288.717773,4211.282227,4323.589844,450.000000,4.000000,,,,0.000000,4.000000,4.000000,4.000000,4.000000,4.000000,,,,,,,,,,,,,,,,,,,,,,,,,,,,,,,,,,,,,,,,,,,,,,,,,,,,,,,,
1577420170.400976,81.000000,0.000000,4248.717773,4321.025879,4265.641113,4241.538574,4273.846191,450.000000,4.000000,,,,0.000000,4.000000,4.000000,4.000000,4.000000,4.000000,,,,,,,,,,,,,,,,,,,,,,,,,,,,,,,,,,,,,,,,,,,,,,,,,,,,,,,,
1577420170.408773,82.000000,0.000000,4387.179688,4446.153809,4381.025879,4350.769043,4380.512695,450.000000,4.000000,,,,0.000000,4.000000,4.000000,4.000000,4.000000,4.000000,,,,,,,,,,,,,,,,,,,,,,,,,,,,,,,,,,,,,,,,,,,,,,,,,,,,,,,,
1577420170.416570,83.000000,0.000000,4323.589844,4344.102539,4289.743652,4236.922852,4313.333496,16205.000000,4.000000,,,,0.000000,4.000000,4.000000,4.000000,4.000000,4.000000,,,,,,,,,,,,,,,,,,,,,,,,,,,,,,,,,,,,,,,,,,,,,,,,,,,,,,,,
1577420170.424466,84.000000,0.000000,4155.384766,4279.487305,4208.205078,4176.410156,4256.410156,450.000000,4.000000,,,,0.000000,4.000000,4.000000,4.000000,4.000000,4.000000,,,,,,,,,,,,,,,,,,,,,,,,,,,,,,,,57.428440,20.962744,16.033054,11.397943,28.648394,62.149818,5.414332,5.224551,7.917284,17.168945,122.470055,7.227171,10.051037,5.689145,15.960145,27.203379,9.773884,5.887980,8.599598,11.302791,52.744968,23.072073,10.060567,6.359115,11.380244
1577420170.432263,85.000000,0.000000,4808.717773,4769.743652,4718.461426,4568.717773,4698.974121,450.000000,4.000000,,,,0.000000,4.000000,4.000000,4.000000,4.000000,4.000000,,,,,,,,,,,,,,,,,,,,,,,,,,,,,,,,,,,,,,,,,,,,,,,,,,,,,,,,
1577420170.440159,86.000000,0.000000,4914.358887,4638.974121,4683.589844,4471.282227,4643.077148,450.000000,4.000000,,,,0.000000,4.000000,4.000000,4.000000,4.000000,4.000000,,,,,,,,,,,,,,,,,,,,,,,,,,,,,,,,,,,,,,,,,,,,,,,,,,,,,,,,
1577420170.447956,87.000000,0.000000,4491.794922,4316.410156,4438.974121,4375.897461,4534.358887,16205.000000,4.000000,,,,0.000000,4.000000,4.000000,4.000000,4.000000,4.000000,,,,,,,,,,,,,,,,,,,,,,,,,,,,,,,,,,,,,,,,,,,,,,,,,,,,,,,,
1577420170.455652,88.000000,0.000000,4700.512695,4532.820313,4641.025879,4551.794922,4733.333496,450.000000,4.000000,,,,0.000000,4.000000,4.000000,4.000000,4.000000,4.000000,,,,,,,,,,,,,,,,,,,,,,,,,,,,,,,,,,,,,,,,,,,,,,,,,,,,,,,,
1577420170.463449,89.000000,0.000000,4525.641113,4397.948730,4435.384766,4273.846191,4429.230957,450.000000,4.000000,,,,0.000000,4.000000,4.000000,4.000000,4.000000,4.000000,,,,,,,,,,,,,,,,,,,,,,,,,,,,,,,,,,,,,,,,,,,,,,,,,,,,,,,,
1577420170.471145,90.000000,0.000000,4337.948730,4335.384766,4346.666504,4240.512695,4348.717773,450.000000,4.000000,,,,0.000000,4.000000,4.000000,4.000000,4.000000,4.000000,,,,,,,,,,,,,,,,,,,,,,,,,,,,,,,,,,,,,,,,,,,,,,,,,,,,,,,,
1577420170.478942,91.000000,0.000000,4427.692383,4409.743652,4414.871582,4324.615234,4409.230957,16205.000000,4.000000,,,,0.000000,4.000000,4.000000,4.000000,4.000000,4.000000,,,,,,,,,,,,,,,,,,,,,,,,,,,,,,,,,,,,,,,,,,,,,,,,,,,,,,,,
1577420170.486639,92.000000,0.000000,4325.641113,4333.846191,4321.025879,4245.128418,4294.358887,450.000000,4.000000,,,,0.000000,4.000000,4.000000,4.000000,4.000000,4.000000,,,,,,,,,,,,,,,,,,,,,,,,,,,,,,,,,,,,,,,,,,,,,,,,,,,,,,,,
1577420170.494435,93.000000,0.000000,4321.538574,4360.000000,4341.025879,4223.077148,4309.230957,450.000000,4.000000,,,,0.000000,4.000000,4.000000,4.000000,4.000000,4.000000,,,,,,,,,,,,,,,,,,,,,,,,,,,,,,,,,,,,,,,,,,,,,,,,,,,,,,,,
1577420170.502132,94.000000,0.000000,4296.922852,4354.871582,4309.743652,4164.102539,4273.846191,450.000000,4.000000,,,,0.000000,4.000000,4.000000,4.000000,4.000000,4.000000,,,,,,,,,,,,,,,,,,,,,,,,,,,,,,,,,,,,,,,,,,,,,,,,,,,,,,,,
1577420170.509928,95.000000,0.000000,4276.410156,4371.282227,4291.282227,4208.205078,4260.000000,16205.000000,4.000000,,,,0.000000,4.000000,4.000000,4.000000,4.000000,4.000000,,,,,,,,,,,,,,,,,,,,,,,,,,,,,,,,,,,,,,,,,,,,,,,,,,,,,,,,
1577420170.517625,96.000000,0.000000,4268.717773,4377.436035,4303.589844,4230.769043,4258.461426,450.000000,4.000000,,,,0.000000,4.000000,4.000000,4.000000,4.000000,4.000000,,,,,,,,,,,,,,,,,,,,,,,,,,,,,,,,,,,,,,,,,,,,,,,,,,,,,,,,
1577420170.525421,97.000000,0.000000,4261.538574,4364.615234,4314.358887,4231.794922,4258.974121,450.000000,4.000000,,,,0.000000,4.000000,4.000000,4.000000,4.000000,4.000000,,,,,,,,,,,,,,,,,,,,,,,,,,,,,,,,,,,,,,,,,,,,,,,,,,,,,,,,
1577420170.533118,98.000000,0.000000,4271.794922,4365.641113,4312.820313,4195.384766,4255.897461,450.000000,4.000000,,,,0.000000,4.000000,4.000000,4.000000,4.000000,4.000000,,,,,,,,,,,,,,,,,,,,,,,,,,,,,,,,,,,,,,,,,,,,,,,,,,,,,,,,
1577420170.541015,99.000000,0.000000,4252.820313,4353.333496,4290.769043,4124.102539,4228.717773,16205.000000,4.000000,,,,0.000000,4.000000,4.000000,4.000000,4.000000,4.000000,,,,,,,,,,,,,,,,,,,,,,,,,,,,,,,,,,,,,,,,,,,,,,,,,,,,,,,,
1577420170.548811,100.000000,0.000000,4251.282227,4363.589844,4295.897461,4207.692383,4229.230957,450.000000,4.000000,,,,0.000000,4.000000,4.000000,4.000000,4.000000,4.000000,,,,,,,,,,,,,,,,,,,,,,,,,,,,,,,,55.189713,20.326389,14.766454,10.851727,26.592081,47.721020,5.085838,4.622700,7.536633,15.866542,112.556290,6.057319,9.240787,5.232230,14.789010,25.484673,9.432150,5.231327,8.600039,10.557029,52.100735,23.070652,9.337047,6.037200,10.721190
1577420170.556708,101.000000,0.000000,4261.538574,4373.846191,4299.487305,4287.692383,4230.769043,450.000000,4.000000,,,,0.000000,4.000000,4.000000,4.000000,4.000000,4.000000,,,,,,,,,,,,,,,,,,,,,,,,,,,,,,,,,,,,,,,,,,,,,,,,,,,,,,,,
1577420170.564505,102.000000,0.000000,4227.179688,4352.820313,4268.205078,4142.051270,4205.128418,450.000000,4.000000,,,,0.000000,4.000000,4.000000,4.000000,4.000000,4.000000,,,,,,,,,,,,,,,,,,,,,,,,,,,,,,,,,,,,,,,,,,,,,,,,,,,,,,,,
1577420170.572402,103.000000,0.000000,4218.461426,4355.384766,4267.179688,4095.384521,4202.563965,16205.000000,4.000000,,,,0.000000,4.000000,4.000000,4.000000,4.000000,4.000000,,,,,,,,,,,,,,,,,,,,,,,,,,,,,,,,,,,,,,,,,,,,,,,,,,,,,,,,
1577420170.580198,104.000000,0.000000,4228.205078,4361.025879,4271.794922,4209.230957,4191.282227,450.000000,4.000000,,,,0.000000,4.000000,4.000000,4.000000,4.000000,4.000000,,,,,,,,,,,,,,,,,,,,,,,,,,,,,,,,,,,,,,,,,,,,,,,,,,,,,,,,
1577420170.588095,105.000000,0.000000,4210.256348,4362.563965,4258.461426,4194.358887,4178.461426,450.000000,4.000000,,,,0.000000,4.000000,4.000000,4.000000,4.000000,4.000000,,,,,,,,,,,,,,,,,,,,,,,,,,,,,,,,,,,,,,,,,,,,,,,,,,,,,,,,
1577420170.595892,106.000000,0.000000,4225.128418,4392.307617,4276.410156,4142.051270,4202.051270,450.000000,4.000000,,,,0.000000,4.000000,4.000000,4.000000,4.000000,4.000000,,,,,,,,,,,,,,,,,,,,,,,,,,,,,,,,,,,,,,,,,,,,,,,,,,,,,,,,
1577420170.603788,107.000000,0.000000,4240.000000,4390.769043,4288.205078,4138.461426,4205.128418,16205.000000,4.000000,,,,0.000000,4.000000,4.000000,4.000000,4.000000,4.000000,,,,,,,,,,,,,,,,,,,,,,,,,,,,,,,,,,,,,,,,,,,,,,,,,,,,,,,,
1577420170.611585,108.000000,0.000000,4250.256348,4364.615234,4296.410156,4174.358887,4217.436035,450.000000,4.000000,,,,0.000000,4.000000,4.000000,4.000000,4.000000,4.000000,,,,,,,,,,,,,,,,,,,,,,,,,,,,,,,,,,,,,,,,,,,,,,,,,,,,,,,,
1577420170.619481,109.000000,0.000000,4262.051270,4369.743652,4296.922852,4209.743652,4229.743652,450.000000,4.000000,,,,0.000000,4.000000,4.000000,4.000000,4.000000,4.000000,,,,,,,,,,,,,,,,,,,,,,,,,,,,,,,,,,,,,,,,,,,,,,,,,,,,,,,,
1577420170.627278,110.000000,0.000000,4249.230957,4396.410156,4275.897461,4163.589844,4215.384766,450.000000,4.000000,,,,0.000000,4.000000,4.000000,4.000000,4.000000,4.000000,,,,,,,,,,,,,,,,,,,,,,,,,,,,,,,,,,,,,,,,,,,,,,,,,,,,,,,,
1577420170.635074,111.000000,0.000000,4245.128418,4385.128418,4273.846191,4144.102539,4213.846191,16205.000000,4.000000,,,,0.000000,4.000000,4.000000,4.000000,4.000000,4.000000,,,,,,,,,,,,,,,,,,,,,,,,,,,,,,,,,,,,,,,,,,,,,,,,,,,,,,,,
1577420170.642771,112.000000,0.000000,4252.307617,4351.282227,4282.563965,4187.179688,4222.051270,450.000000,4.000000,,,,0.000000,4.000000,4.000000,4.000000,4.000000,4.000000,,,,,,,,,,,,,,,,,,,,,,,,,,,,,,,,,,,,,,,,,,,,,,,,,,,,,,,,
1577420170.650467,113.000000,0.000000,4275.384766,4388.717773,4298.974121,4206.153809,4241.538574,450.000000,4.000000,,,,0.000000,4.000000,4.000000,4.000000,4.000000,4.000000,,,,,,,,,,,,,,,,,,,,,,,,,,,,,,,,,,,,,,,,,,,,,,,,,,,,,,,,
1577420170.658264,114.000000,0.000000,4282.051270,4423.589844,4306.666504,4197.436035,4246.153809,450.000000,4.000000,,,,0.000000,4.000000,4.000000,4.000000,4.000000,4.000000,,,,,,,,,,,,,,,,,,,,,,,,,,,,,,,,,,,,,,,,,,,,,,,,,,,,,,,,
1577420170.666060,115.000000,0.000000,4245.128418,4373.846191,4283.589844,4234.871582,4219.487305,16205.000000,4.000000,,,,0.000000,4.000000,4.000000,4.000000,4.000000,4.000000,,,,,,,,,,,,,,,,,,,,,,,,,,,,,,,,,,,,,,,,,,,,,,,,,,,,,,,,
1577420170.673757,116.000000,0.000000,4209.743652,4342.563965,4263.589844,4229.230957,4195.897461,450.000000,4.000000,,,,0.000000,4.000000,4.000000,4.000000,4.000000,4.000000,,,,,,,,,,,,,,,,,,,,,,,,,,,,,,,,51.987919,19.870464,13.029223,9.641816,21.779812,34.198372,5.103279,4.010824,6.532764,13.078211,94.924965,5.682494,7.958874,4.441148,12.041345,23.336220,8.856497,4.879655,8.266176,9.076388,49.050598,22.175714,8.491688,5.318910,8.935342
1577420170.681454,117.000000,0.000000,4190.769043,4362.051270,4258.974121,4150.256348,4174.871582,450.000000,4.000000,,,,0.000000,4.000000,4.000000,4.000000,4.000000,4.000000,,,,,,,,,,,,,,,,,,,,,,,,,,,,,,,,,,,,,,,,,,,,,,,,,,,,,,,,
1577420170.689250,118.000000,0.000000,4166.666504,4362.051270,4242.051270,4092.820557,4145.128418,450.000000,4.000000,,,,0.000000,4.000000,4.000000,4.000000,4.000000,4.000000,,,,,,,,,,,,,,,,,,,,,,,,,,,,,,,,,,,,,,,,,,,,,,,,,,,,,,,,
1577420170.696947,119.000000,0.000000,4150.769043,4361.025879,4227.179688,4158.974121,4127.179688,16205.000000,4.000000,,,,0.000000,4.000000,4.000000,4.000000,4.000000,4.000000,,,,,,,,,,,,,,,,,,,,,,,,,,,,,,,,,,,,,,,,,,,,,,,,,,,,,,,,
1577420170.704743,120.000000,0.000000,4150.256348,4371.282227,4233.333496,4222.051270,4132.820313,450.000000,4.000000,,,,0.000000,4.000000,4.000000,4.000000,4.000000,4.000000,,,,,,,,,,,,,,,,,,,,,,,,,,,,,,,,,,,,,,,,,,,,,,,,,,,,,,,,
1577420170.712440,121.000000,0.000000,4149.230957,4364.102539,4241.025879,4120.000000,4141.538574,450.000000,4.000000,,,,0.000000,4.000000,4.000000,4.000000,4.000000,4.000000,,,,,,,,,,,,,,,,,,,,,,,,,,,,,,,,,,,,,,,,,,,,,,,,,,,,,,,,
1577420170.720337,122.000000,0.000000,4145.641113,4353.846191,4229.743652,4122.563965,4138.974121,450.000000,4.000000,,,,0.000000,4.000000,4.000000,4.000000,4.000000,4.000000,,,,,,,,,,,,,,,,,,,,,,,,,,,,,,,,,,,,,,,,,,,,,,,,,,,,,,,,
1577420170.728133,123.000000,0.000000,4142.051270,4369.743652,4215.897461,4284.615234,4132.820313,16205.000000,4.000000,,,,0.000000,4.000000,4.000000,4.000000,4.000000,4.000000,,,,,,,,,,,,,,,,,,,,,,,,,,,,,,,,,,,,,,,,,,,,,,,,,,,,,,,,
1577420170.736030,124.000000,0.000000,4135.384766,4387.179688,4211.794922,4187.692383,4126.153809,450.000000,4.000000,,,,0.000000,4.000000,4.000000,4.000000,4.000000,4.000000,,,,,,,,,,,,,,,,,,,,,,,,,,,,,,,,,,,,,,,,,,,,,,,,,,,,,,,,
1577420170.743827,125.000000,0.000000,4132.820313,4356.410156,4209.743652,4017.948730,4128.205078,450.000000,4.000000,,,,0.000000,4.000000,4.000000,4.000000,4.000000,4.000000,,,,,,,,,,,,,,,,,,,,,,,,,,,,,,,,,,,,,,,,,,,,,,,,,,,,,,,,
1577420170.751624,126.000000,0.000000,4143.077148,4336.410156,4209.743652,4162.563965,4136.922852,450.000000,4.000000,,,,0.000000,4.000000,4.000000,4.000000,4.000000,4.000000,,,,,,,,,,,,,,,,,,,,,,,,,,,,,,,,,,,,,,,,,,,,,,,,,,,,,,,,
1577420170.759320,127.000000,0.000000,4151.794922,4360.000000,4213.846191,4275.384766,4136.410156,236.000000,4.000000,,,,0.000000,4.000000,4.000000,4.000000,4.000000,4.000000,,,,,,,,,,,,,,,,,,,,,,,,,,,,,,,,,,,,,,,,,,,,,,,,,,,,,,,,
1577420170.767117,0.000000,0.000000,4157.436035,4354.358887,4222.051270,4170.769043,4145.641113,450.000000,4.000000,,,,0.000000,4.000000,4.000000,4.000000,4.000000,4.000000,,,,,,,,,,,,,,,,,,,,,,,,,,,,,,,,,,,,,,,,,,,,,,,,,,,,,,,,
1577420170.774813,1.000000,0.000000,4158.461426,4324.615234,4224.102539,4136.410156,4151.282227,450.000000,4.000000,,,,0.000000,4.000000,4.000000,4.000000,4.000000,4.000000,,,,,,,,,,,,,,,,,,,,,,,,,,,,,,,,,,,,,,,,,,,,,,,,,,,,,,,,
1577420170.782710,2.000000,0.000000,4147.692383,4326.666504,4221.025879,4108.717773,4140.000000,16203.000000,4.000000,,,,0.000000,4.000000,4.000000,4.000000,4.000000,4.000000,,,,,,,,,,,,,,,,,,,,,,,,,,,,,,,,,,,,,,,,,,,,,,,,,,,,,,,,
1577420170.790506,3.000000,0.000000,4148.717773,4329.743652,4242.051270,4122.563965,4144.102539,450.000000,4.000000,,,,0.000000,4.000000,4.000000,4.000000,4.000000,4.000000,,,,,,,,,,,,,,,,,,,,,,,,,,,,,,,,,,,,,,,,,,,,,,,,,,,,,,,,
1577420170.798403,4.000000,0.000000,4138.461426,4295.384766,4260.000000,4233.846191,4138.974121,16179.000000,4.000000,,,,0.000000,4.000000,4.000000,4.000000,4.000000,4.000000,,,,,,,,,,,,,,,,,,,,,,,,,,,,,,,,55.270130,23.660746,13.460517,9.377484,17.365305,24.437468,6.393218,4.217193,5.641644,10.695172,75.877090,8.240230,7.516342,4.126913,9.456031,23.911030,9.426342,5.379993,7.948587,8.009850,48.612965,23.133631,9.180182,4.940662,7.157342
1577420170.806199,5.000000,0.000000,4112.820313,4271.282227,4265.128418,4268.717773,4117.436035,450.000000,4.000000,,,,0.000000,4.000000,4.000000,4.000000,4.000000,4.000000,,,,,,,,,,,,,,,,,,,,,,,,,,,,,,,,,,,,,,,,,,,,,,,,,,,,,,,,
1577420170.814096,6.000000,0.000000,4123.589844,4279.487305,4300.512695,4164.102539,4131.282227,16183.000000,4.000000,,,,0.000000,4.000000,4.000000,4.000000,4.000000,4.000000,,,,,,,,,,,,,,,,,,,,,,,,,,,,,,,,,,,,,,,,,,,,,,,,,,,,,,,,
1577420170.821892,7.000000,0.000000,4136.410156,4275.384766,4336.410156,4079.487061,4149.743652,450.000000,4.000000,,,,0.000000,4.000000,4.000000,4.000000,4.000000,4.000000,,,,,,,,,,,,,,,,,,,,,,,,,,,,,,,,,,,,,,,,,,,,,,,,,,,,,,,,
1577420170.829789,8.000000,0.000000,4107.692383,4256.922852,4333.333496,4151.794922,4129.230957,450.000000,4.000000,,,,0.000000,4.000000,4.000000,4.000000,4.000000,4.000000,,,,,,,,,,,,,,,,,,,,,,,,,,,,,,,,,,,,,,,,,,,,,,,,,,,,,,,,
1577420170.837585,9.000000,0.000000,4104.102539,4246.666504,4337.436035,4248.717773,4122.051270,16168.000000,4.000000,,,,0.000000,4.000000,4.000000,4.000000,4.000000,4.000000,,,,,,,,,,,,,,,,,,,,,,,,,,,,,,,,,,,,,,,,,,,,,,,,,,,,,,,,
1577420170.845282,10.000000,0.000000,4124.615234,4238.461426,4350.256348,4183.589844,4140.512695,450.000000,4.000000,,,,0.000000,4.000000,4.000000,4.000000,4.000000,4.000000,,,,,,,,,,,,,,,,,,,,,,,,,,,,,,,,,,,,,,,,,,,,,,,,,,,,,,,,
1577420170.853179,11.000000,0.000000,4106.153809,4230.256348,4327.179688,4152.820313,4127.692383,16202.000000,4.000000,,,,0.000000,4.000000,4.000000,4.000000,4.000000,4.000000,,,,,,,,,,,,,,,,,,,,,,,,,,,,,,,,,,,,,,,,,,,,,,,,,,,,,,,,
1577420170.860975,12.000000,0.000000,4084.102539,4222.563965,4307.179688,4273.846191,4107.692383,450.000000,4.000000,,,,0.000000,4.000000,4.000000,4.000000,4.000000,4.000000,,,,,,,,,,,,,,,,,,,,,,,,,,,,,,,,,,,,,,,,,,,,,,,,,,,,,,,,
1577420170.868772,13.000000,0.000000,4097.948730,4219.487305,4323.077148,4329.743652,4127.179688,450.000000,4.000000,,,,0.000000,4.000000,4.000000,4.000000,4.000000,4.000000,,,,,,,,,,,,,,,,,,,,,,,,,,,,,,,,,,,,,,,,,,,,,,,,,,,,,,,,
1577420170.876469,14.000000,0.000000,4114.871582,4232.820313,4331.282227,4311.282227,4144.102539,450.000000,4.000000,,,,0.000000,4.000000,4.000000,4.000000,4.000000,4.000000,,,,,,,,,,,,,,,,,,,,,,,,,,,,,,,,,,,,,,,,,,,,,,,,,,,,,,,,
1577420170.884265,15.000000,0.000000,4116.410156,4247.179688,4308.717773,4283.589844,4139.487305,16202.000000,4.000000,,,,0.000000,4.000000,4.000000,4.000000,4.000000,4.000000,,,,,,,,,,,,,,,,,,,,,,,,,,,,,,,,,,,,,,,,,,,,,,,,,,,,,,,,
1577420170.891962,16.000000,0.000000,4118.461426,4264.102539,4279.487305,4330.769043,4141.025879,0.000000,4.000000,,,,0.000000,4.000000,4.000000,4.000000,4.000000,4.000000,,,,,,,,,,,,,,,,,,,,,,,,,,,,,,,,,,,,,,,,,,,,,,,,,,,,,,,,
1577420170.899758,17.000000,0.000000,4115.384766,4273.333496,4255.384766,4605.641113,4136.410156,0.000000,4.000000,,,,0.000000,4.000000,4.000000,4.000000,4.000000,4.000000,,,,,,,,,,,,,,,,,,,,,,,,,,,,,,,,,,,,,,,,,,,,,,,,,,,,,,,,
1577420170.907455,18.000000,0.000000,4112.307617,4276.410156,4230.769043,4685.641113,4130.256348,0.000000,4.000000,,,,0.000000,4.000000,4.000000,4.000000,4.000000,4.000000,,,,,,,,,,,,,,,,,,,,,,,,,,,,,,,,,,,,,,,,,,,,,,,,,,,,,,,,
1577420170.915252,19.000000,0.000000,4110.769043,4268.717773,4200.000000,4531.282227,4128.205078,0.000000,4.000000,,,,0.000000,4.000000,4.000000,4.000000,4.000000,4.000000,,,,,,,,,,,,,,,,,,,,,,,,,,,,,,,,,,,,,,,,,,,,,,,,,,,,,,,,
1577420170.922948,20.000000,0.000000,4095.897461,4264.102539,4164.102539,4666.666504,4114.358887,0.000000,4.000000,,,,0.000000,4.000000,4.000000,4.000000,4.000000,4.000000,,,,,,,,,,,,,,,,,,,,,,,,,,,,,,,,74.755295,35.710217,18.459438,11.526818,16.423365,21.254000,9.595519,5.966894,5.566350,10.572978,68.423164,15.510669,9.151379,5.030173,8.741947,30.181767,12.615426,7.149308,7.998684,8.600245,58.272289,28.905500,12.867988,5.603735,6.539141
1577420170.930745,21.000000,0.000000,4093.333252,4264.102539,4150.769043,4836.922852,4110.769043,0.000000,4.000000,,,,0.000000,4.000000,4.000000,4.000000,4.000000,4.000000,,,,,,,,,,,,,,,,,,,,,,,,,,,,,,,,,,,,,,,,,,,,,,,,,,,,,,,,
1577420170.938441,22.000000,0.000000,4091.794922,4234.358887,4143.077148,4735.897461,4106.666504,0.000000,4.000000,,,,0.000000,4.000000,4.000000,4.000000,4.000000,4.000000,,,,,,,,,,,,,,,,,,,,,,,,,,,,,,,,,,,,,,,,,,,,,,,,,,,,,,,,
1577420170.946238,23.000000,0.000000,4059.487061,4224.615234,4120.512695,4726.153809,4083.589844,0.000000,4.000000,,,,0.000000,4.000000,4.000000,4.000000,4.000000,4.000000,,,,,,,,,,,,,,,,,,,,,,,,,,,,,,,,,,,,,,,,,,,,,,,,,,,,,,,,
1577420170.953934,24.000000,0.000000,4056.410156,4280.512695,4127.179688,4841.025879,4085.128174,0.000000,4.000000,,,,0.000000,4.000000,4.000000,4.000000,4.000000,4.000000,,,,,,,,,,,,,,,,,,,,,,,,,,,,,,,,,,,,,,,,,,,,,,,,,,,,,,,,
1577420170.961731,25.000000,0.000000,4088.718018,4297.436035,4152.820313,4931.282227,4106.153809,0.000000,4.000000,,,,0.000000,4.000000,4.000000,4.000000,4.000000,4.000000,,,,,,,,,,,,,,,,,,,,,,,,,,,,,,,,,,,,,,,,,,,,,,,,,,,,,,,,
1577420170.969428,26.000000,0.000000,4072.307617,4264.615234,4142.563965,4951.794922,4086.666748,0.000000,4.000000,,,,0.000000,4.000000,4.000000,4.000000,4.000000,4.000000,,,,,,,,,,,,,,,,,,,,,,,,,,,,,,,,,,,,,,,,,,,,,,,,,,,,,,,,
1577420170.977324,27.000000,0.000000,4048.205078,4301.538574,4134.871582,4822.051270,4064.615479,0.000000,4.000000,,,,0.000000,4.000000,4.000000,4.000000,4.000000,4.000000,,,,,,,,,,,,,,,,,,,,,,,,,,,,,,,,,,,,,,,,,,,,,,,,,,,,,,,,
1577420170.985121,28.000000,0.000000,4081.025635,4353.846191,4168.205078,4796.410156,4093.846191,0.000000,4.000000,,,,0.000000,4.000000,4.000000,4.000000,4.000000,4.000000,,,,,,,,,,,,,,,,,,,,,,,,,,,,,,,,,,,,,,,,,,,,,,,,,,,,,,,,
1577420170.993017,29.000000,0.000000,4105.641113,4345.641113,4199.487305,4946.666504,4121.025879,0.000000,4.000000,,,,0.000000,4.000000,4.000000,4.000000,4.000000,4.000000,,,,,,,,,,,,,,,,,,,,,,,,,,,,,,,,,,,,,,,,,,,,,,,,,,,,,,,,
1577420171.000814,30.000000,0.000000,4103.589844,4351.282227,4217.436035,4881.025879,4134.358887,0.000000,4.000000,,,,0.000000,4.000000,4.000000,4.000000,4.000000,4.000000,,,,,,,,,,,,,,,,,,,,,,,,,,,,,,,,,,,,,,,,,,,,,,,,,,,,,,,,
1577420171.008710,31.000000,0.000000,4106.153809,4368.717773,4229.743652,4697.436035,4149.230957,0.000000,4.000000,,,,0.000000,4.000000,4.000000,4.000000,4.000000,4.000000,,,,,,,,,,,,,,,,,,,,,,,,,,,,,,,,,,,,,,,,,,,,,,,,,,,,,,,,
1577420171.016507,32.000000,0.000000,4090.256348,4351.282227,4222.563965,4684.615234,4133.333496,0.000000,4.000000,,,,0.000000,4.000000,4.000000,4.000000,4.000000,4.000000,,,,,,,,,,,,,,,,,,,,,,,,,,,,,,,,,,,,,,,,,,,,,,,,,,,,,,,,
1577420171.024403,33.000000,0.000000,4077.948730,4340.000000,4219.487305,4763.077148,4123.077148,0.000000,4.000000,,,,0.000000,4.000000,4.000000,4.000000,4.000000,4.000000,,,,,,,,,,,,,,,,,,,,,,,,,,,,,,,,,,,,,,,,,,,,,,,,,,,,,,,,
1577420171.032200,34.000000,0.000000,4104.615234,4358.461426,4241.025879,4771.282227,4153.333496,0.000000,4.000000,,,,0.000000,4.000000,4.000000,4.000000,4.000000,4.000000,,,,,,,,,,,,,,,,,,,,,,,,,,,,,,,,,,,,,,,,,,,,,,,,,,,,,,,,
1577420171.040096,35.000000,0.000000,4111.794922,4364.102539,4236.922852,4678.461426,4156.922852,0.000000,4.000000,,,,0.000000,4.000000,4.000000,4.000000,4.000000,4.000000,,,,,,,,,,,,,,,,,,,,,,,,,,,,,,,,,,,,,,,,,,,,,,,,,,,,,,,,
1577420171.047893,36.000000,0.000000,4087.692383,4349.743652,4210.769043,4647.692383,4127.179688,0.000000,4.000000,,,,0.000000,4.000000,4.000000,4.000000,4.000000,4.000000,,,,,,,,,,,,,,,,,,,,,,,,,,,,,,,,112.739662,56.668564,28.293821,16.362127,20.080214,23.656609,14.601765,9.301484,6.532155,13.383183,74.893181,27.218355,13.110735,7.309880,10.554441,44.524349,19.170248,10.055319,8.667985,11.687060,80.560959,40.422153,19.630558,7.492196,7.555874
1577420171.055589,37.000000,0.000000,4097.436035,4337.436035,4210.256348,4678.974121,4133.333496,0.000000,4.000000,,,,0.000000,4.000000,4.000000,4.000000,4.000000,4.000000,,,,,,,,,,,,,,,,,,,,,,,,,,,,,,,,,,,,,,,,,,,,,,,,,,,,,,,,
1577420171.063386,38.000000,0.000000,4108.205078,4341.025879,4208.205078,4587.692383,4143.077148,0.000000,4.000000,,,,0.000000,4.000000,4.000000,4.000000,4.000000,4.000000,,,,,,,,,,,,,,,,,,,,,,,,,,,,,,,,,,,,,,,,,,,,,,,,,,,,,,,,
1577420171.071083,39.000000,0.000000,4077.948730,4350.769043,4184.615234,4518.974121,4121.538574,0.000000,4.000000,,,,0.000000,4.000000,4.000000,4.000000,4.000000,4.000000,,,,,,,,,,,,,,,,,,,,,,,,,,,,,,,,,,,,,,,,,,,,,,,,,,,,,,,,
1577420171.078879,40.000000,0.000000,4077.948730,4355.384766,4189.743652,4627.692383,4131.794922,0.000000,4.000000,,,,0.000000,4.000000,4.000000,4.000000,4.000000,4.000000,,,,,,,,,,,,,,,,,,,,,,,,,,,,,,,,,,,,,,,,,,,,,,,,,,,,,,,,
1577420171.086576,41.000000,0.000000,4106.666504,4350.256348,4209.743652,4666.666504,4164.102539,0.000000,4.000000,,,,0.000000,4.000000,4.000000,4.000000,4.000000,4.000000,,,,,,,,,,,,,,,,,,,,,,,,,,,,,,,,,,,,,,,,,,,,,,,,,,,,,,,,
1577420171.094372,42.000000,0.000000,4101.538574,4348.205078,4199.487305,4535.384766,4151.794922,0.000000,4.000000,,,,0.000000,4.000000,4.000000,4.000000,4.000000,4.000000,,,,,,,,,,,,,,,,,,,,,,,,,,,,,,,,,,,,,,,,,,,,,,,,,,,,,,,,
1577420171.102069,43.000000,0.000000,4091.794922,4350.256348,4192.820313,4503.077148,4141.025879,0.000000,4.000000,,,,0.000000,4.000000,4.000000,4.000000,4.000000,4.000000,,,,,,,,,,,,,,,,,,,,,,,,,,,,,,,,,,,,,,,,,,,,,,,,,,,,,,,,
1577420171.109966,44.000000,0.000000,4109.743652,4351.794922,4211.794922,4636.922852,4173.333496,0.000000,4.000000,,,,0.000000,4.000000,4.000000,4.000000,4.000000,4.000000,,,,,,,,,,,,,,,,,,,,,,,,,,,,,,,,,,,,,,,,,,,,,,,,,,,,,,,,
1577420171.117762,45.000000,0.000000,4109.743652,4350.769043,4218.974121,4631.282227,4186.153809,0.000000,4.000000,,,,0.000000,4.000000,4.000000,4.000000,4.000000,4.000000,,,,,,,,,,,,,,,,,,,,,,,,,,,,,,,,,,,,,,,,,,,,,,,,,,,,,,,,
1577420171.125659,46.000000,0.000000,4095.897461,4361.538574,4221.025879,4485.128418,4180.512695,0.000000,4.000000,,,,0.000000,4.000000,4.000000,4.000000,4.000000,4.000000,,,,,,,,,,,,,,,,,,,,,,,,,,,,,,,,,,,,,,,,,,,,,,,,,,,,,,,,
1577420171.133456,47.000000,0.000000,4126.153809,4401.025879,4251.282227,4624.102539,4216.922852,0.000000,4.000000,,,,0.000000,4.000000,4.000000,4.000000,4.000000,4.000000,,,,,,,,,,,,,,,,,,,,,,,,,,,,,,,,,,,,,,,,,,,,,,,,,,,,,,,,
1577420171.141352,48.000000,0.000000,4149.230957,4401.025879,4265.128418,4747.179688,4245.641113,0.000000,4.000000,,,,0.000000,4.000000,4.000000,4.000000,4.000000,4.000000,,,,,,,,,,,,,,,,,,,,,,,,,,,,,,,,,,,,,,,,,,,,,,,,,,,,,,,,
1577420171.149149,49.000000,0.000000,4121.538574,4370.256348,4239.487305,4509.743652,4224.615234,0.000000,4.000000,,,,0.000000,4.000000,4.000000,4.000000,4.000000,4.000000,,,,,,,,,,,,,,,,,,,,,,,,,,,,,,,,,,,,,,,,,,,,,,,,,,,,,,,,
1577420171.157046,50.000000,0.000000,4116.410156,4411.282227,4242.051270,4485.128418,4220.512695,0.000000,4.000000,,,,0.000000,4.000000,4.000000,4.000000,4.000000,4.000000,,,,,,,,,,,,,,,,,,,,,,,,,,,,,,,,,,,,,,,,,,,,,,,,,,,,,,,,
1577420171.164843,51.000000,0.000000,4131.794922,4445.128418,4254.871582,4736.410156,4235.897461,0.000000,4.000000,,,,0.000000,4.000000,4.000000,4.000000,4.000000,4.000000,,,,,,,,,,,,,,,,,,,,,,,,,,,,,,,,,,,,,,,,,,,,,,,,,,,,,,,,
1577420171.172739,52.000000,0.000000,4114.871582,4405.128418,4233.333496,4683.077148,4223.077148,0.000000,4.000000,,,,0.000000,4.000000,4.000000,4.000000,4.000000,4.000000,,,,,,,,,,,,,,,,,,,,,,,,,,,,,,,,161.037811,82.137398,40.526039,22.605061,26.786394,29.203449,20.368349,13.437578,8.155500,18.124844,96.063995,40.479790,18.435471,10.360341,14.087869,69.277863,27.942200,13.410243,10.061055,17.425745,111.065666,55.332279,27.834978,10.090304,9.727062
1577420171.180636,53.000000,0.000000,4093.846191,4398.461426,4213.333496,4482.051270,4196.410156,0.000000,4.000000,,,,0.000000,4.000000,4.000000,4.000000,4.000000,4.000000,,,,,,,,,,,,,,,,,,,,,,,,,,,,,,,,,,,,,,,,,,,,,,,,,,,,,,,,
1577420171.188433,54.000000,0.000000,4103.589844,4426.666504,4218.974121,4549.230957,4189.743652,0.000000,4.000000,,,,0.000000,4.000000,4.000000,4.000000,4.000000,4.000000,,,,,,,,,,,,,,,,,,,,,,,,,,,,,,,,,,,,,,,,,,,,,,,,,,,,,,,,
1577420171.196329,55.000000,0.000000,4109.230957,4419.487305,4221.025879,4624.615234,4183.589844,0.000000,4.000000,,,,0.000000,4.000000,4.000000,4.000000,4.000000,4.000000,,,,,,,,,,,,,,,,,,,,,,,,,,,,,,,,,,,,,,,,,,,,,,,,,,,,,,,,
1577420171.204126,56.000000,0.000000,4093.846191,4387.692383,4206.666504,4536.410156,4165.128418,0.000000,4.000000,,,,0.000000,4.000000,4.000000,4.000000,4.000000,4.000000,,,,,,,,,,,,,,,,,,,,,,,,,,,,,,,,,,,,,,,,,,,,,,,,,,,,,,,,
1577420171.212023,57.000000,0.000000,4086.153809,4352.307617,4198.461426,4411.794922,4150.256348,0.000000,4.000000,,,,0.000000,4.000000,4.000000,4.000000,4.000000,4.000000,,,,,,,,,,,,,,,,,,,,,,,,,,,,,,,,,,,,,,,,,,,,,,,,,,,,,,,,
1577420171.219820,58.000000,0.000000,4088.718018,4368.205078,4197.948730,4416.410156,4144.615234,0.000000,4.000000,,,,0.000000,4.000000,4.000000,4.000000,4.000000,4.000000,,,,,,,,,,,,,,,,,,,,,,,,,,,,,,,,,,,,,,,,,,,,,,,,,,,,,,,,
1577420171.227716,59.000000,0.000000,4077.435791,4408.717773,4184.615234,4606.153809,4136.410156,0.000000,4.000000,,,,0.000000,4.000000,4.000000,4.000000,4.000000,4.000000,,,,,,,,,,,,,,,,,,,,,,,,,,,,,,,,,,,,,,,,,,,,,,,,,,,,,,,,
1577420171.235613,60.000000,0.000000,4082.564209,4390.769043,4183.077148,4620.512695,4134.871582,0.000000,4.000000,,,,0.000000,4.000000,4.000000,4.000000,4.000000,4.000000,,,,,,,,,,,,,,,,,,,,,,,,,,,,,,,,,,,,,,,,,,,,,,,,,,,,,,,,
1577420171.243410,61.000000,0.000000,4116.410156,4380.000000,4205.641113,4445.128418,4155.384766,0.000000,4.000000,,,,0.000000,4.000000,4.000000,4.000000,4.000000,4.000000,,,,,,,,,,,,,,,,,,,,,,,,,,,,,,,,,,,,,,,,,,,,,,,,,,,,,,,,
1577420171.251306,62.000000,0.000000,4118.461426,4437.436035,4204.615234,4438.461426,4153.333496,0.000000,4.000000,,,,0.000000,4.000000,4.000000,4.000000,4.000000,4.000000,,,,,,,,,,,,,,,,,,,,,,,,,,,,,,,,,,,,,,,,,,,,,,,,,,,,,,,,
1577420171.259103,63.000000,0.000000,4087.179443,4447.179688,4182.563965,4527.692383,4115.897461,0.000000,4.000000,,,,0.000000,4.000000,4.000000,4.000000,4.000000,4.000000,,,,,,,,,,,,,,,,,,,,,,,,,,,,,,,,,,,,,,,,,,,,,,,,,,,,,,,,
1577420171.266900,64.000000,0.000000,4078.974365,4416.922852,4184.102539,4476.410156,4104.102539,450.000000,4.000000,,,,0.000000,4.000000,4.000000,4.000000,4.000000,4.000000,,,,,,,,,,,,,,,,,,,,,,,,,,,,,,,,,,,,,,,,,,,,,,,,,,,,,,,,
1577420171.274797,65.000000,0.000000,4106.153809,4468.205078,4206.666504,4426.666504,4132.307617,450.000000,4.000000,,,,0.000000,4.000000,4.000000,4.000000,4.000000,4.000000,,,,,,,,,,,,,,,,,,,,,,,,,,,,,,,,,,,,,,,,,,,,,,,,,,,,,,,,
1577420171.282693,66.000000,0.000000,4122.051270,4484.615234,4210.769043,4557.948730,4145.641113,16212.000000,4.000000,,,,0.000000,4.000000,4.000000,4.000000,4.000000,4.000000,,,,,,,,,,,,,,,,,,,,,,,,,,,,,,,,,,,,,,,,,,,,,,,,,,,,,,,,
1577420171.290490,67.000000,0.000000,4108.205078,4407.179688,4199.487305,4595.897461,4129.743652,450.000000,4.000000,,,,0.000000,4.000000,4.000000,4.000000,4.000000,4.000000,,,,,,,,,,,,,,,,,,,,,,,,,,,,,,,,,,,,,,,,,,,,,,,,,,,,,,,,
1577420171.298287,68.000000,0.000000,4092.820557,4401.538574,4199.487305,4424.615234,4115.384766,16181.000000,4.000000,,,,0.000000,4.000000,4.000000,4.000000,4.000000,4.000000,,,,,,,,,,,,,,,,,,,,,,,,,,,,,,,,205.025620,104.067947,50.846474,27.908434,33.141232,34.411964,25.263727,17.010052,9.627523,22.625347,123.708969,51.113293,23.174967,13.048007,17.512794,104.275452,36.153851,16.266056,12.109506,25.318733,140.280319,68.697136,34.657234,12.388641,11.886245
1577420171.306183,69.000000,0.000000,4097.948730,4447.692383,4205.128418,4432.307617,4123.077148,450.000000,4.000000,,,,0.000000,4.000000,4.000000,4.000000,4.000000,4.000000,,,,,,,,,,,,,,,,,,,,,,,,,,,,,,,,,,,,,,,,,,,,,,,,,,,,,,,,
1577420171.313980,70.000000,0.000000,4105.128418,4424.615234,4201.025879,4620.512695,4133.333496,16159.000000,4.000000,,,,0.000000,4.000000,4.000000,4.000000,4.000000,4.000000,,,,,,,,,,,,,,,,,,,,,,,,,,,,,,,,,,,,,,,,,,,,,,,,,,,,,,,,
1577420171.321877,71.000000,0.000000,4081.538574,4396.410156,4179.487305,4547.692383,4109.230957,450.000000,4.000000,,,,0.000000,4.000000,4.000000,4.000000,4.000000,4.000000,,,,,,,,,,,,,,,,,,,,,,,,,,,,,,,,,,,,,,,,,,,,,,,,,,,,,,,,
1577420171.329674,72.000000,0.000000,4078.461426,4434.871582,4175.384766,4471.794922,4106.666504,450.000000,4.000000,,,,0.000000,4.000000,4.000000,4.000000,4.000000,4.000000,,,,,,,,,,,,,,,,,,,,,,,,,,,,,,,,,,,,,,,,,,,,,,,,,,,,,,,,
1577420171.337570,73.000000,0.000000,4103.589844,4433.846191,4186.666504,4731.794922,4131.282227,16167.000000,4.000000,,,,0.000000,4.000000,4.000000,4.000000,4.000000,4.000000,,,,,,,,,,,,,,,,,,,,,,,,,,,,,,,,,,,,,,,,,,,,,,,,,,,,,,,,
1577420171.345367,74.000000,0.000000,4091.281982,4392.820313,4171.794922,4729.230957,4117.436035,450.000000,4.000000,,,,0.000000,4.000000,4.000000,4.000000,4.000000,4.000000,,,,,,,,,,,,,,,,,,,,,,,,,,,,,,,,,,,,,,,,,,,,,,,,,,,,,,,,
1577420171.353264,75.000000,0.000000,4079.487061,4405.641113,4164.102539,4408.717773,4109.230957,16205.000000,4.000000,,,,0.000000,4.000000,4.000000,4.000000,4.000000,4.000000,,,,,,,,,,,,,,,,,,,,,,,,,,,,,,,,,,,,,,,,,,,,,,,,,,,,,,,,
1577420171.361060,76.000000,0.000000,4107.692383,4428.205078,4182.563965,4285.641113,4134.871582,450.000000,4.000000,,,,0.000000,4.000000,4.000000,4.000000,4.000000,4.000000,,,,,,,,,,,,,,,,,,,,,,,,,,,,,,,,,,,,,,,,,,,,,,,,,,,,,,,,
1577420171.368957,77.000000,0.000000,4122.051270,4402.563965,4184.102539,4185.641113,4137.436035,450.000000,4.000000,,,,0.000000,4.000000,4.000000,4.000000,4.000000,4.000000,,,,,,,,,,,,,,,,,,,,,,,,,,,,,,,,,,,,,,,,,,,,,,,,,,,,,,,,
1577420171.376754,78.000000,0.000000,4098.974121,4360.000000,4164.615234,4001.025635,4106.153809,450.000000,4.000000,,,,0.000000,4.000000,4.000000,4.000000,4.000000,4.000000,,,,,,,,,,,,,,,,,,,,,,,,,,,,,,,,,,,,,,,,,,,,,,,,,,,,,,,,
1577420171.384651,79.000000,0.000000,4088.718018,4349.230957,4152.820313,3943.589844,4097.436035,16205.000000,4.000000,,,,0.000000,4.000000,4.000000,4.000000,4.000000,4.000000,,,,,,,,,,,,,,,,,,,,,,,,,,,,,,,,,,,,,,,,,,,,,,,,,,,,,,,,
1577420171.392547,80.000000,0.000000,4107.179688,4390.769043,4159.487305,3982.051270,4124.102539,450.000000,4.000000,,,,0.000000,4.000000,4.000000,4.000000,4.000000,4.000000,,,,,,,,,,,,,,,,,,,,,,,,,,,,,,,,,,,,,,,,,,,,,,,,,,,,,,,,
1577420171.400344,81.000000,0.000000,4128.205078,4407.692383,4174.358887,3986.153809,4156.410156,450.000000,4.000000,,,,0.000000,4.000000,4.000000,4.000000,4.000000,4.000000,,,,,,,,,,,,,,,,,,,,,,,,,,,,,,,,,,,,,,,,,,,,,,,,,,,,,,,,
1577420171.408141,82.000000,0.000000,4122.563965,4363.589844,4168.205078,3935.384521,4165.128418,450.000000,4.000000,,,,0.000000,4.000000,4.000000,4.000000,4.000000,4.000000,,,,,,,,,,,,,,,,,,,,,,,,,,,,,,,,,,,,,,,,,,,,,,,,,,,,,,,,
1577420171.415837,83.000000,0.000000,4114.358887,4347.179688,4152.820313,3905.641113,4167.692383,16205.000000,4.000000,,,,0.000000,4.000000,4.000000,4.000000,4.000000,4.000000,,,,,,,,,,,,,,,,,,,,,,,,,,,,,,,,,,,,,,,,,,,,,,,,,,,,,,,,
1577420171.423734,84.000000,0.000000,4130.256348,4382.563965,4156.410156,3866.666748,4197.436035,450.000000,4.000000,,,,0.000000,4.000000,4.000000,4.000000,4.000000,4.000000,,,,,,,,,,,,,,,,,,,,,,,,,,,,,,,,227.765167,114.462181,55.148216,30.054689,35.797489,37.581314,27.765879,18.738829,10.157932,24.719746,148.852448,55.494431,25.415731,14.280616,19.007704,153.338226,41.051434,17.785263,14.551501,34.649826,157.383621,75.432274,37.446609,13.408986,12.850705
1577420171.431531,85.000000,0.000000,4140.512695,4388.717773,4171.794922,3844.102539,4225.128418,450.000000,4.000000,,,,0.000000,4.000000,4.000000,4.000000,4.000000,4.000000,,,,,,,,,,,,,,,,,,,,,,,,,,,,,,,,,,,,,,,,,,,,,,,,,,,,,,,,
1577420171.439427,86.000000,0.000000,4156.922852,4365.128418,4196.922852,3877.435791,4236.410156,450.000000,4.000000,,,,0.000000,4.000000,4.000000,4.000000,4.000000,4.000000,,,,,,,,,,,,,,,,,,,,,,,,,,,,,,,,,,,,,,,,,,,,,,,,,,,,,,,,
1577420171.447224,87.000000,0.000000,4176.410156,4361.025879,4205.641113,3877.435791,4247.179688,16205.000000,4.000000,,,,0.000000,4.000000,4.000000,4.000000,4.000000,4.000000,,,,,,,,,,,,,,,,,,,,,,,,,,,,,,,,,,,,,,,,,,,,,,,,,,,,,,,,
1577420171.455121,88.000000,0.000000,4161.538574,4377.436035,4190.769043,3800.512939,4240.512695,450.000000,4.000000,,,,0.000000,4.000000,4.000000,4.000000,4.000000,4.000000,,,,,,,,,,,,,,,,,,,,,,,,,,,,,,,,,,,,,,,,,,,,,,,,,,,,,,,,
1577420171.462918,89.000000,0.000000,4154.871582,4411.794922,4208.717773,3828.205078,4247.179688,450.000000,4.000000,,,,0.000000,4.000000,4.000000,4.000000,4.000000,4.000000,,,,,,,,,,,,,,,,,,,,,,,,,,,,,,,,,,,,,,,,,,,,,,,,,,,,,,,,
1577420171.470814,90.000000,0.000000,4151.794922,4437.436035,4239.487305,3855.384521,4274.871582,450.000000,4.000000,,,,0.000000,4.000000,4.000000,4.000000,4.000000,4.000000,,,,,,,,,,,,,,,,,,,,,,,,,,,,,,,,,,,,,,,,,,,,,,,,,,,,,,,,
1577420171.478611,91.000000,0.000000,4083.076904,4401.538574,4209.743652,3689.230713,4252.307617,16205.000000,4.000000,,,,0.000000,4.000000,4.000000,4.000000,4.000000,4.000000,,,,,,,,,,,,,,,,,,,,,,,,,,,,,,,,,,,,,,,,,,,,,,,,,,,,,,,,
1577420171.486508,92.000000,0.000000,3996.410156,4365.641113,4173.846191,3623.589844,4217.948730,450.000000,4.000000,,,,0.000000,4.000000,4.000000,4.000000,4.000000,4.000000,,,,,,,,,,,,,,,,,,,,,,,,,,,,,,,,,,,,,,,,,,,,,,,,,,,,,,,,
1577420171.494304,93.000000,0.000000,3949.743652,4399.487305,4208.205078,3748.718018,4250.769043,450.000000,4.000000,,,,0.000000,4.000000,4.000000,4.000000,4.000000,4.000000,,,,,,,,,,,,,,,,,,,,,,,,,,,,,,,,,,,,,,,,,,,,,,,,,,,,,,,,
1577420171.502201,94.000000,0.000000,3901.025635,4453.846191,4245.128418,3838.974365,4285.641113,450.000000,4.000000,,,,0.000000,4.000000,4.000000,4.000000,4.000000,4.000000,,,,,,,,,,,,,,,,,,,,,,,,,,,,,,,,,,,,,,,,,,,,,,,,,,,,,,,,
1577420171.509998,95.000000,0.000000,3848.718018,4457.436035,4232.820313,3787.179443,4287.692383,16205.000000,4.000000,,,,0.000000,4.000000,4.000000,4.000000,4.000000,4.000000,,,,,,,,,,,,,,,,,,,,,,,,,,,,,,,,,,,,,,,,,,,,,,,,,,,,,,,,
1577420171.517895,96.000000,0.000000,3829.743652,4462.051270,4223.589844,3754.358887,4301.538574,450.000000,4.000000,,,,0.000000,4.000000,4.000000,4.000000,4.000000,4.000000,,,,,,,,,,,,,,,,,,,,,,,,,,,,,,,,,,,,,,,,,,,,,,,,,,,,,,,,
1577420171.525791,97.000000,0.000000,3811.794922,4485.641113,4222.051270,3802.564209,4310.769043,450.000000,4.000000,,,,0.000000,4.000000,4.000000,4.000000,4.000000,4.000000,,,,,,,,,,,,,,,,,,,,,,,,,,,,,,,,,,,,,,,,,,,,,,,,,,,,,,,,
1577420171.533588,98.000000,0.000000,3796.410156,4494.358887,4224.102539,3724.615479,4324.615234,450.000000,4.000000,,,,0.000000,4.000000,4.000000,4.000000,4.000000,4.000000,,,,,,,,,,,,,,,,,,,,,,,,,,,,,,,,,,,,,,,,,,,,,,,,,,,,,,,,
1577420171.541485,99.000000,0.000000,3794.871826,4487.179688,4230.769043,3734.358887,4356.410156,16205.000000,4.000000,,,,0.000000,4.000000,4.000000,4.000000,4.000000,4.000000,,,,,,,,,,,,,,,,,,,,,,,,,,,,,,,,,,,,,,,,,,,,,,,,,,,,,,,,
1577420171.549281,100.000000,0.000000,3769.230713,4485.641113,4215.897461,3878.461426,4365.128418,450.000000,4.000000,,,,0.000000,4.000000,4.000000,4.000000,4.000000,4.000000,,,,,,,,,,,,,,,,,,,,,,,,,,,,,,,,221.019699,109.315674,51.532970,28.091934,33.360786,36.823532,27.274223,17.958300,9.404183,23.462185,162.852432,52.169025,24.123383,13.575777,17.798471,206.401779,41.761242,17.646013,17.258230,44.841885,156.130310,72.656982,34.980267,12.704396,12.111557
1577420171.557178,101.000000,0.000000,3769.230713,4518.974121,4220.000000,3828.205078,4389.230957,450.000000,4.000000,,,,0.000000,4.000000,4.000000,4.000000,4.000000,4.000000,,,,,,,,,,,,,,,,,,,,,,,,,,,,,,,,,,,,,,,,,,,,,,,,,,,,,,,,
1577420171.564975,102.000000,0.000000,3814.871826,4523.589844,4250.256348,3747.179443,4448.717773,450.000000,4.000000,,,,0.000000,4.000000,4.000000,4.000000,4.000000,4.000000,,,,,,,,,,,,,,,,,,,,,,,,,,,,,,,,,,,,,,,,,,,,,,,,,,,,,,,,
1577420171.572871,103.000000,0.000000,3813.333252,4477.436035,4235.384766,3851.281982,4461.025879,16205.000000,4.000000,,,,0.000000,4.000000,4.000000,4.000000,4.000000,4.000000,,,,,,,,,,,,,,,,,,,,,,,,,,,,,,,,,,,,,,,,,,,,,,,,,,,,,,,,
1577420171.580668,104.000000,0.000000,3774.871826,4477.948730,4200.000000,3883.589844,4434.871582,450.000000,4.000000,,,,0.000000,4.000000,4.000000,4.000000,4.000000,4.000000,,,,,,,,,,,,,,,,,,,,,,,,,,,,,,,,,,,,,,,,,,,,,,,,,,,,,,,,
1577420171.588565,105.000000,0.000000,3789.743652,4509.230957,4212.820313,3815.384521,4464.615234,450.000000,4.000000,,,,0.000000,4.000000,4.000000,4.000000,4.000000,4.000000,,,,,,,,,,,,,,,,,,,,,,,,,,,,,,,,,,,,,,,,,,,,,,,,,,,,,,,,
1577420171.596362,106.000000,0.000000,3824.102539,4506.153809,4240.512695,3807.692383,4512.307617,450.000000,4.000000,,,,0.000000,4.000000,4.000000,4.000000,4.000000,4.000000,,,,,,,,,,,,,,,,,,,,,,,,,,,,,,,,,,,,,,,,,,,,,,,,,,,,,,,,
1577420171.604258,107.000000,0.000000,3837.948730,4525.641113,4251.282227,3834.358887,4529.230957,16205.000000,4.000000,,,,0.000000,4.000000,4.000000,4.000000,4.000000,4.000000,,,,,,,,,,,,,,,,,,,,,,,,,,,,,,,,,,,,,,,,,,,,,,,,,,,,,,,,
1577420171.612055,108.000000,0.000000,3869.230713,4560.000000,4265.128418,3875.384521,4565.128418,450.000000,4.000000,,,,0.000000,4.000000,4.000000,4.000000,4.000000,4.000000,,,,,,,,,,,,,,,,,,,,,,,,,,,,,,,,,,,,,,,,,,,,,,,,,,,,,,,,
1577420171.619952,109.000000,0.000000,3865.128174,4520.512695,4253.333496,3853.846191,4570.769043,450.000000,4.000000,,,,0.000000,4.000000,4.000000,4.000000,4.000000,4.000000,,,,,,,,,,,,,,,,,,,,,,,,,,,,,,,,,,,,,,,,,,,,,,,,,,,,,,,,
1577420171.627749,110.000000,0.000000,3807.179443,4483.077148,4223.077148,3847.179443,4523.589844,450.000000,4.000000,,,,0.000000,4.000000,4.000000,4.000000,4.000000,4.000000,,,,,,,,,,,,,,,,,,,,,,,,,,,,,,,,,,,,,,,,,,,,,,,,,,,,,,,,
1577420171.635645,111.000000,0.000000,3802.051270,4493.846191,4233.846191,3998.461426,4521.025879,16205.000000,4.000000,,,,0.000000,4.000000,4.000000,4.000000,4.000000,4.000000,,,,,,,,,,,,,,,,,,,,,,,,,,,,,,,,,,,,,,,,,,,,,,,,,,,,,,,,
1577420171.643542,112.000000,0.000000,3843.589844,4485.641113,4260.512695,4123.589844,4564.102539,450.000000,4.000000,,,,0.000000,4.000000,4.000000,4.000000,4.000000,4.000000,,,,,,,,,,,,,,,,,,,,,,,,,,,,,,,,,,,,,,,,,,,,,,,,,,,,,,,,
1577420171.651339,113.000000,0.000000,3846.153809,4449.230957,4257.948730,4105.128418,4582.051270,450.000000,4.000000,,,,0.000000,4.000000,4.000000,4.000000,4.000000,4.000000,,,,,,,,,,,,,,,,,,,,,,,,,,,,,,,,,,,,,,,,,,,,,,,,,,,,,,,,
1577420171.659135,114.000000,0.000000,3823.589844,4407.179688,4241.538574,4131.282227,4569.230957,450.000000,4.000000,,,,0.000000,4.000000,4.000000,4.000000,4.000000,4.000000,,,,,,,,,,,,,,,,,,,,,,,,,,,,,,,,,,,,,,,,,,,,,,,,,,,,,,,,
1577420171.667032,115.000000,0.000000,3816.410156,4389.743652,4233.333496,4163.077148,4570.256348,16205.000000,4.000000,,,,0.000000,4.000000,4.000000,4.000000,4.000000,4.000000,,,,,,,,,,,,,,,,,,,,,,,,,,,,,,,,,,,,,,,,,,,,,,,,,,,,,,,,
1577420171.674929,116.000000,0.000000,3833.846191,4427.692383,4236.922852,4176.922852,4600.512695,450.000000,4.000000,,,,0.000000,4.000000,4.000000,4.000000,4.000000,4.000000,,,,,,,,,,,,,,,,,,,,,,,,,,,,,,,,186.813522,90.319214,41.144741,22.667557,26.757967,33.123089,24.285118,14.993430,7.611590,19.445393,161.964523,42.292866,19.720423,11.211546,14.361080,255.299744,41.340736,16.948814,20.488054,55.270103,135.778214,61.055019,28.060852,10.513751,9.973896
1577420171.682725,117.000000,0.000000,3859.487061,4453.333496,4254.358887,4187.179688,4635.384766,450.000000,4.000000,,,,0.000000,4.000000,4.000000,4.000000,4.000000,4.000000,,,,,,,,,,,,,,,,,,,,,,,,,,,,,,,,,,,,,,,,,,,,,,,,,,,,,,,,
1577420171.690622,118.000000,0.000000,3865.128174,4428.205078,4262.563965,4102.051270,4655.897461,450.000000,4.000000,,,,0.000000,4.000000,4.000000,4.000000,4.000000,4.000000,,,,,,,,,,,,,,,,,,,,,,,,,,,,,,,,,,,,,,,,,,,,,,,,,,,,,,,,
1577420171.698419,119.000000,0.000000,3847.179443,4418.974121,4238.974121,4140.512695,4651.282227,16205.000000,4.000000,,,,0.000000,4.000000,4.000000,4.000000,4.000000,4.000000,,,,,,,,,,,,,,,,,,,,,,,,,,,,,,,,,,,,,,,,,,,,,,,,,,,,,,,,
1577420171.706316,120.000000,0.000000,3829.230713,4432.820313,4212.307617,4228.205078,4634.871582,450.000000,4.000000,,,,0.000000,4.000000,4.000000,4.000000,4.000000,4.000000,,,,,,,,,,,,,,,,,,,,,,,,,,,,,,,,,,,,,,,,,,,,,,,,,,,,,,,,
1577420171.714112,121.000000,0.000000,3827.692383,4428.205078,4204.615234,4121.025879,4629.743652,450.000000,4.000000,,,,0.000000,4.000000,4.000000,4.000000,4.000000,4.000000,,,,,,,,,,,,,,,,,,,,,,,,,,,,,,,,,,,,,,,,,,,,,,,,,,,,,,,,
1577420171.722009,122.000000,0.000000,3835.897461,4418.974121,4205.128418,4078.974365,4630.769043,450.000000,4.000000,,,,0.000000,4.000000,4.000000,4.000000,4.000000,4.000000,,,,,,,,,,,,,,,,,,,,,,,,,,,,,,,,,,,,,,,,,,,,,,,,,,,,,,,,
1577420171.729806,123.000000,0.000000,3836.923096,4411.794922,4197.436035,4159.487305,4630.769043,16205.000000,4.000000,,,,0.000000,4.000000,4.000000,4.000000,4.000000,4.000000,,,,,,,,,,,,,,,,,,,,,,,,,,,,,,,,,,,,,,,,,,,,,,,,,,,,,,,,
1577420171.737603,124.000000,0.000000,3832.307617,4414.358887,4189.230957,4009.230713,4632.307617,450.000000,4.000000,,,,0.000000,4.000000,4.000000,4.000000,4.000000,4.000000,,,,,,,,,,,,,,,,,,,,,,,,,,,,,,,,,,,,,,,,,,,,,,,,,,,,,,,,
1577420171.745299,125.000000,0.000000,3843.076904,4421.538574,4194.358887,3787.692383,4635.384766,450.000000,4.000000,,,,0.000000,4.000000,4.000000,4.000000,4.000000,4.000000,,,,,,,,,,,,,,,,,,,,,,,,,,,,,,,,,,,,,,,,,,,,,,,,,,,,,,,,
1577420171.753096,126.000000,0.000000,3851.794922,4398.461426,4195.897461,3927.179443,4629.743652,450.000000,4.000000,,,,0.000000,4.000000,4.000000,4.000000,4.000000,4.000000,,,,,,,,,,,,,,,,,,,,,,,,,,,,,,,,,,,,,,,,,,,,,,,,,,,,,,,,
1577420171.760793,127.000000,0.000000,3853.846191,4389.230957,4197.436035,4035.897461,4626.153809,236.000000,4.000000,,,,0.000000,4.000000,4.000000,4.000000,4.000000,4.000000,,,,,,,,,,,,,,,,,,,,,,,,,,,,,,,,,,,,,,,,,,,,,,,,,,,,,,,,
1577420171.768590,0.000000,0.000000,3852.820557,4427.179688,4194.358887,3895.384521,4621.538574,450.000000,4.000000,,,,0.000000,4.000000,4.000000,4.000000,4.000000,4.000000,,,,,,,,,,,,,,,,,,,,,,,,,,,,,,,,,,,,,,,,,,,,,,,,,,,,,,,,
1577420171.776287,1.000000,0.000000,3855.384521,4458.974121,4192.820313,3857.948730,4628.205078,450.000000,4.000000,,,,0.000000,4.000000,4.000000,4.000000,4.000000,4.000000,,,,,,,,,,,,,,,,,,,,,,,,,,,,,,,,,,,,,,,,,,,,,,,,,,,,,,,,
1577420171.784183,2.000000,0.000000,3861.538574,4441.538574,4191.794922,3881.538574,4642.051270,16231.000000,4.000000,,,,0.000000,4.000000,4.000000,4.000000,4.000000,4.000000,,,,,,,,,,,,,,,,,,,,,,,,,,,,,,,,,,,,,,,,,,,,,,,,,,,,,,,,
1577420171.791980,3.000000,0.000000,3845.641113,4403.589844,4167.179688,3931.794922,4630.256348,450.000000,4.000000,,,,0.000000,4.000000,4.000000,4.000000,4.000000,4.000000,,,,,,,,,,,,,,,,,,,,,,,,,,,,,,,,,,,,,,,,,,,,,,,,,,,,,,,,
1577420171.799777,4.000000,0.000000,3835.384521,4397.436035,4149.743652,4008.718018,4615.897461,16191.000000,4.000000,,,,0.000000,4.000000,4.000000,4.000000,4.000000,4.000000,,,,,,,,,,,,,,,,,,,,,,,,,,,,,,,,141.493118,64.188042,27.755337,15.617809,18.299896,27.285301,20.113701,10.923090,5.414656,14.219679,147.261368,29.367115,13.757888,8.020409,9.923078,299.159821,45.766369,17.505852,24.651188,64.920753,103.845772,44.582863,19.071659,7.588985,7.212726
1577420171.807473,5.000000,0.000000,3861.538574,4395.384766,4162.051270,3920.512939,4640.000000,450.000000,4.000000,,,,0.000000,4.000000,4.000000,4.000000,4.000000,4.000000,,,,,,,,,,,,,,,,,,,,,,,,,,,,,,,,,,,,,,,,,,,,,,,,,,,,,,,,
1577420171.815370,6.000000,0.000000,3902.051270,4402.563965,4173.846191,3865.641113,4682.051270,16148.000000,4.000000,,,,0.000000,4.000000,4.000000,4.000000,4.000000,4.000000,,,,,,,,,,,,,,,,,,,,,,,,,,,,,,,,,,,,,,,,,,,,,,,,,,,,,,,,
1577420171.823167,7.000000,0.000000,3907.692383,4413.846191,4156.410156,4016.410156,4682.563965,450.000000,4.000000,,,,0.000000,4.000000,4.000000,4.000000,4.000000,4.000000,,,,,,,,,,,,,,,,,,,,,,,,,,,,,,,,,,,,,,,,,,,,,,,,,,,,,,,,
1577420171.831064,8.000000,0.000000,3898.461426,4396.922852,4142.051270,3998.974365,4673.333496,450.000000,4.000000,,,,0.000000,4.000000,4.000000,4.000000,4.000000,4.000000,,,,,,,,,,,,,,,,,,,,,,,,,,,,,,,,,,,,,,,,,,,,,,,,,,,,,,,,
1577420171.838860,9.000000,0.000000,3932.307617,4392.820313,4163.077148,3884.102539,4706.153809,16112.000000,4.000000,,,,0.000000,4.000000,4.000000,4.000000,4.000000,4.000000,,,,,,,,,,,,,,,,,,,,,,,,,,,,,,,,,,,,,,,,,,,,,,,,,,,,,,,,
1577420171.846757,10.000000,0.000000,3957.435791,4418.461426,4172.307617,3988.205078,4723.589844,450.000000,4.000000,,,,0.000000,4.000000,4.000000,4.000000,4.000000,4.000000,,,,,,,,,,,,,,,,,,,,,,,,,,,,,,,,,,,,,,,,,,,,,,,,,,,,,,,,
1577420171.854554,11.000000,0.000000,3918.974365,4414.871582,4136.922852,4056.923096,4683.589844,16203.000000,4.000000,,,,0.000000,4.000000,4.000000,4.000000,4.000000,4.000000,,,,,,,,,,,,,,,,,,,,,,,,,,,,,,,,,,,,,,,,,,,,,,,,,,,,,,,,
1577420171.862450,12.000000,0.000000,3880.512939,4374.358887,4105.641113,3948.718018,4643.077148,450.000000,4.000000,,,,0.000000,4.000000,4.000000,4.000000,4.000000,4.000000,,,,,,,,,,,,,,,,,,,,,,,,,,,,,,,,,,,,,,,,,,,,,,,,,,,,,,,,
1577420171.870247,13.000000,0.000000,3885.128174,4344.102539,4113.846191,3863.076904,4645.128418,450.000000,4.000000,,,,0.000000,4.000000,4.000000,4.000000,4.000000,4.000000,,,,,,,,,,,,,,,,,,,,,,,,,,,,,,,,,,,,,,,,,,,,,,,,,,,,,,,,
1577420171.878144,14.000000,0.000000,3900.000000,4352.820313,4121.025879,3897.435791,4654.358887,450.000000,4.000000,,,,0.000000,4.000000,4.000000,4.000000,4.000000,4.000000,,,,,,,,,,,,,,,,,,,,,,,,,,,,,,,,,,,,,,,,,,,,,,,,,,,,,,,,
1577420171.885941,15.000000,0.000000,3903.076904,4377.436035,4105.641113,4061.538574,4643.589844,16203.000000,4.000000,,,,0.000000,4.000000,4.000000,4.000000,4.000000,4.000000,,,,,,,,,,,,,,,,,,,,,,,,,,,,,,,,,,,,,,,,,,,,,,,,,,,,,,,,
1577420171.893837,16.000000,0.000000,3900.000000,4375.384766,4093.333252,4099.487305,4626.153809,0.000000,4.000000,,,,0.000000,4.000000,4.000000,4.000000,4.000000,4.000000,,,,,,,,,,,,,,,,,,,,,,,,,,,,,,,,,,,,,,,,,,,,,,,,,,,,,,,,
1577420171.901634,17.000000,0.000000,3897.435791,4382.051270,4088.205078,3870.769287,4603.077148,0.000000,4.000000,,,,0.000000,4.000000,4.000000,4.000000,4.000000,4.000000,,,,,,,,,,,,,,,,,,,,,,,,,,,,,,,,,,,,,,,,,,,,,,,,,,,,,,,,
1577420171.909531,18.000000,0.000000,3901.538574,4418.461426,4084.615479,3828.205078,4586.666504,0.000000,4.000000,,,,0.000000,4.000000,4.000000,4.000000,4.000000,4.000000,,,,,,,,,,,,,,,,,,,,,,,,,,,,,,,,,,,,,,,,,,,,,,,,,,,,,,,,
1577420171.917327,19.000000,0.000000,3913.846191,4421.025879,4091.281982,4072.307617,4584.102539,0.000000,4.000000,,,,0.000000,4.000000,4.000000,4.000000,4.000000,4.000000,,,,,,,,,,,,,,,,,,,,,,,,,,,,,,,,,,,,,,,,,,,,,,,,,,,,,,,,
1577420171.925024,20.000000,0.000000,3908.205078,4401.025879,4085.641113,4073.333252,4564.615234,0.000000,4.000000,,,,0.000000,4.000000,4.000000,4.000000,4.000000,4.000000,,,,,,,,,,,,,,,,,,,,,,,,,,,,,,,,101.511353,39.330593,15.562966,9.117028,10.583907,22.197779,16.188690,7.022887,3.527148,9.518726,123.138992,17.355074,8.101398,5.012679,5.879401,333.461395,60.050194,20.986734,29.903004,72.394562,71.634445,28.200977,10.719406,4.868173,4.706403
1577420171.932821,21.000000,0.000000,3885.641113,4398.461426,4062.051270,3882.564209,4529.230957,0.000000,4.000000,,,,0.000000,4.000000,4.000000,4.000000,4.000000,4.000000,,,,,,,,,,,,,,,,,,,,,,,,,,,,,,,,,,,,,,,,,,,,,,,,,,,,,,,,
1577420171.940718,22.000000,0.000000,3893.333252,4404.102539,4062.564209,3941.025635,4510.769043,0.000000,4.000000,,,,0.000000,4.000000,4.000000,4.000000,4.000000,4.000000,,,,,,,,,,,,,,,,,,,,,,,,,,,,,,,,,,,,,,,,,,,,,,,,,,,,,,,,
1577420171.948515,23.000000,0.000000,3949.230713,4435.384766,4091.794922,4082.051270,4518.461426,0.000000,4.000000,,,,0.000000,4.000000,4.000000,4.000000,4.000000,4.000000,,,,,,,,,,,,,,,,,,,,,,,,,,,,,,,,,,,,,,,,,,,,,,,,,,,,,,,,
1577420171.956211,24.000000,0.000000,3996.923096,4463.077148,4109.230957,3996.923096,4524.102539,0.000000,4.000000,,,,0.000000,4.000000,4.000000,4.000000,4.000000,4.000000,,,,,,,,,,,,,,,,,,,,,,,,,,,,,,,,,,,,,,,,,,,,,,,,,,,,,,,,
1577420171.964108,25.000000,0.000000,4005.128174,4425.641113,4108.717773,4010.769287,4514.358887,0.000000,4.000000,,,,0.000000,4.000000,4.000000,4.000000,4.000000,4.000000,,,,,,,,,,,,,,,,,,,,,,,,,,,,,,,,,,,,,,,,,,,,,,,,,,,,,,,,
1577420171.971905,26.000000,0.000000,4016.410156,4401.538574,4111.282227,4100.000000,4500.000000,0.000000,4.000000,,,,0.000000,4.000000,4.000000,4.000000,4.000000,4.000000,,,,,,,,,,,,,,,,,,,,,,,,,,,,,,,,,,,,,,,,,,,,,,,,,,,,,,,,
1577420171.979801,27.000000,0.000000,4041.538574,4418.974121,4117.436035,4014.358887,4482.051270,0.000000,4.000000,,,,0.000000,4.000000,4.000000,4.000000,4.000000,4.000000,,,,,,,,,,,,,,,,,,,,,,,,,,,,,,,,,,,,,,,,,,,,,,,,,,,,,,,,
1577420171.987598,28.000000,0.000000,4043.076904,4393.333496,4104.102539,4019.487061,4450.256348,0.000000,4.000000,,,,0.000000,4.000000,4.000000,4.000000,4.000000,4.000000,,,,,,,,,,,,,,,,,,,,,,,,,,,,,,,,,,,,,,,,,,,,,,,,,,,,,,,,
1577420171.995495,29.000000,0.000000,4011.794922,4344.102539,4075.897461,4140.000000,4402.051270,0.000000,4.000000,,,,0.000000,4.000000,4.000000,4.000000,4.000000,4.000000,,,,,,,,,,,,,,,,,,,,,,,,,,,,,,,,,,,,,,,,,,,,,,,,,,,,,,,,
1577420172.003292,30.000000,0.000000,4000.512939,4350.769043,4069.230713,4048.718018,4375.384766,0.000000,4.000000,,,,0.000000,4.000000,4.000000,4.000000,4.000000,4.000000,,,,,,,,,,,,,,,,,,,,,,,,,,,,,,,,,,,,,,,,,,,,,,,,,,,,,,,,
1577420172.011188,31.000000,0.000000,4016.923096,4381.025879,4074.358887,3923.076904,4378.461426,0.000000,4.000000,,,,0.000000,4.000000,4.000000,4.000000,4.000000,4.000000,,,,,,,,,,,,,,,,,,,,,,,,,,,,,,,,,,,,,,,,,,,,,,,,,,,,,,,,
1577420172.018985,32.000000,0.000000,4003.589844,4374.358887,4056.410156,4073.846191,4354.871582,0.000000,4.000000,,,,0.000000,4.000000,4.000000,4.000000,4.000000,4.000000,,,,,,,,,,,,,,,,,,,,,,,,,,,,,,,,,,,,,,,,,,,,,,,,,,,,,,,,
1577420172.026882,33.000000,0.000000,3964.615479,4364.615234,4031.794922,4184.615234,4303.077148,0.000000,4.000000,,,,0.000000,4.000000,4.000000,4.000000,4.000000,4.000000,,,,,,,,,,,,,,,,,,,,,,,,,,,,,,,,,,,,,,,,,,,,,,,,,,,,,,,,
1577420172.034779,34.000000,0.000000,3954.871826,4401.025879,4030.769287,4051.281982,4285.128418,0.000000,4.000000,,,,0.000000,4.000000,4.000000,4.000000,4.000000,4.000000,,,,,,,,,,,,,,,,,,,,,,,,,,,,,,,,,,,,,,,,,,,,,,,,,,,,,,,,
1577420172.042576,35.000000,0.000000,3960.512939,4437.436035,4035.897461,3941.025635,4288.205078,0.000000,4.000000,,,,0.000000,4.000000,4.000000,4.000000,4.000000,4.000000,,,,,,,,,,,,,,,,,,,,,,,,,,,,,,,,,,,,,,,,,,,,,,,,,,,,,,,,
1577420172.050373,36.000000,0.000000,3945.128174,4417.436035,4027.692383,4033.333252,4266.153809,0.000000,4.000000,,,,0.000000,4.000000,4.000000,4.000000,4.000000,4.000000,,,,,,,,,,,,,,,,,,,,,,,,,,,,,,,,83.433784,21.955063,7.518001,4.692783,5.356517,19.512604,13.408974,4.342200,2.431896,6.456758,94.882111,8.890067,4.105494,2.917571,3.171280,358.587524,83.691689,27.714306,35.724632,76.417953,46.710423,15.646148,4.947658,3.049944,3.052219
1577420172.058170,37.000000,0.000000,3936.410156,4411.282227,4023.076904,4141.025879,4247.179688,0.000000,4.000000,,,,0.000000,4.000000,4.000000,4.000000,4.000000,4.000000,,,,,,,,,,,,,,,,,,,,,,,,,,,,,,,,,,,,,,,,,,,,,,,,,,,,,,,,
1577420172.066067,38.000000,0.000000,3939.487061,4472.820313,4019.487061,4045.641113,4243.077148,0.000000,4.000000,,,,0.000000,4.000000,4.000000,4.000000,4.000000,4.000000,,,,,,,,,,,,,,,,,,,,,,,,,,,,,,,,,,,,,,,,,,,,,,,,,,,,,,,,
1577420172.073863,39.000000,0.000000,3941.538574,4501.538574,4020.000000,4009.743652,4242.051270,0.000000,4.000000,,,,0.000000,4.000000,4.000000,4.000000,4.000000,4.000000,,,,,,,,,,,,,,,,,,,,,,,,,,,,,,,,,,,,,,,,,,,,,,,,,,,,,,,,
1577420172.081760,40.000000,0.000000,3965.641113,4484.102539,4038.461426,4130.256348,4246.153809,0.000000,4.000000,,,,0.000000,4.000000,4.000000,4.000000,4.000000,4.000000,,,,,,,,,,,,,,,,,,,,,,,,,,,,,,,,,,,,,,,,,,,,,,,,,,,,,,,,
1577420172.089657,41.000000,0.000000,3996.923096,4496.922852,4049.743652,4104.615234,4245.128418,0.000000,4.000000,,,,0.000000,4.000000,4.000000,4.000000,4.000000,4.000000,,,,,,,,,,,,,,,,,,,,,,,,,,,,,,,,,,,,,,,,,,,,,,,,,,,,,,,,
1577420172.097453,42.000000,0.000000,4006.153809,4515.384766,4038.974365,4027.179443,4234.871582,0.000000,4.000000,,,,0.000000,4.000000,4.000000,4.000000,4.000000,4.000000,,,,,,,,,,,,,,,,,,,,,,,,,,,,,,,,,,,,,,,,,,,,,,,,,,,,,,,,
1577420172.105350,43.000000,0.000000,4008.718018,4486.153809,4024.615479,4119.487305,4211.794922,0.000000,4.000000,,,,0.000000,4.000000,4.000000,4.000000,4.000000,4.000000,,,,,,,,,,,,,,,,,,,,,,,,,,,,,,,,,,,,,,,,,,,,,,,,,,,,,,,,
1577420172.113147,44.000000,0.000000,4042.051270,4471.794922,4023.076904,4164.102539,4197.436035,0.000000,4.000000,,,,0.000000,4.000000,4.000000,4.000000,4.000000,4.000000,,,,,,,,,,,,,,,,,,,,,,,,,,,,,,,,,,,,,,,,,,,,,,,,,,,,,,,,
1577420172.121043,45.000000,0.000000,4100.512695,4499.487305,4035.384521,4058.461426,4204.615234,0.000000,4.000000,,,,0.000000,4.000000,4.000000,4.000000,4.000000,4.000000,,,,,,,,,,,,,,,,,,,,,,,,,,,,,,,,,,,,,,,,,,,,,,,,,,,,,,,,
1577420172.128840,46.000000,0.000000,4133.846191,4497.948730,4040.000000,4031.281982,4201.025879,0.000000,4.000000,,,,0.000000,4.000000,4.000000,4.000000,4.000000,4.000000,,,,,,,,,,,,,,,,,,,,,,,,,,,,,,,,,,,,,,,,,,,,,,,,,,,,,,,,
1577420172.136737,47.000000,0.000000,4150.769043,4484.615234,4029.743652,4119.487305,4188.205078,0.000000,4.000000,,,,0.000000,4.000000,4.000000,4.000000,4.000000,4.000000,,,,,,,,,,,,,,,,,,,,,,,,,,,,,,,,,,,,,,,,,,,,,,,,,,,,,,,,
1577420172.144534,48.000000,0.000000,4171.282227,4491.282227,4019.487061,4169.230957,4175.384766,0.000000,4.000000,,,,0.000000,4.000000,4.000000,4.000000,4.000000,4.000000,,,,,,,,,,,,,,,,,,,,,,,,,,,,,,,,,,,,,,,,,,,,,,,,,,,,,,,,
1577420172.152430,49.000000,0.000000,4190.256348,4469.743652,4014.871826,4114.358887,4164.102539,0.000000,4.000000,,,,0.000000,4.000000,4.000000,4.000000,4.000000,4.000000,,,,,,,,,,,,,,,,,,,,,,,,,,,,,,,,,,,,,,,,,,,,,,,,,,,,,,,,
1577420172.160227,50.000000,0.000000,4218.974121,4450.256348,4013.846191,4083.076904,4166.153809,0.000000,4.000000,,,,0.000000,4.000000,4.000000,4.000000,4.000000,4.000000,,,,,,,,,,,,,,,,,,,,,,,,,,,,,,,,,,,,,,,,,,,,,,,,,,,,,,,,
1577420172.168124,51.000000,0.000000,4247.692383,4466.153809,4009.743652,4155.384766,4163.589844,0.000000,4.000000,,,,0.000000,4.000000,4.000000,4.000000,4.000000,4.000000,,,,,,,,,,,,,,,,,,,,,,,,,,,,,,,,,,,,,,,,,,,,,,,,,,,,,,,,
1577420172.175921,52.000000,0.000000,4257.436035,4469.230957,4004.615479,4196.922852,4147.692383,0.000000,4.000000,,,,0.000000,4.000000,4.000000,4.000000,4.000000,4.000000,,,,,,,,,,,,,,,,,,,,,,,,,,,,,,,,87.196938,13.648462,4.280623,2.658317,2.908539,19.486023,11.778458,3.304452,2.216613,5.141820,67.383698,4.422211,2.151828,1.913872,1.952633,369.376465,110.080093,36.209274,40.897697,76.664116,34.276764,8.275807,2.315577,2.296838,2.341935
1577420172.183817,53.000000,0.000000,4264.102539,4431.282227,3997.435791,4090.769287,4136.410156,0.000000,4.000000,,,,0.000000,4.000000,4.000000,4.000000,4.000000,4.000000,,,,,,,,,,,,,,,,,,,,,,,,,,,,,,,,,,,,,,,,,,,,,,,,,,,,,,,,
1577420172.191614,54.000000,0.000000,4286.153809,4420.512695,3992.820557,4073.846191,4137.948730,0.000000,4.000000,,,,0.000000,4.000000,4.000000,4.000000,4.000000,4.000000,,,,,,,,,,,,,,,,,,,,,,,,,,,,,,,,,,,,,,,,,,,,,,,,,,,,,,,,
1577420172.199511,55.000000,0.000000,4318.461426,4466.153809,3997.948730,4197.436035,4141.025879,0.000000,4.000000,,,,0.000000,4.000000,4.000000,4.000000,4.000000,4.000000,,,,,,,,,,,,,,,,,,,,,,,,,,,,,,,,,,,,,,,,,,,,,,,,,,,,,,,,
1577420172.207307,56.000000,0.000000,4337.436035,4479.487305,3992.307617,4184.615234,4125.128418,0.000000,4.000000,,,,0.000000,4.000000,4.000000,4.000000,4.000000,4.000000,,,,,,,,,,,,,,,,,,,,,,,,,,,,,,,,,,,,,,,,,,,,,,,,,,,,,,,,
1577420172.215204,57.000000,0.000000,4349.743652,4451.282227,3990.769287,4113.846191,4116.410156,0.000000,4.000000,,,,0.000000,4.000000,4.000000,4.000000,4.000000,4.000000,,,,,,,,,,,,,,,,,,,,,,,,,,,,,,,,,,,,,,,,,,,,,,,,,,,,,,,,
1577420172.223001,58.000000,0.000000,4368.717773,4460.000000,4004.102539,4219.487305,4121.538574,0.000000,4.000000,,,,0.000000,4.000000,4.000000,4.000000,4.000000,4.000000,,,,,,,,,,,,,,,,,,,,,,,,,,,,,,,,,,,,,,,,,,,,,,,,,,,,,,,,
1577420172.230897,59.000000,0.000000,4356.922852,4488.717773,3990.256348,4242.563965,4090.256348,0.000000,4.000000,,,,0.000000,4.000000,4.000000,4.000000,4.000000,4.000000,,,,,,,,,,,,,,,,,,,,,,,,,,,,,,,,,,,,,,,,,,,,,,,,,,,,,,,,
1577420172.238694,60.000000,0.000000,4329.743652,4478.461426,3961.025635,4070.769287,4045.641113,0.000000,4.000000,,,,0.000000,4.000000,4.000000,4.000000,4.000000,4.000000,,,,,,,,,,,,,,,,,,,,,,,,,,,,,,,,,,,,,,,,,,,,,,,,,,,,,,,,
1577420172.246591,61.000000,0.000000,4361.025879,4446.666504,3969.743652,4116.410156,4056.923096,0.000000,4.000000,,,,0.000000,4.000000,4.000000,4.000000,4.000000,4.000000,,,,,,,,,,,,,,,,,,,,,,,,,,,,,,,,,,,,,,,,,,,,,,,,,,,,,,,,
1577420172.254488,62.000000,0.000000,4421.538574,4454.871582,3991.794922,4232.307617,4093.846191,0.000000,4.000000,,,,0.000000,4.000000,4.000000,4.000000,4.000000,4.000000,,,,,,,,,,,,,,,,,,,,,,,,,,,,,,,,,,,,,,,,,,,,,,,,,,,,,,,,
1577420172.262285,63.000000,0.000000,4455.897461,4482.051270,3989.230713,4092.307617,4092.820557,0.000000,4.000000,,,,0.000000,4.000000,4.000000,4.000000,4.000000,4.000000,,,,,,,,,,,,,,,,,,,,,,,,,,,,,,,,,,,,,,,,,,,,,,,,,,,,,,,,
1577420172.270181,64.000000,0.000000,4496.922852,4472.307617,3990.256348,4059.487061,4097.436035,450.000000,4.000000,,,,0.000000,4.000000,4.000000,4.000000,4.000000,4.000000,,,,,,,,,,,,,,,,,,,,,,,,,,,,,,,,,,,,,,,,,,,,,,,,,,,,,,,,
1577420172.277978,65.000000,0.000000,4558.461426,4443.077148,4001.538574,4220.512695,4126.666504,450.000000,4.000000,,,,0.000000,4.000000,4.000000,4.000000,4.000000,4.000000,,,,,,,,,,,,,,,,,,,,,,,,,,,,,,,,,,,,,,,,,,,,,,,,,,,,,,,,
1577420172.285775,66.000000,0.000000,4622.051270,4458.974121,3996.923096,4269.230957,4137.948730,16227.000000,4.000000,,,,0.000000,4.000000,4.000000,4.000000,4.000000,4.000000,,,,,,,,,,,,,,,,,,,,,,,,,,,,,,,,,,,,,,,,,,,,,,,,,,,,,,,,
1577420172.293672,67.000000,0.000000,4688.717773,4495.384766,3990.769287,4178.461426,4153.333496,450.000000,4.000000,,,,0.000000,4.000000,4.000000,4.000000,4.000000,4.000000,,,,,,,,,,,,,,,,,,,,,,,,,,,,,,,,,,,,,,,,,,,,,,,,,,,,,,,,
1577420172.301468,68.000000,0.000000,4735.384766,4493.333496,3991.794922,4094.358887,4176.922852,16197.000000,4.000000,,,,0.000000,4.000000,4.000000,4.000000,4.000000,4.000000,,,,,,,,,,,,,,,,,,,,,,,,,,,,,,,,107.648262,11.866342,4.488304,2.288663,2.341085,21.065046,10.787870,3.618565,2.608397,4.879698,43.626179,2.704733,1.738846,1.694650,1.723433,365.118958,129.350311,43.636429,43.917416,74.165108,31.399763,5.150259,2.060022,2.298695,2.248007
1577420172.309365,69.000000,0.000000,4721.025879,4473.333496,3990.256348,4154.871582,4172.820313,450.000000,4.000000,,,,0.000000,4.000000,4.000000,4.000000,4.000000,4.000000,,,,,,,,,,,,,,,,,,,,,,,,,,,,,,,,,,,,,,,,,,,,,,,,,,,,,,,,
1577420172.317162,70.000000,0.000000,4645.128418,4486.666504,3987.692383,4318.461426,4156.922852,16158.000000,4.000000,,,,0.000000,4.000000,4.000000,4.000000,4.000000,4.000000,,,,,,,,,,,,,,,,,,,,,,,,,,,,,,,,,,,,,,,,,,,,,,,,,,,,,,,,
1577420172.325059,71.000000,0.000000,4553.333496,4514.358887,3997.948730,4257.436035,4159.487305,450.000000,4.000000,,,,0.000000,4.000000,4.000000,4.000000,4.000000,4.000000,,,,,,,,,,,,,,,,,,,,,,,,,,,,,,,,,,,,,,,,,,,,,,,,,,,,,,,,
1577420172.332855,72.000000,0.000000,4491.282227,4507.179688,4016.410156,4115.384766,4165.641113,450.000000,4.000000,,,,0.000000,4.000000,4.000000,4.000000,4.000000,4.000000,,,,,,,,,,,,,,,,,,,,,,,,,,,,,,,,,,,,,,,,,,,,,,,,,,,,,,,,
1577420172.340752,73.000000,0.000000,4447.692383,4492.820313,4014.871826,4240.512695,4133.846191,16231.000000,4.000000,,,,0.000000,4.000000,4.000000,4.000000,4.000000,4.000000,,,,,,,,,,,,,,,,,,,,,,,,,,,,,,,,,,,,,,,,,,,,,,,,,,,,,,,,
1577420172.348649,74.000000,0.000000,4403.077148,4492.307617,3986.666748,4286.153809,4070.256348,450.000000,4.000000,,,,0.000000,4.000000,4.000000,4.000000,4.000000,4.000000,,,,,,,,,,,,,,,,,,,,,,,,,,,,,,,,,,,,,,,,,,,,,,,,,,,,,,,,
1577420172.356445,75.000000,0.000000,4403.589844,4503.589844,3973.333252,4162.563965,4033.846191,16220.000000,4.000000,,,,0.000000,4.000000,4.000000,4.000000,4.000000,4.000000,,,,,,,,,,,,,,,,,,,,,,,,,,,,,,,,,,,,,,,,,,,,,,,,,,,,,,,,
1577420172.364342,76.000000,0.000000,4453.333496,4508.205078,3985.128174,4237.436035,4023.589844,450.000000,4.000000,,,,0.000000,4.000000,4.000000,4.000000,4.000000,4.000000,,,,,,,,,,,,,,,,,,,,,,,,,,,,,,,,,,,,,,,,,,,,,,,,,,,,,,,,
1577420172.372139,77.000000,0.000000,4498.974121,4485.128418,3991.794922,4369.230957,4006.153809,450.000000,4.000000,,,,0.000000,4.000000,4.000000,4.000000,4.000000,4.000000,,,,,,,,,,,,,,,,,,,,,,,,,,,,,,,,,,,,,,,,,,,,,,,,,,,,,,,,
1577420172.380035,78.000000,0.000000,4528.717773,4475.897461,3997.435791,4247.692383,3998.461426,450.000000,4.000000,,,,0.000000,4.000000,4.000000,4.000000,4.000000,4.000000,,,,,,,,,,,,,,,,,,,,,,,,,,,,,,,,,,,,,,,,,,,,,,,,,,,,,,,,
1577420172.387832,79.000000,0.000000,4548.717773,4500.512695,4004.615479,4173.333496,3998.974365,16220.000000,4.000000,,,,0.000000,4.000000,4.000000,4.000000,4.000000,4.000000,,,,,,,,,,,,,,,,,,,,,,,,,,,,,,,,,,,,,,,,,,,,,,,,,,,,,,,,
1577420172.395729,80.000000,0.000000,4547.692383,4514.358887,3992.820557,4321.538574,3976.410156,450.000000,4.000000,,,,0.000000,4.000000,4.000000,4.000000,4.000000,4.000000,,,,,,,,,,,,,,,,,,,,,,,,,,,,,,,,,,,,,,,,,,,,,,,,,,,,,,,,
1577420172.403526,81.000000,0.000000,4536.410156,4487.179688,3975.897461,4352.820313,3953.333252,450.000000,4.000000,,,,0.000000,4.000000,4.000000,4.000000,4.000000,4.000000,,,,,,,,,,,,,,,,,,,,,,,,,,,,,,,,,,,,,,,,,,,,,,,,,,,,,,,,
1577420172.411422,82.000000,0.000000,4549.230957,4489.230957,3989.743652,4261.025879,3972.307617,450.000000,4.000000,,,,0.000000,4.000000,4.000000,4.000000,4.000000,4.000000,,,,,,,,,,,,,,,,,,,,,,,,,,,,,,,,,,,,,,,,,,,,,,,,,,,,,,,,
1577420172.419219,83.000000,0.000000,4560.000000,4507.692383,4001.538574,4315.897461,3981.025635,16220.000000,4.000000,,,,0.000000,4.000000,4.000000,4.000000,4.000000,4.000000,,,,,,,,,,,,,,,,,,,,,,,,,,,,,,,,,,,,,,,,,,,,,,,,,,,,,,,,
1577420172.427116,84.000000,0.000000,4521.538574,4467.179688,3967.692383,4420.512695,3926.666748,450.000000,4.000000,,,,0.000000,4.000000,4.000000,4.000000,4.000000,4.000000,,,,,,,,,,,,,,,,,,,,,,,,,,,,,,,,128.684769,12.681350,6.021308,2.507321,2.423094,23.295038,10.003352,4.583357,3.188380,4.811095,25.811792,2.105425,1.980207,1.774071,1.801423,344.058044,133.370209,47.235115,43.704414,70.843925,32.946236,4.629372,2.801410,2.560445,2.324952
1577420172.434912,85.000000,0.000000,4482.563965,4455.384766,3938.461426,4343.589844,3889.230713,450.000000,4.000000,,,,0.000000,4.000000,4.000000,4.000000,4.000000,4.000000,,,,,,,,,,,,,,,,,,,,,,,,,,,,,,,,,,,,,,,,,,,,,,,,,,,,,,,,
1577420172.442809,86.000000,0.000000,4494.358887,4497.436035,3959.487061,4256.922852,3909.743652,450.000000,4.000000,,,,0.000000,4.000000,4.000000,4.000000,4.000000,4.000000,,,,,,,,,,,,,,,,,,,,,,,,,,,,,,,,,,,,,,,,,,,,,,,,,,,,,,,,
1577420172.450606,87.000000,0.000000,4489.230957,4474.358887,3957.948730,4323.589844,3901.538574,16220.000000,4.000000,,,,0.000000,4.000000,4.000000,4.000000,4.000000,4.000000,,,,,,,,,,,,,,,,,,,,,,,,,,,,,,,,,,,,,,,,,,,,,,,,,,,,,,,,
1577420172.458503,88.000000,0.000000,4462.051270,4444.102539,3932.820557,4381.538574,3871.794922,450.000000,4.000000,,,,0.000000,4.000000,4.000000,4.000000,4.000000,4.000000,,,,,,,,,,,,,,,,,,,,,,,,,,,,,,,,,,,,,,,,,,,,,,,,,,,,,,,,
1577420172.466299,89.000000,0.000000,4479.487305,4497.948730,3955.384521,4372.820313,3887.692383,450.000000,4.000000,,,,0.000000,4.000000,4.000000,4.000000,4.000000,4.000000,,,,,,,,,,,,,,,,,,,,,,,,,,,,,,,,,,,,,,,,,,,,,,,,,,,,,,,,
1577420172.474196,90.000000,0.000000,4496.410156,4501.025879,3978.461426,4402.563965,3903.076904,450.000000,4.000000,,,,0.000000,4.000000,4.000000,4.000000,4.000000,4.000000,,,,,,,,,,,,,,,,,,,,,,,,,,,,,,,,,,,,,,,,,,,,,,,,,,,,,,,,
1577420172.481993,91.000000,0.000000,4477.948730,4442.563965,3968.205078,4445.128418,3884.615479,16220.000000,4.000000,,,,0.000000,4.000000,4.000000,4.000000,4.000000,4.000000,,,,,,,,,,,,,,,,,,,,,,,,,,,,,,,,,,,,,,,,,,,,,,,,,,,,,,,,
1577420172.489889,92.000000,0.000000,4468.205078,4460.512695,3969.743652,4335.897461,3871.794922,450.000000,4.000000,,,,0.000000,4.000000,4.000000,4.000000,4.000000,4.000000,,,,,,,,,,,,,,,,,,,,,,,,,,,,,,,,,,,,,,,,,,,,,,,,,,,,,,,,
1577420172.497686,93.000000,0.000000,4479.487305,4492.820313,3980.000000,4294.871582,3880.000000,450.000000,4.000000,,,,0.000000,4.000000,4.000000,4.000000,4.000000,4.000000,,,,,,,,,,,,,,,,,,,,,,,,,,,,,,,,,,,,,,,,,,,,,,,,,,,,,,,,
1577420172.505583,94.000000,0.000000,4496.922852,4479.487305,3988.718018,4423.589844,3903.589844,450.000000,4.000000,,,,0.000000,4.000000,4.000000,4.000000,4.000000,4.000000,,,,,,,,,,,,,,,,,,,,,,,,,,,,,,,,,,,,,,,,,,,,,,,,,,,,,,,,
1577420172.513380,95.000000,0.000000,4506.153809,4460.000000,3994.358887,4405.128418,3918.461426,16220.000000,4.000000,,,,0.000000,4.000000,4.000000,4.000000,4.000000,4.000000,,,,,,,,,,,,,,,,,,,,,,,,,,,,,,,,,,,,,,,,,,,,,,,,,,,,,,,,
1577420172.521276,96.000000,0.000000,4504.615234,4451.282227,3988.205078,4334.871582,3909.743652,450.000000,4.000000,,,,0.000000,4.000000,4.000000,4.000000,4.000000,4.000000,,,,,,,,,,,,,,,,,,,,,,,,,,,,,,,,,,,,,,,,,,,,,,,,,,,,,,,,
1577420172.529173,97.000000,0.000000,4522.563965,4495.897461,3997.948730,4329.230957,3921.538574,450.000000,4.000000,,,,0.000000,4.000000,4.000000,4.000000,4.000000,4.000000,,,,,,,,,,,,,,,,,,,,,,,,,,,,,,,,,,,,,,,,,,,,,,,,,,,,,,,,
1577420172.536970,98.000000,0.000000,4564.102539,4528.205078,4029.230713,4484.102539,3963.076904,450.000000,4.000000,,,,0.000000,4.000000,4.000000,4.000000,4.000000,4.000000,,,,,,,,,,,,,,,,,,,,,,,,,,,,,,,,,,,,,,,,,,,,,,,,,,,,,,,,
1577420172.544866,99.000000,0.000000,4577.436035,4469.230957,4024.615479,5137.948730,3967.179443,16220.000000,4.000000,,,,0.000000,4.000000,4.000000,4.000000,4.000000,4.000000,,,,,,,,,,,,,,,,,,,,,,,,,,,,,,,,,,,,,,,,,,,,,,,,,,,,,,,,
1577420172.552663,100.000000,0.000000,4577.948730,4467.692383,3996.410156,5932.820313,3952.307617,450.000000,4.000000,,,,0.000000,4.000000,4.000000,4.000000,4.000000,4.000000,,,,,,,,,,,,,,,,,,,,,,,,,,,,,,,,140.176208,14.090673,7.841321,2.717129,2.500218,26.468359,9.344468,5.529187,3.654160,4.554686,14.681416,1.856517,2.287657,1.856884,1.819456,308.095795,119.759743,45.781876,40.122425,68.661377,34.588650,5.571527,3.584560,2.780552,2.330175
1577420172.560560,101.000000,0.000000,4618.461426,4542.563965,3999.487061,6132.820313,3982.051270,450.000000,4.000000,,,,0.000000,4.000000,4.000000,4.000000,4.000000,4.000000,,,,,,,,,,,,,,,,,,,,,,,,,,,,,,,,,,,,,,,,,,,,,,,,,,,,,,,,
1577420172.568357,102.000000,0.000000,4676.922852,4516.410156,4001.025635,6031.282227,4014.871826,450.000000,4.000000,,,,0.000000,4.000000,4.000000,4.000000,4.000000,4.000000,,,,,,,,,,,,,,,,,,,,,,,,,,,,,,,,,,,,,,,,,,,,,,,,,,,,,,,,
1577420172.576253,103.000000,0.000000,4708.205078,4456.410156,3982.564209,6099.487305,4019.487061,16220.000000,4.000000,,,,0.000000,4.000000,4.000000,4.000000,4.000000,4.000000,,,,,,,,,,,,,,,,,,,,,,,,,,,,,,,,,,,,,,,,,,,,,,,,,,,,,,,,
1577420172.584050,104.000000,0.000000,4719.487305,4505.641113,3975.897461,6112.307617,4021.538574,450.000000,4.000000,,,,0.000000,4.000000,4.000000,4.000000,4.000000,4.000000,,,,,,,,,,,,,,,,,,,,,,,,,,,,,,,,,,,,,,,,,,,,,,,,,,,,,,,,
1577420172.591947,105.000000,0.000000,4728.717773,4534.871582,3975.384521,6043.077148,4031.794922,450.000000,4.000000,,,,0.000000,4.000000,4.000000,4.000000,4.000000,4.000000,,,,,,,,,,,,,,,,,,,,,,,,,,,,,,,,,,,,,,,,,,,,,,,,,,,,,,,,
1577420172.599743,106.000000,0.000000,4743.077148,4483.077148,3974.358887,6011.794922,4051.281982,450.000000,4.000000,,,,0.000000,4.000000,4.000000,4.000000,4.000000,4.000000,,,,,,,,,,,,,,,,,,,,,,,,,,,,,,,,,,,,,,,,,,,,,,,,,,,,,,,,
1577420172.607640,107.000000,0.000000,4742.051270,4467.179688,3967.692383,5903.077148,4052.307617,16220.000000,4.000000,,,,0.000000,4.000000,4.000000,4.000000,4.000000,4.000000,,,,,,,,,,,,,,,,,,,,,,,,,,,,,,,,,,,,,,,,,,,,,,,,,,,,,,,,
1577420172.615437,108.000000,0.000000,4724.615234,4503.077148,3962.564209,5911.794922,4038.974365,450.000000,4.000000,,,,0.000000,4.000000,4.000000,4.000000,4.000000,4.000000,,,,,,,,,,,,,,,,,,,,,,,,,,,,,,,,,,,,,,,,,,,,,,,,,,,,,,,,
1577420172.623334,109.000000,0.000000,4729.230957,4520.000000,3980.000000,6030.769043,4055.384521,450.000000,4.000000,,,,0.000000,4.000000,4.000000,4.000000,4.000000,4.000000,,,,,,,,,,,,,,,,,,,,,,,,,,,,,,,,,,,,,,,,,,,,,,,,,,,,,,,,
1577420172.631130,110.000000,0.000000,4739.487305,4507.179688,3998.974365,5972.820313,4078.974365,450.000000,4.000000,,,,0.000000,4.000000,4.000000,4.000000,4.000000,4.000000,,,,,,,,,,,,,,,,,,,,,,,,,,,,,,,,,,,,,,,,,,,,,,,,,,,,,,,,
1577420172.639027,111.000000,0.000000,4710.769043,4486.666504,3987.692383,5883.589844,4058.974365,16220.000000,4.000000,,,,0.000000,4.000000,4.000000,4.000000,4.000000,4.000000,,,,,,,,,,,,,,,,,,,,,,,,,,,,,,,,,,,,,,,,,,,,,,,,,,,,,,,,
1577420172.646824,112.000000,0.000000,4665.641113,4464.615234,3973.846191,5989.743652,4017.435791,450.000000,4.000000,,,,0.000000,4.000000,4.000000,4.000000,4.000000,4.000000,,,,,,,,,,,,,,,,,,,,,,,,,,,,,,,,,,,,,,,,,,,,,,,,,,,,,,,,
1577420172.654720,113.000000,0.000000,4631.794922,4473.846191,3976.923096,5986.153809,4000.000000,450.000000,4.000000,,,,0.000000,4.000000,4.000000,4.000000,4.000000,4.000000,,,,,,,,,,,,,,,,,,,,,,,,,,,,,,,,,,,,,,,,,,,,,,,,,,,,,,,,
1577420172.662517,114.000000,0.000000,4590.256348,4497.948730,3969.230713,5795.384766,3982.051270,450.000000,4.000000,,,,0.000000,4.000000,4.000000,4.000000,4.000000,4.000000,,,,,,,,,,,,,,,,,,,,,,,,,,,,,,,,,,,,,,,,,,,,,,,,,,,,,,,,
1577420172.670414,115.000000,0.000000,4556.922852,4499.487305,3966.153809,5807.692383,3956.410156,16220.000000,4.000000,,,,0.000000,4.000000,4.000000,4.000000,4.000000,4.000000,,,,,,,,,,,,,,,,,,,,,,,,,,,,,,,,,,,,,,,,,,,,,,,,,,,,,,,,
1577420172.678310,116.000000,0.000000,4570.256348,4516.922852,4009.230713,5941.025879,3983.076904,450.000000,4.000000,,,,0.000000,4.000000,4.000000,4.000000,4.000000,4.000000,,,,,,,,,,,,,,,,,,,,,,,,,,,,,,,,140.603043,17.861874,10.113182,2.857709,2.482125,30.314693,8.831819,6.037003,3.860230,4.189215,10.197371,1.913260,2.479118,1.867263,1.730126,267.287109,96.943230,39.738117,33.947380,68.712234,36.245975,7.367174,4.108243,2.870142,2.240086
1577420172.686107,117.000000,0.000000,4564.615234,4526.666504,4037.948730,5889.230957,3993.846191,450.000000,4.000000,,,,0.000000,4.000000,4.000000,4.000000,4.000000,4.000000,,,,,,,,,,,,,,,,,,,,,,,,,,,,,,,,,,,,,,,,,,,,,,,,,,,,,,,,
1577420172.693904,118.000000,0.000000,4499.487305,4510.769043,4013.846191,5802.051270,3940.000000,450.000000,4.000000,,,,0.000000,4.000000,4.000000,4.000000,4.000000,4.000000,,,,,,,,,,,,,,,,,,,,,,,,,,,,,,,,,,,,,,,,,,,,,,,,,,,,,,,,
1577420172.701801,119.000000,0.000000,4460.512695,4513.846191,4005.641113,5798.974121,3914.871826,16220.000000,4.000000,,,,0.000000,4.000000,4.000000,4.000000,4.000000,4.000000,,,,,,,,,,,,,,,,,,,,,,,,,,,,,,,,,,,,,,,,,,,,,,,,,,,,,,,,
1577420172.709697,120.000000,0.000000,4457.948730,4522.051270,4023.589844,5835.384766,3920.512939,450.000000,4.000000,,,,0.000000,4.000000,4.000000,4.000000,4.000000,4.000000,,,,,,,,,,,,,,,,,,,,,,,,,,,,,,,,,,,,,,,,,,,,,,,,,,,,,,,,
1577420172.717494,121.000000,0.000000,4433.846191,4521.538574,4020.512939,5877.948730,3903.589844,450.000000,4.000000,,,,0.000000,4.000000,4.000000,4.000000,4.000000,4.000000,,,,,,,,,,,,,,,,,,,,,,,,,,,,,,,,,,,,,,,,,,,,,,,,,,,,,,,,
1577420172.725391,122.000000,0.000000,4433.333496,4555.384766,4029.230713,5834.871582,3915.384521,450.000000,4.000000,,,,0.000000,4.000000,4.000000,4.000000,4.000000,4.000000,,,,,,,,,,,,,,,,,,,,,,,,,,,,,,,,,,,,,,,,,,,,,,,,,,,,,,,,
1577420172.733187,123.000000,0.000000,4452.820313,4572.820313,4047.179443,5718.974121,3942.564209,16220.000000,4.000000,,,,0.000000,4.000000,4.000000,4.000000,4.000000,4.000000,,,,,,,,,,,,,,,,,,,,,,,,,,,,,,,,,,,,,,,,,,,,,,,,,,,,,,,,
1577420172.741084,124.000000,0.000000,4413.846191,4529.230957,4024.615479,5741.025879,3908.205078,450.000000,4.000000,,,,0.000000,4.000000,4.000000,4.000000,4.000000,4.000000,,,,,,,,,,,,,,,,,,,,,,,,,,,,,,,,,,,,,,,,,,,,,,,,,,,,,,,,
1577420172.748881,125.000000,0.000000,4372.307617,4517.948730,4008.205078,5811.794922,3875.897461,450.000000,4.000000,,,,0.000000,4.000000,4.000000,4.000000,4.000000,4.000000,,,,,,,,,,,,,,,,,,,,,,,,,,,,,,,,,,,,,,,,,,,,,,,,,,,,,,,,
1577420172.756678,126.000000,0.000000,4392.307617,4542.051270,4025.641113,5730.769043,3904.102539,450.000000,4.000000,,,,0.000000,4.000000,4.000000,4.000000,4.000000,4.000000,,,,,,,,,,,,,,,,,,,,,,,,,,,,,,,,,,,,,,,,,,,,,,,,,,,,,,,,
1577420172.764574,127.000000,0.000000,4398.974121,4531.794922,4026.666748,5714.358887,3910.256348,236.000000,4.000000,,,,0.000000,4.000000,4.000000,4.000000,4.000000,4.000000,,,,,,,,,,,,,,,,,,,,,,,,,,,,,,,,,,,,,,,,,,,,,,,,,,,,,,,,
1577420172.772471,0.000000,0.000000,4351.794922,4501.025879,4004.615479,5784.615234,3869.230713,450.000000,4.000000,,,,0.000000,4.000000,4.000000,4.000000,4.000000,4.000000,,,,,,,,,,,,,,,,,,,,,,,,,,,,,,,,,,,,,,,,,,,,,,,,,,,,,,,,
1577420172.780268,1.000000,0.000000,4326.153809,4495.384766,4000.000000,5672.307617,3859.487061,450.000000,4.000000,,,,0.000000,4.000000,4.000000,4.000000,4.000000,4.000000,,,,,,,,,,,,,,,,,,,,,,,,,,,,,,,,,,,,,,,,,,,,,,,,,,,,,,,,
1577420172.788065,2.000000,0.000000,4351.282227,4522.051270,4022.564209,5552.820313,3889.743652,16209.000000,4.000000,,,,0.000000,4.000000,4.000000,4.000000,4.000000,4.000000,,,,,,,,,,,,,,,,,,,,,,,,,,,,,,,,,,,,,,,,,,,,,,,,,,,,,,,,
1577420172.795761,3.000000,0.000000,4360.512695,4511.282227,4035.384521,5684.615234,3897.948730,450.000000,4.000000,,,,0.000000,4.000000,4.000000,4.000000,4.000000,4.000000,,,,,,,,,,,,,,,,,,,,,,,,,,,,,,,,,,,,,,,,,,,,,,,,,,,,,,,,
1577420172.803658,4.000000,0.000000,4346.153809,4487.179688,4029.743652,5778.974121,3887.179443,16188.000000,4.000000,,,,0.000000,4.000000,4.000000,4.000000,4.000000,4.000000,,,,,,,,,,,,,,,,,,,,,,,,,,,,,,,,132.211487,27.360075,12.976631,2.965504,2.368962,34.218811,8.371395,5.918129,3.736163,3.899545,9.617263,2.130460,2.511108,1.806067,1.562145,274.143005,90.884865,38.790726,28.529528,70.938309,39.512486,9.738590,4.276476,2.830495,2.095048
1577420172.811455,5.000000,0.000000,4331.282227,4513.333496,4021.538574,5605.641113,3880.512939,450.000000,4.000000,,,,0.000000,4.000000,4.000000,4.000000,4.000000,4.000000,,,,,,,,,,,,,,,,,,,,,,,,,,,,,,,,,,,,,,,,,,,,,,,,,,,,,,,,
1577420172.819351,6.000000,0.000000,4320.512695,4534.871582,4019.487061,5505.128418,3878.974365,16151.000000,4.000000,,,,0.000000,4.000000,4.000000,4.000000,4.000000,4.000000,,,,,,,,,,,,,,,,,,,,,,,,,,,,,,,,,,,,,,,,,,,,,,,,,,,,,,,,
1577420172.827148,7.000000,0.000000,4323.077148,4511.282227,4027.692383,5628.205078,3880.000000,450.000000,4.000000,,,,0.000000,4.000000,4.000000,4.000000,4.000000,4.000000,,,,,,,,,,,,,,,,,,,,,,,,,,,,,,,,,,,,,,,,,,,,,,,,,,,,,,,,
1577420172.835045,8.000000,0.000000,4324.615234,4509.743652,4036.923096,5698.974121,3881.538574,450.000000,4.000000,,,,0.000000,4.000000,4.000000,4.000000,4.000000,4.000000,,,,,,,,,,,,,,,,,,,,,,,,,,,,,,,,,,,,,,,,,,,,,,,,,,,,,,,,
1577420172.842842,9.000000,0.000000,4321.538574,4535.897461,4041.538574,5545.641113,3886.666748,16183.000000,4.000000,,,,0.000000,4.000000,4.000000,4.000000,4.000000,4.000000,,,,,,,,,,,,,,,,,,,,,,,,,,,,,,,,,,,,,,,,,,,,,,,,,,,,,,,,
1577420172.850738,10.000000,0.000000,4332.820313,4514.358887,4054.871826,5425.128418,3901.538574,450.000000,4.000000,,,,0.000000,4.000000,4.000000,4.000000,4.000000,4.000000,,,,,,,,,,,,,,,,,,,,,,,,,,,,,,,,,,,,,,,,,,,,,,,,,,,,,,,,
1577420172.858535,11.000000,0.000000,4350.769043,4498.974121,4074.871826,5602.051270,3925.641113,16220.000000,4.000000,,,,0.000000,4.000000,4.000000,4.000000,4.000000,4.000000,,,,,,,,,,,,,,,,,,,,,,,,,,,,,,,,,,,,,,,,,,,,,,,,,,,,,,,,
1577420172.866432,12.000000,0.000000,4345.128418,4527.692383,4077.948730,5718.974121,3927.179443,450.000000,4.000000,,,,0.000000,4.000000,4.000000,4.000000,4.000000,4.000000,,,,,,,,,,,,,,,,,,,,,,,,,,,,,,,,,,,,,,,,,,,,,,,,,,,,,,,,
1577420172.874229,13.000000,0.000000,4331.794922,4531.794922,4067.179443,5461.538574,3915.384521,450.000000,4.000000,,,,0.000000,4.000000,4.000000,4.000000,4.000000,4.000000,,,,,,,,,,,,,,,,,,,,,,,,,,,,,,,,,,,,,,,,,,,,,,,,,,,,,,,,
1577420172.882125,14.000000,0.000000,4337.436035,4511.282227,4071.281982,5324.615234,3924.102539,450.000000,4.000000,,,,0.000000,4.000000,4.000000,4.000000,4.000000,4.000000,,,,,,,,,,,,,,,,,,,,,,,,,,,,,,,,,,,,,,,,,,,,,,,,,,,,,,,,
1577420172.889922,15.000000,0.000000,4342.051270,4505.641113,4081.538574,5581.025879,3930.769287,16220.000000,4.000000,,,,0.000000,4.000000,4.000000,4.000000,4.000000,4.000000,,,,,,,,,,,,,,,,,,,,,,,,,,,,,,,,,,,,,,,,,,,,,,,,,,,,,,,,
1577420172.897819,16.000000,0.000000,4342.051270,4526.153809,4083.076904,5641.538574,3932.820557,0.000000,4.000000,,,,0.000000,4.000000,4.000000,4.000000,4.000000,4.000000,,,,,,,,,,,,,,,,,,,,,,,,,,,,,,,,,,,,,,,,,,,,,,,,,,,,,,,,
1577420172.905615,17.000000,0.000000,4342.051270,4523.077148,4084.102539,5390.769043,3938.461426,0.000000,4.000000,,,,0.000000,4.000000,4.000000,4.000000,4.000000,4.000000,,,,,,,,,,,,,,,,,,,,,,,,,,,,,,,,,,,,,,,,,,,,,,,,,,,,,,,,
1577420172.913512,18.000000,0.000000,4339.487305,4492.820313,4084.615479,5401.538574,3938.461426,0.000000,4.000000,,,,0.000000,4.000000,4.000000,4.000000,4.000000,4.000000,,,,,,,,,,,,,,,,,,,,,,,,,,,,,,,,,,,,,,,,,,,,,,,,,,,,,,,,
1577420172.921309,19.000000,0.000000,4339.487305,4509.230957,4087.179443,5547.692383,3943.589844,0.000000,4.000000,,,,0.000000,4.000000,4.000000,4.000000,4.000000,4.000000,,,,,,,,,,,,,,,,,,,,,,,,,,,,,,,,,,,,,,,,,,,,,,,,,,,,,,,,
1577420172.929205,20.000000,0.000000,4331.794922,4527.179688,4082.564209,5426.153809,3947.692383,0.000000,4.000000,,,,0.000000,4.000000,4.000000,4.000000,4.000000,4.000000,,,,,,,,,,,,,,,,,,,,,,,,,,,,,,,,125.920448,43.681469,16.232214,3.086522,2.192433,35.895836,7.758257,5.219944,3.318565,3.843761,10.538437,2.339978,2.401865,1.706439,1.372464,404.580994,136.464783,60.560604,29.711946,74.408119,45.488110,12.149905,4.073948,2.711964,1.956467
1577420172.937002,21.000000,0.000000,4302.563965,4468.717773,4060.000000,5350.256348,3929.230713,0.000000,4.000000,,,,0.000000,4.000000,4.000000,4.000000,4.000000,4.000000,,,,,,,,,,,,,,,,,,,,,,,,,,,,,,,,,,,,,,,,,,,,,,,,,,,,,,,,
1577420172.944899,22.000000,0.000000,4278.461426,4444.615234,4043.589844,5457.436035,3903.589844,0.000000,4.000000,,,,0.000000,4.000000,4.000000,4.000000,4.000000,4.000000,,,,,,,,,,,,,,,,,,,,,,,,,,,,,,,,,,,,,,,,,,,,,,,,,,,,,,,,
1577420172.952696,23.000000,0.000000,4286.666504,4503.589844,4054.358887,5363.589844,3909.743652,0.000000,4.000000,,,,0.000000,4.000000,4.000000,4.000000,4.000000,4.000000,,,,,,,,,,,,,,,,,,,,,,,,,,,,,,,,,,,,,,,,,,,,,,,,,,,,,,,,
1577420172.960592,24.000000,0.000000,4300.512695,4511.794922,4068.718018,5264.615234,3929.743652,0.000000,4.000000,,,,0.000000,4.000000,4.000000,4.000000,4.000000,4.000000,,,,,,,,,,,,,,,,,,,,,,,,,,,,,,,,,,,,,,,,,,,,,,,,,,,,,,,,
1577420172.968489,25.000000,0.000000,4288.205078,4453.333496,4061.025635,5423.077148,3922.051270,0.000000,4.000000,,,,0.000000,4.000000,4.000000,4.000000,4.000000,4.000000,,,,,,,,,,,,,,,,,,,,,,,,,,,,,,,,,,,,,,,,,,,,,,,,,,,,,,,,
1577420172.976286,26.000000,0.000000,4264.615234,4423.589844,4045.641113,5428.717773,3904.102539,0.000000,4.000000,,,,0.000000,4.000000,4.000000,4.000000,4.000000,4.000000,,,,,,,,,,,,,,,,,,,,,,,,,,,,,,,,,,,,,,,,,,,,,,,,,,,,,,,,
1577420172.984182,27.000000,0.000000,4268.717773,4442.563965,4048.205078,5247.692383,3912.820557,0.000000,4.000000,,,,0.000000,4.000000,4.000000,4.000000,4.000000,4.000000,,,,,,,,,,,,,,,,,,,,,,,,,,,,,,,,,,,,,,,,,,,,,,,,,,,,,,,,
1577420172.991979,28.000000,0.000000,4291.282227,4447.692383,4056.923096,5284.102539,3933.333252,0.000000,4.000000,,,,0.000000,4.000000,4.000000,4.000000,4.000000,4.000000,,,,,,,,,,,,,,,,,,,,,,,,,,,,,,,,,,,,,,,,,,,,,,,,,,,,,,,,
1577420172.999876,29.000000,0.000000,4292.307617,4404.102539,4051.281982,5351.282227,3932.820557,0.000000,4.000000,,,,0.000000,4.000000,4.000000,4.000000,4.000000,4.000000,,,,,,,,,,,,,,,,,,,,,,,,,,,,,,,,,,,,,,,,,,,,,,,,,,,,,,,,
1577420173.007673,30.000000,0.000000,4278.461426,4400.000000,4043.076904,5273.333496,3918.974365,0.000000,4.000000,,,,0.000000,4.000000,4.000000,4.000000,4.000000,4.000000,,,,,,,,,,,,,,,,,,,,,,,,,,,,,,,,,,,,,,,,,,,,,,,,,,,,,,,,
1577420173.015569,31.000000,0.000000,4284.615234,4440.000000,4048.205078,5282.051270,3929.743652,0.000000,4.000000,,,,0.000000,4.000000,4.000000,4.000000,4.000000,4.000000,,,,,,,,,,,,,,,,,,,,,,,,,,,,,,,,,,,,,,,,,,,,,,,,,,,,,,,,
1577420173.023366,32.000000,0.000000,4296.922852,4416.922852,4056.923096,5291.282227,3952.820557,0.000000,4.000000,,,,0.000000,4.000000,4.000000,4.000000,4.000000,4.000000,,,,,,,,,,,,,,,,,,,,,,,,,,,,,,,,,,,,,,,,,,,,,,,,,,,,,,,,
1577420173.031263,33.000000,0.000000,4273.333496,4374.871582,4054.358887,5247.692383,3935.384521,0.000000,4.000000,,,,0.000000,4.000000,4.000000,4.000000,4.000000,4.000000,,,,,,,,,,,,,,,,,,,,,,,,,,,,,,,,,,,,,,,,,,,,,,,,,,,,,,,,
1577420173.039059,34.000000,0.000000,4246.153809,4401.538574,4052.307617,5254.871582,3909.230713,0.000000,4.000000,,,,0.000000,4.000000,4.000000,4.000000,4.000000,4.000000,,,,,,,,,,,,,,,,,,,,,,,,,,,,,,,,,,,,,,,,,,,,,,,,,,,,,,,,
1577420173.046956,35.000000,0.000000,4263.589844,4409.743652,4063.076904,5200.512695,3924.615479,0.000000,4.000000,,,,0.000000,4.000000,4.000000,4.000000,4.000000,4.000000,,,,,,,,,,,,,,,,,,,,,,,,,,,,,,,,,,,,,,,,,,,,,,,,,,,,,,,,
1577420173.054753,36.000000,0.000000,4271.282227,4362.563965,4066.153809,5161.538574,3931.794922,0.000000,4.000000,,,,0.000000,4.000000,4.000000,4.000000,4.000000,4.000000,,,,,,,,,,,,,,,,,,,,,,,,,,,,,,,,125.307579,64.047020,19.195364,3.251415,2.010060,35.629078,6.851445,4.197991,2.736972,4.061024,11.658869,2.388043,2.229252,1.613157,1.220466,728.405518,255.202911,117.452919,41.725510,78.031120,52.977985,13.909015,3.597368,2.587021,1.881551
1577420173.062650,37.000000,0.000000,4251.794922,4344.102539,4053.333252,5271.282227,3910.769287,0.000000,4.000000,,,,0.000000,4.000000,4.000000,4.000000,4.000000,4.000000,,,,,,,,,,,,,,,,,,,,,,,,,,,,,,,,,,,,,,,,,,,,,,,,,,,,,,,,
1577420173.070446,38.000000,0.000000,4251.282227,4374.871582,4044.615479,5234.358887,3910.769287,0.000000,4.000000,,,,0.000000,4.000000,4.000000,4.000000,4.000000,4.000000,,,,,,,,,,,,,,,,,,,,,,,,,,,,,,,,,,,,,,,,,,,,,,,,,,,,,,,,
1577420173.078343,39.000000,0.000000,4260.000000,4394.871582,4049.230713,5051.794922,3932.307617,0.000000,4.000000,,,,0.000000,4.000000,4.000000,4.000000,4.000000,4.000000,,,,,,,,,,,,,,,,,,,,,,,,,,,,,,,,,,,,,,,,,,,,,,,,,,,,,,,,
1577420173.086140,40.000000,0.000000,4258.461426,4372.820313,4055.897461,5093.846191,3936.923096,0.000000,4.000000,,,,0.000000,4.000000,4.000000,4.000000,4.000000,4.000000,,,,,,,,,,,,,,,,,,,,,,,,,,,,,,,,,,,,,,,,,,,,,,,,,,,,,,,,
1577420173.094036,41.000000,0.000000,4253.333496,4330.256348,4044.615479,5169.743652,3926.666748,0.000000,4.000000,,,,0.000000,4.000000,4.000000,4.000000,4.000000,4.000000,,,,,,,,,,,,,,,,,,,,,,,,,,,,,,,,,,,,,,,,,,,,,,,,,,,,,,,,
1577420173.101933,42.000000,0.000000,4242.563965,4325.641113,4026.666748,5088.717773,3913.846191,0.000000,4.000000,,,,0.000000,4.000000,4.000000,4.000000,4.000000,4.000000,,,,,,,,,,,,,,,,,,,,,,,,,,,,,,,,,,,,,,,,,,,,,,,,,,,,,,,,
1577420173.109730,43.000000,0.000000,4235.897461,4364.615234,4030.769287,5107.692383,3910.256348,0.000000,4.000000,,,,0.000000,4.000000,4.000000,4.000000,4.000000,4.000000,,,,,,,,,,,,,,,,,,,,,,,,,,,,,,,,,,,,,,,,,,,,,,,,,,,,,,,,
1577420173.117527,44.000000,0.000000,4257.436035,4380.000000,4053.846191,5133.846191,3936.923096,0.000000,4.000000,,,,0.000000,4.000000,4.000000,4.000000,4.000000,4.000000,,,,,,,,,,,,,,,,,,,,,,,,,,,,,,,,,,,,,,,,,,,,,,,,,,,,,,,,
1577420173.125223,45.000000,0.000000,4270.769043,4353.333496,4061.025635,4984.102539,3954.871826,0.000000,4.000000,,,,0.000000,4.000000,4.000000,4.000000,4.000000,4.000000,,,,,,,,,,,,,,,,,,,,,,,,,,,,,,,,,,,,,,,,,,,,,,,,,,,,,,,,
1577420173.133120,46.000000,0.000000,4246.153809,4331.282227,4037.948730,4993.846191,3931.794922,0.000000,4.000000,,,,0.000000,4.000000,4.000000,4.000000,4.000000,4.000000,,,,,,,,,,,,,,,,,,,,,,,,,,,,,,,,,,,,,,,,,,,,,,,,,,,,,,,,
1577420173.140917,47.000000,0.000000,4238.461426,4341.025879,4030.256348,5172.820313,3926.666748,0.000000,4.000000,,,,0.000000,4.000000,4.000000,4.000000,4.000000,4.000000,,,,,,,,,,,,,,,,,,,,,,,,,,,,,,,,,,,,,,,,,,,,,,,,,,,,,,,,
1577420173.148814,48.000000,0.000000,4251.282227,4345.128418,4041.538574,5115.897461,3942.564209,0.000000,4.000000,,,,0.000000,4.000000,4.000000,4.000000,4.000000,4.000000,,,,,,,,,,,,,,,,,,,,,,,,,,,,,,,,,,,,,,,,,,,,,,,,,,,,,,,,
1577420173.156610,49.000000,0.000000,4242.051270,4325.128418,4033.333252,4952.820313,3933.846191,0.000000,4.000000,,,,0.000000,4.000000,4.000000,4.000000,4.000000,4.000000,,,,,,,,,,,,,,,,,,,,,,,,,,,,,,,,,,,,,,,,,,,,,,,,,,,,,,,,
1577420173.164507,50.000000,0.000000,4235.384766,4336.410156,4033.333252,4989.743652,3931.281982,0.000000,4.000000,,,,0.000000,4.000000,4.000000,4.000000,4.000000,4.000000,,,,,,,,,,,,,,,,,,,,,,,,,,,,,,,,,,,,,,,,,,,,,,,,,,,,,,,,
1577420173.172304,51.000000,0.000000,4230.769043,4346.153809,4038.461426,5002.051270,3932.307617,0.000000,4.000000,,,,0.000000,4.000000,4.000000,4.000000,4.000000,4.000000,,,,,,,,,,,,,,,,,,,,,,,,,,,,,,,,,,,,,,,,,,,,,,,,,,,,,,,,
1577420173.180200,52.000000,0.000000,4191.794922,4326.153809,4013.333252,4930.256348,3898.461426,0.000000,4.000000,,,,0.000000,4.000000,4.000000,4.000000,4.000000,4.000000,,,,,,,,,,,,,,,,,,,,,,,,,,,,,,,,131.777710,82.325745,20.914558,3.446805,1.882297,32.269382,5.710146,3.186953,2.166750,4.466887,12.726106,2.234049,2.069581,1.566162,1.140411,1220.355591,435.166718,205.415070,63.817345,81.427399,60.087852,14.486473,2.993816,2.521442,1.896592
1577420173.187997,53.000000,0.000000,4179.487305,4332.307617,4007.692383,4998.461426,3890.256348,0.000000,4.000000,,,,0.000000,4.000000,4.000000,4.000000,4.000000,4.000000,,,,,,,,,,,,,,,,,,,,,,,,,,,,,,,,,,,,,,,,,,,,,,,,,,,,,,,,
1577420173.195894,54.000000,0.000000,4198.461426,4340.000000,4029.230713,4977.436035,3913.333252,0.000000,4.000000,,,,0.000000,4.000000,4.000000,4.000000,4.000000,4.000000,,,,,,,,,,,,,,,,,,,,,,,,,,,,,,,,,,,,,,,,,,,,,,,,,,,,,,,,
1577420173.203691,55.000000,0.000000,4194.871582,4312.820313,4033.846191,4833.333496,3911.794922,0.000000,4.000000,,,,0.000000,4.000000,4.000000,4.000000,4.000000,4.000000,,,,,,,,,,,,,,,,,,,,,,,,,,,,,,,,,,,,,,,,,,,,,,,,,,,,,,,,
1577420173.211587,56.000000,0.000000,4202.051270,4317.436035,4045.641113,4933.333496,3918.461426,0.000000,4.000000,,,,0.000000,4.000000,4.000000,4.000000,4.000000,4.000000,,,,,,,,,,,,,,,,,,,,,,,,,,,,,,,,,,,,,,,,,,,,,,,,,,,,,,,,
1577420173.219384,57.000000,0.000000,4224.102539,4332.307617,4067.179443,5058.461426,3944.102539,0.000000,4.000000,,,,0.000000,4.000000,4.000000,4.000000,4.000000,4.000000,,,,,,,,,,,,,,,,,,,,,,,,,,,,,,,,,,,,,,,,,,,,,,,,,,,,,,,,
1577420173.227281,58.000000,0.000000,4216.922852,4296.922852,4057.948730,4901.538574,3935.897461,0.000000,4.000000,,,,0.000000,4.000000,4.000000,4.000000,4.000000,4.000000,,,,,,,,,,,,,,,,,,,,,,,,,,,,,,,,,,,,,,,,,,,,,,,,,,,,,,,,
1577420173.235077,59.000000,0.000000,4202.051270,4291.282227,4046.666748,4781.025879,3917.435791,0.000000,4.000000,,,,0.000000,4.000000,4.000000,4.000000,4.000000,4.000000,,,,,,,,,,,,,,,,,,,,,,,,,,,,,,,,,,,,,,,,,,,,,,,,,,,,,,,,
1577420173.242974,60.000000,0.000000,4216.410156,4336.410156,4067.692383,4912.820313,3937.948730,0.000000,4.000000,,,,0.000000,4.000000,4.000000,4.000000,4.000000,4.000000,,,,,,,,,,,,,,,,,,,,,,,,,,,,,,,,,,,,,,,,,,,,,,,,,,,,,,,,
1577420173.250871,61.000000,0.000000,4215.384766,4327.179688,4073.333252,4983.589844,3942.564209,0.000000,4.000000,,,,0.000000,4.000000,4.000000,4.000000,4.000000,4.000000,,,,,,,,,,,,,,,,,,,,,,,,,,,,,,,,,,,,,,,,,,,,,,,,,,,,,,,,
1577420173.258668,62.000000,0.000000,4185.128418,4301.538574,4049.230713,4860.000000,3914.358887,0.000000,4.000000,,,,0.000000,4.000000,4.000000,4.000000,4.000000,4.000000,,,,,,,,,,,,,,,,,,,,,,,,,,,,,,,,,,,,,,,,,,,,,,,,,,,,,,,,
1577420173.266565,63.000000,0.000000,4169.743652,4318.974121,4041.538574,4780.000000,3903.589844,0.000000,4.000000,,,,0.000000,4.000000,4.000000,4.000000,4.000000,4.000000,,,,,,,,,,,,,,,,,,,,,,,,,,,,,,,,,,,,,,,,,,,,,,,,,,,,,,,,
1577420173.274361,64.000000,0.000000,4182.563965,4325.641113,4060.512939,4835.897461,3921.538574,450.000000,4.000000,,,,0.000000,4.000000,4.000000,4.000000,4.000000,4.000000,,,,,,,,,,,,,,,,,,,,,,,,,,,,,,,,,,,,,,,,,,,,,,,,,,,,,,,,
1577420173.282258,65.000000,0.000000,4209.230957,4315.384766,4084.102539,4949.230957,3946.666748,450.000000,4.000000,,,,0.000000,4.000000,4.000000,4.000000,4.000000,4.000000,,,,,,,,,,,,,,,,,,,,,,,,,,,,,,,,,,,,,,,,,,,,,,,,,,,,,,,,
1577420173.290055,66.000000,0.000000,4211.794922,4314.871582,4084.615479,4906.153809,3944.102539,16225.000000,4.000000,,,,0.000000,4.000000,4.000000,4.000000,4.000000,4.000000,,,,,,,,,,,,,,,,,,,,,,,,,,,,,,,,,,,,,,,,,,,,,,,,,,,,,,,,
1577420173.297852,67.000000,0.000000,4206.666504,4313.846191,4076.923096,4741.025879,3943.076904,450.000000,4.000000,,,,0.000000,4.000000,4.000000,4.000000,4.000000,4.000000,,,,,,,,,,,,,,,,,,,,,,,,,,,,,,,,,,,,,,,,,,,,,,,,,,,,,,,,
1577420173.305548,68.000000,0.000000,4228.717773,4306.666504,4087.692383,4789.743652,3964.102539,16197.000000,4.000000,,,,0.000000,4.000000,4.000000,4.000000,4.000000,4.000000,,,,,,,,,,,,,,,,,,,,,,,,,,,,,,,,139.359100,91.788948,20.630316,3.612216,1.840795,26.733812,4.458087,2.384441,1.751477,4.921733,13.588907,1.967376,1.949887,1.572558,1.128012,1781.200684,630.502686,302.296448,89.615158,84.956131,62.953300,13.676811,2.405425,2.533179,1.984745
1577420173.313345,69.000000,0.000000,4232.307617,4283.589844,4080.000000,4932.820313,3962.051270,450.000000,4.000000,,,,0.000000,4.000000,4.000000,4.000000,4.000000,4.000000,,,,,,,,,,,,,,,,,,,,,,,,,,,,,,,,,,,,,,,,,,,,,,,,,,,,,,,,
1577420173.321042,70.000000,0.000000,4199.487305,4279.487305,4049.743652,4792.307617,3930.769287,16160.000000,4.000000,,,,0.000000,4.000000,4.000000,4.000000,4.000000,4.000000,,,,,,,,,,,,,,,,,,,,,,,,,,,,,,,,,,,,,,,,,,,,,,,,,,,,,,,,
1577420173.328839,71.000000,0.000000,4202.563965,4306.153809,4054.358887,4674.358887,3934.871826,450.000000,4.000000,,,,0.000000,4.000000,4.000000,4.000000,4.000000,4.000000,,,,,,,,,,,,,,,,,,,,,,,,,,,,,,,,,,,,,,,,,,,,,,,,,,,,,,,,
1577420173.336536,72.000000,0.000000,4240.512695,4308.717773,4078.974365,4877.436035,3972.820557,450.000000,4.000000,,,,0.000000,4.000000,4.000000,4.000000,4.000000,4.000000,,,,,,,,,,,,,,,,,,,,,,,,,,,,,,,,,,,,,,,,,,,,,,,,,,,,,,,,
1577420173.344432,73.000000,0.000000,4233.333496,4290.256348,4067.179443,4905.128418,3967.692383,16126.000000,4.000000,,,,0.000000,4.000000,4.000000,4.000000,4.000000,4.000000,,,,,,,,,,,,,,,,,,,,,,,,,,,,,,,,,,,,,,,,,,,,,,,,,,,,,,,,
1577420173.352229,74.000000,0.000000,4216.922852,4327.692383,4066.153809,4711.282227,3950.769287,450.000000,4.000000,,,,0.000000,4.000000,4.000000,4.000000,4.000000,4.000000,,,,,,,,,,,,,,,,,,,,,,,,,,,,,,,,,,,,,,,,,,,,,,,,,,,,,,,,
1577420173.360126,75.000000,0.000000,4258.974121,4379.487305,4109.743652,4741.538574,3994.358887,16226.000000,4.000000,,,,0.000000,4.000000,4.000000,4.000000,4.000000,4.000000,,,,,,,,,,,,,,,,,,,,,,,,,,,,,,,,,,,,,,,,,,,,,,,,,,,,,,,,
1577420173.367923,76.000000,0.000000,4285.641113,4373.333496,4127.179688,4794.358887,4026.666748,450.000000,4.000000,,,,0.000000,4.000000,4.000000,4.000000,4.000000,4.000000,,,,,,,,,,,,,,,,,,,,,,,,,,,,,,,,,,,,,,,,,,,,,,,,,,,,,,,,
1577420173.375719,77.000000,0.000000,4260.512695,4383.589844,4117.948730,4775.897461,4004.615479,450.000000,4.000000,,,,0.000000,4.000000,4.000000,4.000000,4.000000,4.000000,,,,,,,,,,,,,,,,,,,,,,,,,,,,,,,,,,,,,,,,,,,,,,,,,,,,,,,,
1577420173.383416,78.000000,0.000000,4269.743652,4426.153809,4144.102539,4848.205078,4014.358887,450.000000,4.000000,,,,0.000000,4.000000,4.000000,4.000000,4.000000,4.000000,,,,,,,,,,,,,,,,,,,,,,,,,,,,,,,,,,,,,,,,,,,,,,,,,,,,,,,,
1577420173.391313,79.000000,0.000000,4296.922852,4412.820313,4169.230957,4788.205078,4042.051270,16226.000000,4.000000,,,,0.000000,4.000000,4.000000,4.000000,4.000000,4.000000,,,,,,,,,,,,,,,,,,,,,,,,,,,,,,,,,,,,,,,,,,,,,,,,,,,,,,,,
1577420173.399210,80.000000,0.000000,4287.692383,4403.589844,4167.692383,4694.871582,4036.923096,450.000000,4.000000,,,,0.000000,4.000000,4.000000,4.000000,4.000000,4.000000,,,,,,,,,,,,,,,,,,,,,,,,,,,,,,,,,,,,,,,,,,,,,,,,,,,,,,,,
1577420173.407007,81.000000,0.000000,4286.666504,4437.436035,4177.436035,4806.666504,4037.948730,450.000000,4.000000,,,,0.000000,4.000000,4.000000,4.000000,4.000000,4.000000,,,,,,,,,,,,,,,,,,,,,,,,,,,,,,,,,,,,,,,,,,,,,,,,,,,,,,,,
1577420173.414804,82.000000,0.000000,4286.666504,4421.538574,4175.897461,4856.410156,4037.435791,450.000000,4.000000,,,,0.000000,4.000000,4.000000,4.000000,4.000000,4.000000,,,,,,,,,,,,,,,,,,,,,,,,,,,,,,,,,,,,,,,,,,,,,,,,,,,,,,,,
1577420173.422700,83.000000,0.000000,4271.794922,4398.461426,4162.563965,4740.000000,4030.256348,16226.000000,4.000000,,,,0.000000,4.000000,4.000000,4.000000,4.000000,4.000000,,,,,,,,,,,,,,,,,,,,,,,,,,,,,,,,,,,,,,,,,,,,,,,,,,,,,,,,
1577420173.430497,84.000000,0.000000,4283.077148,4433.846191,4183.589844,4614.358887,4047.179443,450.000000,4.000000,,,,0.000000,4.000000,4.000000,4.000000,4.000000,4.000000,,,,,,,,,,,,,,,,,,,,,,,,,,,,,,,,140.248444,88.442001,18.219814,3.660708,1.873534,20.464157,3.301090,1.854729,1.568079,5.302253,14.199606,1.723214,1.861932,1.609161,1.150098,2225.526611,776.757385,376.096161,109.858452,88.920944,61.126312,11.645252,1.929041,2.583015,2.096777
1577420173.438394,85.000000,0.000000,4310.256348,4430.256348,4214.871582,4638.974121,4072.307617,450.000000,4.000000,,,,0.000000,4.000000,4.000000,4.000000,4.000000,4.000000,,,,,,,,,,,,,,,,,,,,,,,,,,,,,,,,,,,,,,,,,,,,,,,,,,,,,,,,
1577420173.446191,86.000000,0.000000,4315.384766,4410.769043,4216.410156,4854.871582,4074.358887,450.000000,4.000000,,,,0.000000,4.000000,4.000000,4.000000,4.000000,4.000000,,,,,,,,,,,,,,,,,,,,,,,,,,,,,,,,,,,,,,,,,,,,,,,,,,,,,,,,
1577420173.454087,87.000000,0.000000,4317.436035,4428.205078,4214.358887,4865.128418,4073.846191,16226.000000,4.000000,,,,0.000000,4.000000,4.000000,4.000000,4.000000,4.000000,,,,,,,,,,,,,,,,,,,,,,,,,,,,,,,,,,,,,,,,,,,,,,,,,,,,,,,,
1577420173.461884,88.000000,0.000000,4341.025879,4422.563965,4234.358887,4638.461426,4095.897461,450.000000,4.000000,,,,0.000000,4.000000,4.000000,4.000000,4.000000,4.000000,,,,,,,,,,,,,,,,,,,,,,,,,,,,,,,,,,,,,,,,,,,,,,,,,,,,,,,,
1577420173.469781,89.000000,0.000000,4343.077148,4420.512695,4236.922852,4681.538574,4097.436035,450.000000,4.000000,,,,0.000000,4.000000,4.000000,4.000000,4.000000,4.000000,,,,,,,,,,,,,,,,,,,,,,,,,,,,,,,,,,,,,,,,,,,,,,,,,,,,,,,,
1577420173.477577,90.000000,0.000000,4294.358887,4419.487305,4193.846191,4831.282227,4052.307617,450.000000,4.000000,,,,0.000000,4.000000,4.000000,4.000000,4.000000,4.000000,,,,,,,,,,,,,,,,,,,,,,,,,,,,,,,,,,,,,,,,,,,,,,,,,,,,,,,,
1577420173.485274,91.000000,0.000000,4260.000000,4382.051270,4172.820313,4684.102539,4025.128174,16226.000000,4.000000,,,,0.000000,4.000000,4.000000,4.000000,4.000000,4.000000,,,,,,,,,,,,,,,,,,,,,,,,,,,,,,,,,,,,,,,,,,,,,,,,,,,,,,,,
1577420173.493071,92.000000,0.000000,4278.974121,4363.077148,4198.461426,4541.025879,4046.153809,450.000000,4.000000,,,,0.000000,4.000000,4.000000,4.000000,4.000000,4.000000,,,,,,,,,,,,,,,,,,,,,,,,,,,,,,,,,,,,,,,,,,,,,,,,,,,,,,,,
1577420173.500768,93.000000,0.000000,4282.563965,4379.487305,4205.128418,4638.461426,4052.307617,450.000000,4.000000,,,,0.000000,4.000000,4.000000,4.000000,4.000000,4.000000,,,,,,,,,,,,,,,,,,,,,,,,,,,,,,,,,,,,,,,,,,,,,,,,,,,,,,,,
1577420173.508565,94.000000,0.000000,4267.692383,4383.589844,4197.948730,4720.000000,4040.000000,450.000000,4.000000,,,,0.000000,4.000000,4.000000,4.000000,4.000000,4.000000,,,,,,,,,,,,,,,,,,,,,,,,,,,,,,,,,,,,,,,,,,,,,,,,,,,,,,,,
1577420173.516262,95.000000,0.000000,4284.102539,4386.666504,4212.307617,4599.487305,4056.923096,16226.000000,4.000000,,,,0.000000,4.000000,4.000000,4.000000,4.000000,4.000000,,,,,,,,,,,,,,,,,,,,,,,,,,,,,,,,,,,,,,,,,,,,,,,,,,,,,,,,
1577420173.524158,96.000000,0.000000,4320.000000,4403.589844,4233.846191,4579.487305,4092.820557,450.000000,4.000000,,,,0.000000,4.000000,4.000000,4.000000,4.000000,4.000000,,,,,,,,,,,,,,,,,,,,,,,,,,,,,,,,,,,,,,,,,,,,,,,,,,,,,,,,
1577420173.531955,97.000000,0.000000,4338.974121,4402.563965,4246.153809,4706.153809,4113.333496,450.000000,4.000000,,,,0.000000,4.000000,4.000000,4.000000,4.000000,4.000000,,,,,,,,,,,,,,,,,,,,,,,,,,,,,,,,,,,,,,,,,,,,,,,,,,,,,,,,
1577420173.539852,98.000000,0.000000,4322.563965,4384.615234,4233.333496,4679.487305,4100.512695,450.000000,4.000000,,,,0.000000,4.000000,4.000000,4.000000,4.000000,4.000000,,,,,,,,,,,,,,,,,,,,,,,,,,,,,,,,,,,,,,,,,,,,,,,,,,,,,,,,
1577420173.547648,99.000000,0.000000,4296.922852,4368.205078,4207.179688,4593.333496,4075.897461,16226.000000,4.000000,,,,0.000000,4.000000,4.000000,4.000000,4.000000,4.000000,,,,,,,,,,,,,,,,,,,,,,,,,,,,,,,,,,,,,,,,,,,,,,,,,,,,,,,,
1577420173.555545,100.000000,0.000000,4290.769043,4364.615234,4197.948730,4608.717773,4072.820557,450.000000,4.000000,,,,0.000000,4.000000,4.000000,4.000000,4.000000,4.000000,,,,,,,,,,,,,,,,,,,,,,,,,,,,,,,,130.436493,73.162758,14.312357,3.526242,1.936175,14.912336,2.337157,1.523201,1.596505,5.525042,14.252447,1.596106,1.806101,1.634827,1.170651,2403.202637,820.583801,401.522308,116.815582,92.960831,53.763645,8.926786,1.627315,2.594210,2.178510
1577420173.563342,101.000000,0.000000,4291.282227,4372.307617,4202.051270,4566.666504,4081.025635,450.000000,4.000000,,,,0.000000,4.000000,4.000000,4.000000,4.000000,4.000000,,,,,,,,,,,,,,,,,,,,,,,,,,,,,,,,,,,,,,,,,,,,,,,,,,,,,,,,
1577420173.571239,102.000000,0.000000,4286.153809,4373.333496,4198.974121,4546.153809,4080.000000,450.000000,4.000000,,,,0.000000,4.000000,4.000000,4.000000,4.000000,4.000000,,,,,,,,,,,,,,,,,,,,,,,,,,,,,,,,,,,,,,,,,,,,,,,,,,,,,,,,
1577420173.579035,103.000000,0.000000,4292.307617,4349.230957,4203.077148,4637.948730,4084.615479,16226.000000,4.000000,,,,0.000000,4.000000,4.000000,4.000000,4.000000,4.000000,,,,,,,,,,,,,,,,,,,,,,,,,,,,,,,,,,,,,,,,,,,,,,,,,,,,,,,,
1577420173.586932,104.000000,0.000000,4309.743652,4332.820313,4219.487305,4594.871582,4093.846191,450.000000,4.000000,,,,0.000000,4.000000,4.000000,4.000000,4.000000,4.000000,,,,,,,,,,,,,,,,,,,,,,,,,,,,,,,,,,,,,,,,,,,,,,,,,,,,,,,,
1577420173.594729,105.000000,0.000000,4309.230957,4338.974121,4224.102539,4537.948730,4093.846191,450.000000,4.000000,,,,0.000000,4.000000,4.000000,4.000000,4.000000,4.000000,,,,,,,,,,,,,,,,,,,,,,,,,,,,,,,,,,,,,,,,,,,,,,,,,,,,,,,,
1577420173.602625,106.000000,0.000000,4301.538574,4328.205078,4211.794922,4580.512695,4093.846191,450.000000,4.000000,,,,0.000000,4.000000,4.000000,4.000000,4.000000,4.000000,,,,,,,,,,,,,,,,,,,,,,,,,,,,,,,,,,,,,,,,,,,,,,,,,,,,,,,,
1577420173.610422,107.000000,0.000000,4308.205078,4318.974121,4194.871582,4569.743652,4088.718018,16226.000000,4.000000,,,,0.000000,4.000000,4.000000,4.000000,4.000000,4.000000,,,,,,,,,,,,,,,,,,,,,,,,,,,,,,,,,,,,,,,,,,,,,,,,,,,,,,,,
1577420173.618319,108.000000,0.000000,4314.871582,4331.282227,4186.666504,4535.897461,4089.230713,450.000000,4.000000,,,,0.000000,4.000000,4.000000,4.000000,4.000000,4.000000,,,,,,,,,,,,,,,,,,,,,,,,,,,,,,,,,,,,,,,,,,,,,,,,,,,,,,,,
1577420173.626116,109.000000,0.000000,4326.153809,4332.820313,4200.512695,4522.563965,4112.820313,450.000000,4.000000,,,,0.000000,4.000000,4.000000,4.000000,4.000000,4.000000,,,,,,,,,,,,,,,,,,,,,,,,,,,,,,,,,,,,,,,,,,,,,,,,,,,,,,,,
1577420173.634012,110.000000,0.000000,4331.282227,4320.000000,4211.794922,4576.922852,4131.282227,450.000000,4.000000,,,,0.000000,4.000000,4.000000,4.000000,4.000000,4.000000,,,,,,,,,,,,,,,,,,,,,,,,,,,,,,,,,,,,,,,,,,,,,,,,,,,,,,,,
1577420173.641909,111.000000,0.000000,4330.769043,4334.358887,4201.025879,4576.922852,4123.589844,16226.000000,4.000000,,,,0.000000,4.000000,4.000000,4.000000,4.000000,4.000000,,,,,,,,,,,,,,,,,,,,,,,,,,,,,,,,,,,,,,,,,,,,,,,,,,,,,,,,
1577420173.649706,112.000000,0.000000,4336.922852,4348.205078,4186.666504,4509.743652,4105.128418,450.000000,4.000000,,,,0.000000,4.000000,4.000000,4.000000,4.000000,4.000000,,,,,,,,,,,,,,,,,,,,,,,,,,,,,,,,,,,,,,,,,,,,,,,,,,,,,,,,
1577420173.657502,113.000000,0.000000,4323.077148,4330.769043,4181.025879,4489.743652,4100.512695,450.000000,4.000000,,,,0.000000,4.000000,4.000000,4.000000,4.000000,4.000000,,,,,,,,,,,,,,,,,,,,,,,,,,,,,,,,,,,,,,,,,,,,,,,,,,,,,,,,
