title:h6, start timestamp:2019-12-27T07:18:28.945510+03:00, stop timestamp:2019-12-27T07:19:00.346082+03:00, headset type:INSIGHT, headset serial:A2D200FB, headset firmware:930, subject name:Qasim, channels:75, sampling rate:eeg_128;pm_0.1;pow_8, samples:4029      , version:2.0
Timestamp,EEG.Counter,EEG.Interpolated,EEG.AF3,EEG.T7,EEG.Pz,EEG.T8,EEG.AF4,EEG.RawCq,EEG.Battery,MarkerIndex,MarkerType,MarkerValueInt,EEG.MarkerHardware,CQ.AF3,CQ.T7,CQ.Pz,CQ.T8,CQ.AF4,PM.Engagement.IsActive,PM.Engagement.Scaled,PM.Engagement.Raw,PM.Engagement.Min,PM.Engagement.Max,PM.Excitement.IsActive,PM.Excitement.Scaled,PM.Excitement.Raw,PM.Excitement.Min,PM.Excitement.Max,PM.LongTermExcitement,PM.Stress.IsActive,PM.Stress.Scaled,PM.Stress.Raw,PM.Stress.Min,PM.Stress.Max,PM.Relaxation.IsActive,PM.Relaxation.Scaled,PM.Relaxation.Raw,PM.Relaxation.Min,PM.Relaxation.Max,PM.Interest.IsActive,PM.Interest.Scaled,PM.Interest.Raw,PM.Interest.Min,PM.Interest.Max,PM.Focus.IsActive,PM.Focus.Scaled,PM.Focus.Raw,PM.Focus.Min,PM.Focus.Max,POW.AF3.Theta,POW.AF3.Alpha,POW.AF3.BetaL,POW.AF3.BetaH,POW.AF3.Gamma,POW.T7.Theta,POW.T7.Alpha,POW.T7.BetaL,POW.T7.BetaH,POW.T7.Gamma,POW.Pz.Theta,POW.Pz.Alpha,POW.Pz.BetaL,POW.Pz.BetaH,POW.Pz.Gamma,POW.T8.Theta,POW.T8.Alpha,POW.T8.BetaL,POW.T8.BetaH,POW.T8.Gamma,POW.AF4.Theta,POW.AF4.Alpha,POW.AF4.BetaL,POW.AF4.BetaH,POW.AF4.Gamma
1577420308.945510,59.000000,0.000000,3888.718018,4028.205078,3700.512939,4095.897461,4048.205078,0.000000,4.000000,,,,0.000000,4.000000,4.000000,4.000000,4.000000,4.000000,,,,,,,,,,,,,,,,,,,,,,,,,,,,,,,,,,,,,,,,,,,,,,,,,,,,,,,,
1577420308.953207,60.000000,0.000000,4223.077148,4326.666504,4055.897461,3993.333252,4165.641113,0.000000,4.000000,,,,0.000000,4.000000,4.000000,4.000000,4.000000,4.000000,,,,,,,,,,,,,,,,,,,,,,,,,,,,,,,,,,,,,,,,,,,,,,,,,,,,,,,,
1577420308.961003,61.000000,0.000000,3977.435791,4090.256348,3813.333252,3823.589844,3896.410156,0.000000,4.000000,,,,0.000000,4.000000,4.000000,4.000000,4.000000,4.000000,,,,,,,,,,,,,,,,,,,,,,,,,,,,,,,,,,,,,,,,,,,,,,,,,,,,,,,,
1577420308.968700,62.000000,0.000000,4110.256348,4207.692383,3921.538574,4179.487305,4120.000000,0.000000,4.000000,,,,0.000000,4.000000,4.000000,4.000000,4.000000,4.000000,,,,,,,,,,,,,,,,,,,,,,,,,,,,,,,,,,,,,,,,,,,,,,,,,,,,,,,,
1577420308.976497,63.000000,0.000000,4208.205078,4281.025879,4029.743652,4140.000000,4174.358887,0.000000,4.000000,,,,0.000000,4.000000,4.000000,4.000000,4.000000,4.000000,,,,,,,,,,,,,,,,,,,,,,,,,,,,,,,,,,,,,,,,,,,,,,,,,,,,,,,,
1577420308.984193,64.000000,0.000000,4141.538574,4227.179688,3973.846191,4037.435791,4125.128418,450.000000,4.000000,,,,0.000000,4.000000,4.000000,4.000000,4.000000,4.000000,,,,,,,,,,,,,,,,,,,,,,,,,,,,,,,,,,,,,,,,,,,,,,,,,,,,,,,,
1577420308.991990,65.000000,0.000000,4246.666504,4304.615234,4060.512939,4157.436035,4231.282227,450.000000,4.000000,,,,0.000000,4.000000,4.000000,4.000000,4.000000,4.000000,,,,,,,,,,,,,,,,,,,,,,,,,,,,,,,,,,,,,,,,,,,,,,,,,,,,,,,,
1577420308.999686,66.000000,0.000000,4198.461426,4254.358887,4023.076904,4134.871582,4191.282227,16211.000000,4.000000,,,,0.000000,4.000000,4.000000,4.000000,4.000000,4.000000,,,,,,,,,,,,,,,,,,,,,,,,,,,,,,,,,,,,,,,,,,,,,,,,,,,,,,,,
1577420309.007483,67.000000,0.000000,4193.333496,4251.794922,4026.153809,4190.769043,4199.487305,450.000000,4.000000,,,,0.000000,4.000000,4.000000,4.000000,4.000000,4.000000,,,,,,,,,,,,,,,,,,,,,,,,,,,,,,,,,,,,,,,,,,,,,,,,,,,,,,,,
1577420309.015179,68.000000,0.000000,4225.641113,4257.436035,4020.512939,4203.589844,4196.410156,16196.000000,4.000000,,,,0.000000,4.000000,4.000000,4.000000,4.000000,4.000000,,,,,,,,,,,,,,,,,,,,,,,,,,,,,,,,7.695347,5.496704,2.286827,3.253776,5.341450,12.183236,2.728498,1.702388,3.173172,6.025879,10.474129,4.013543,2.864136,1.758245,5.098269,3.276862,1.989374,8.784771,20.012707,32.400536,10.121199,3.905656,2.841385,3.733200,3.974382
1577420309.022976,69.000000,0.000000,4218.461426,4250.769043,3978.974365,4072.307617,4179.487305,450.000000,4.000000,,,,0.000000,4.000000,4.000000,4.000000,4.000000,4.000000,,,,,,,,,,,,,,,,,,,,,,,,,,,,,,,,,,,,,,,,,,,,,,,,,,,,,,,,
1577420309.030673,70.000000,0.000000,4219.487305,4256.922852,3982.051270,4032.820557,4177.436035,16206.000000,4.000000,,,,0.000000,4.000000,4.000000,4.000000,4.000000,4.000000,,,,,,,,,,,,,,,,,,,,,,,,,,,,,,,,,,,,,,,,,,,,,,,,,,,,,,,,
1577420309.038469,71.000000,0.000000,4209.743652,4230.769043,3974.871826,4109.743652,4155.384766,450.000000,4.000000,,,,0.000000,4.000000,4.000000,4.000000,4.000000,4.000000,,,,,,,,,,,,,,,,,,,,,,,,,,,,,,,,,,,,,,,,,,,,,,,,,,,,,,,,
1577420309.046166,72.000000,0.000000,4233.333496,4240.512695,3981.538574,4144.615234,4169.743652,450.000000,4.000000,,,,0.000000,4.000000,4.000000,4.000000,4.000000,4.000000,,,,,,,,,,,,,,,,,,,,,,,,,,,,,,,,,,,,,,,,,,,,,,,,,,,,,,,,
1577420309.053962,73.000000,0.000000,4249.230957,4245.641113,3986.153809,4071.794922,4183.589844,16182.000000,4.000000,,,,0.000000,4.000000,4.000000,4.000000,4.000000,4.000000,,,,,,,,,,,,,,,,,,,,,,,,,,,,,,,,,,,,,,,,,,,,,,,,,,,,,,,,
1577420309.061659,74.000000,0.000000,4240.000000,4240.000000,3976.410156,4042.564209,4180.000000,450.000000,4.000000,,,,0.000000,4.000000,4.000000,4.000000,4.000000,4.000000,,,,,,,,,,,,,,,,,,,,,,,,,,,,,,,,,,,,,,,,,,,,,,,,,,,,,,,,
1577420309.069555,75.000000,0.000000,4233.333496,4250.769043,3975.897461,4081.538574,4173.333496,16255.000000,4.000000,,,,0.000000,4.000000,4.000000,4.000000,4.000000,4.000000,,,,,,,,,,,,,,,,,,,,,,,,,,,,,,,,,,,,,,,,,,,,,,,,,,,,,,,,
1577420309.077352,76.000000,0.000000,4214.358887,4224.615234,3964.102539,4106.666504,4155.384766,450.000000,4.000000,,,,0.000000,4.000000,4.000000,4.000000,4.000000,4.000000,,,,,,,,,,,,,,,,,,,,,,,,,,,,,,,,,,,,,,,,,,,,,,,,,,,,,,,,
1577420309.085248,77.000000,0.000000,4207.179688,4209.230957,3969.230713,4136.410156,4155.897461,450.000000,4.000000,,,,0.000000,4.000000,4.000000,4.000000,4.000000,4.000000,,,,,,,,,,,,,,,,,,,,,,,,,,,,,,,,,,,,,,,,,,,,,,,,,,,,,,,,
1577420309.093045,78.000000,0.000000,4209.230957,4237.436035,3985.641113,4064.102539,4158.461426,450.000000,4.000000,,,,0.000000,4.000000,4.000000,4.000000,4.000000,4.000000,,,,,,,,,,,,,,,,,,,,,,,,,,,,,,,,,,,,,,,,,,,,,,,,,,,,,,,,
1577420309.100741,79.000000,0.000000,4203.077148,4247.692383,3988.718018,3995.897461,4154.871582,16255.000000,4.000000,,,,0.000000,4.000000,4.000000,4.000000,4.000000,4.000000,,,,,,,,,,,,,,,,,,,,,,,,,,,,,,,,,,,,,,,,,,,,,,,,,,,,,,,,
1577420309.108538,80.000000,0.000000,4197.948730,4226.666504,3989.230713,4097.436035,4152.820313,450.000000,4.000000,,,,0.000000,4.000000,4.000000,4.000000,4.000000,4.000000,,,,,,,,,,,,,,,,,,,,,,,,,,,,,,,,,,,,,,,,,,,,,,,,,,,,,,,,
1577420309.116235,81.000000,0.000000,4196.410156,4218.974121,3993.846191,4174.871582,4151.282227,450.000000,4.000000,,,,0.000000,4.000000,4.000000,4.000000,4.000000,4.000000,,,,,,,,,,,,,,,,,,,,,,,,,,,,,,,,,,,,,,,,,,,,,,,,,,,,,,,,
1577420309.124031,82.000000,0.000000,4200.512695,4227.692383,4004.102539,4118.974121,4159.487305,450.000000,4.000000,,,,0.000000,4.000000,4.000000,4.000000,4.000000,4.000000,,,,,,,,,,,,,,,,,,,,,,,,,,,,,,,,,,,,,,,,,,,,,,,,,,,,,,,,
1577420309.131728,83.000000,0.000000,4197.948730,4232.820313,3998.974365,4057.435791,4157.948730,16255.000000,4.000000,,,,0.000000,4.000000,4.000000,4.000000,4.000000,4.000000,,,,,,,,,,,,,,,,,,,,,,,,,,,,,,,,,,,,,,,,,,,,,,,,,,,,,,,,
1577420309.139524,84.000000,0.000000,4194.871582,4236.410156,3994.871826,4043.589844,4153.846191,450.000000,4.000000,,,,0.000000,4.000000,4.000000,4.000000,4.000000,4.000000,,,,,,,,,,,,,,,,,,,,,,,,,,,,,,,,9.542131,7.984796,3.594641,3.616932,8.540421,10.507008,4.048665,2.585986,3.639877,8.767606,6.643585,5.171216,3.862920,2.047399,8.620761,2.139966,2.899562,10.153512,18.795395,36.650623,13.402400,6.350489,3.988921,3.846062,5.786700
1577420309.147221,85.000000,0.000000,4200.512695,4233.846191,4006.153809,4069.230713,4158.461426,450.000000,4.000000,,,,0.000000,4.000000,4.000000,4.000000,4.000000,4.000000,,,,,,,,,,,,,,,,,,,,,,,,,,,,,,,,,,,,,,,,,,,,,,,,,,,,,,,,
1577420309.155118,86.000000,0.000000,4205.128418,4226.153809,4005.128174,4117.948730,4161.538574,450.000000,4.000000,,,,0.000000,4.000000,4.000000,4.000000,4.000000,4.000000,,,,,,,,,,,,,,,,,,,,,,,,,,,,,,,,,,,,,,,,,,,,,,,,,,,,,,,,
1577420309.162914,87.000000,0.000000,4225.641113,4235.384766,4016.410156,4183.589844,4184.102539,16255.000000,4.000000,,,,0.000000,4.000000,4.000000,4.000000,4.000000,4.000000,,,,,,,,,,,,,,,,,,,,,,,,,,,,,,,,,,,,,,,,,,,,,,,,,,,,,,,,
1577420309.170811,88.000000,0.000000,4223.077148,4242.563965,4019.487061,4182.051270,4185.641113,450.000000,4.000000,,,,0.000000,4.000000,4.000000,4.000000,4.000000,4.000000,,,,,,,,,,,,,,,,,,,,,,,,,,,,,,,,,,,,,,,,,,,,,,,,,,,,,,,,
1577420309.178607,89.000000,0.000000,4188.717773,4240.512695,3994.871826,4074.358887,4152.307617,450.000000,4.000000,,,,0.000000,4.000000,4.000000,4.000000,4.000000,4.000000,,,,,,,,,,,,,,,,,,,,,,,,,,,,,,,,,,,,,,,,,,,,,,,,,,,,,,,,
1577420309.186404,90.000000,0.000000,4193.846191,4249.230957,3999.487061,4045.641113,4154.871582,450.000000,4.000000,,,,0.000000,4.000000,4.000000,4.000000,4.000000,4.000000,,,,,,,,,,,,,,,,,,,,,,,,,,,,,,,,,,,,,,,,,,,,,,,,,,,,,,,,
1577420309.194101,91.000000,0.000000,4221.025879,4244.615234,4020.000000,4135.384766,4176.922852,16255.000000,4.000000,,,,0.000000,4.000000,4.000000,4.000000,4.000000,4.000000,,,,,,,,,,,,,,,,,,,,,,,,,,,,,,,,,,,,,,,,,,,,,,,,,,,,,,,,
1577420309.201997,92.000000,0.000000,4205.641113,4225.128418,4008.718018,4150.256348,4164.102539,450.000000,4.000000,,,,0.000000,4.000000,4.000000,4.000000,4.000000,4.000000,,,,,,,,,,,,,,,,,,,,,,,,,,,,,,,,,,,,,,,,,,,,,,,,,,,,,,,,
1577420309.209794,93.000000,0.000000,4182.051270,4217.436035,3995.384521,4090.256348,4150.769043,450.000000,4.000000,,,,0.000000,4.000000,4.000000,4.000000,4.000000,4.000000,,,,,,,,,,,,,,,,,,,,,,,,,,,,,,,,,,,,,,,,,,,,,,,,,,,,,,,,
1577420309.217591,94.000000,0.000000,4196.922852,4225.641113,4005.641113,4084.102539,4162.051270,450.000000,4.000000,,,,0.000000,4.000000,4.000000,4.000000,4.000000,4.000000,,,,,,,,,,,,,,,,,,,,,,,,,,,,,,,,,,,,,,,,,,,,,,,,,,,,,,,,
1577420309.225388,95.000000,0.000000,4213.846191,4237.436035,4016.410156,4091.794922,4163.589844,16255.000000,4.000000,,,,0.000000,4.000000,4.000000,4.000000,4.000000,4.000000,,,,,,,,,,,,,,,,,,,,,,,,,,,,,,,,,,,,,,,,,,,,,,,,,,,,,,,,
1577420309.233284,96.000000,0.000000,4200.000000,4229.230957,4009.230713,4118.974121,4143.589844,450.000000,4.000000,,,,0.000000,4.000000,4.000000,4.000000,4.000000,4.000000,,,,,,,,,,,,,,,,,,,,,,,,,,,,,,,,,,,,,,,,,,,,,,,,,,,,,,,,
1577420309.241181,97.000000,0.000000,4175.897461,4202.051270,3986.153809,4116.922852,4126.153809,450.000000,4.000000,,,,0.000000,4.000000,4.000000,4.000000,4.000000,4.000000,,,,,,,,,,,,,,,,,,,,,,,,,,,,,,,,,,,,,,,,,,,,,,,,,,,,,,,,
1577420309.248977,98.000000,0.000000,4191.282227,4209.743652,3992.820557,4062.564209,4143.077148,450.000000,4.000000,,,,0.000000,4.000000,4.000000,4.000000,4.000000,4.000000,,,,,,,,,,,,,,,,,,,,,,,,,,,,,,,,,,,,,,,,,,,,,,,,,,,,,,,,
1577420309.256874,99.000000,0.000000,4229.230957,4249.743652,4024.102539,4107.692383,4172.307617,16255.000000,4.000000,,,,0.000000,4.000000,4.000000,4.000000,4.000000,4.000000,,,,,,,,,,,,,,,,,,,,,,,,,,,,,,,,,,,,,,,,,,,,,,,,,,,,,,,,
1577420309.264671,100.000000,0.000000,4205.641113,4234.358887,4002.564209,4124.102539,4146.666504,450.000000,4.000000,,,,0.000000,4.000000,4.000000,4.000000,4.000000,4.000000,,,,,,,,,,,,,,,,,,,,,,,,,,,,,,,,14.147422,12.392196,5.563241,4.234097,13.034063,10.757810,6.137329,3.697106,4.107577,12.612190,6.606731,8.223528,5.329113,2.579258,13.552069,2.487064,4.627124,12.072616,19.885817,39.835941,19.247335,10.791652,5.404985,3.803289,8.244689
1577420309.272568,101.000000,0.000000,4147.692383,4175.897461,3948.718018,4049.743652,4093.333252,450.000000,4.000000,,,,0.000000,4.000000,4.000000,4.000000,4.000000,4.000000,,,,,,,,,,,,,,,,,,,,,,,,,,,,,,,,,,,,,,,,,,,,,,,,,,,,,,,,
1577420309.280364,102.000000,0.000000,4156.410156,4180.000000,3951.281982,4079.487061,4105.128418,450.000000,4.000000,,,,0.000000,4.000000,4.000000,4.000000,4.000000,4.000000,,,,,,,,,,,,,,,,,,,,,,,,,,,,,,,,,,,,,,,,,,,,,,,,,,,,,,,,
1577420309.288261,103.000000,0.000000,4205.128418,4225.128418,3989.743652,4127.692383,4154.358887,16255.000000,4.000000,,,,0.000000,4.000000,4.000000,4.000000,4.000000,4.000000,,,,,,,,,,,,,,,,,,,,,,,,,,,,,,,,,,,,,,,,,,,,,,,,,,,,,,,,
1577420309.296058,104.000000,0.000000,4208.205078,4221.538574,3987.179443,4078.974365,4145.128418,450.000000,4.000000,,,,0.000000,4.000000,4.000000,4.000000,4.000000,4.000000,,,,,,,,,,,,,,,,,,,,,,,,,,,,,,,,,,,,,,,,,,,,,,,,,,,,,,,,
1577420309.303954,105.000000,0.000000,4192.820313,4217.436035,3972.820557,4103.077148,4108.205078,450.000000,4.000000,,,,0.000000,4.000000,4.000000,4.000000,4.000000,4.000000,,,,,,,,,,,,,,,,,,,,,,,,,,,,,,,,,,,,,,,,,,,,,,,,,,,,,,,,
1577420309.311751,106.000000,0.000000,4205.128418,4243.077148,3988.718018,4137.436035,4108.717773,450.000000,4.000000,,,,0.000000,4.000000,4.000000,4.000000,4.000000,4.000000,,,,,,,,,,,,,,,,,,,,,,,,,,,,,,,,,,,,,,,,,,,,,,,,,,,,,,,,
1577420309.319648,107.000000,0.000000,4223.077148,4228.205078,4004.102539,4062.564209,4121.025879,16255.000000,4.000000,,,,0.000000,4.000000,4.000000,4.000000,4.000000,4.000000,,,,,,,,,,,,,,,,,,,,,,,,,,,,,,,,,,,,,,,,,,,,,,,,,,,,,,,,
1577420309.327544,108.000000,0.000000,4223.589844,4195.384766,3994.871826,4084.102539,4101.538574,450.000000,4.000000,,,,0.000000,4.000000,4.000000,4.000000,4.000000,4.000000,,,,,,,,,,,,,,,,,,,,,,,,,,,,,,,,,,,,,,,,,,,,,,,,,,,,,,,,
1577420309.335341,109.000000,0.000000,4194.871582,4191.794922,3970.769287,4161.538574,4056.410156,450.000000,4.000000,,,,0.000000,4.000000,4.000000,4.000000,4.000000,4.000000,,,,,,,,,,,,,,,,,,,,,,,,,,,,,,,,,,,,,,,,,,,,,,,,,,,,,,,,
1577420309.343138,110.000000,0.000000,4174.358887,4203.077148,3968.718018,4060.000000,4044.102539,450.000000,4.000000,,,,0.000000,4.000000,4.000000,4.000000,4.000000,4.000000,,,,,,,,,,,,,,,,,,,,,,,,,,,,,,,,,,,,,,,,,,,,,,,,,,,,,,,,
1577420309.351035,111.000000,0.000000,4190.256348,4207.692383,3984.102539,3964.102539,4066.666748,16255.000000,4.000000,,,,0.000000,4.000000,4.000000,4.000000,4.000000,4.000000,,,,,,,,,,,,,,,,,,,,,,,,,,,,,,,,,,,,,,,,,,,,,,,,,,,,,,,,
1577420309.358931,112.000000,0.000000,4196.410156,4180.000000,3980.512939,4096.922852,4058.974365,450.000000,4.000000,,,,0.000000,4.000000,4.000000,4.000000,4.000000,4.000000,,,,,,,,,,,,,,,,,,,,,,,,,,,,,,,,,,,,,,,,,,,,,,,,,,,,,,,,
1577420309.366728,113.000000,0.000000,4188.717773,4163.077148,3974.871826,4188.205078,4040.512939,450.000000,4.000000,,,,0.000000,4.000000,4.000000,4.000000,4.000000,4.000000,,,,,,,,,,,,,,,,,,,,,,,,,,,,,,,,,,,,,,,,,,,,,,,,,,,,,,,,
1577420309.374625,114.000000,0.000000,4196.410156,4203.589844,3984.102539,4043.076904,4051.794922,450.000000,4.000000,,,,0.000000,4.000000,4.000000,4.000000,4.000000,4.000000,,,,,,,,,,,,,,,,,,,,,,,,,,,,,,,,,,,,,,,,,,,,,,,,,,,,,,,,
1577420309.382422,115.000000,0.000000,4209.743652,4208.205078,3984.615479,4001.025635,4062.564209,16255.000000,4.000000,,,,0.000000,4.000000,4.000000,4.000000,4.000000,4.000000,,,,,,,,,,,,,,,,,,,,,,,,,,,,,,,,,,,,,,,,,,,,,,,,,,,,,,,,
1577420309.390318,116.000000,0.000000,4217.436035,4159.487305,3975.384521,4141.538574,4054.871826,450.000000,4.000000,,,,0.000000,4.000000,4.000000,4.000000,4.000000,4.000000,,,,,,,,,,,,,,,,,,,,,,,,,,,,,,,,21.536356,18.827139,8.254445,5.372544,18.719927,11.974371,9.099304,5.022357,4.651559,17.370369,8.917029,13.941000,7.415819,3.558763,19.724911,4.327078,7.508466,14.337152,22.972782,41.705776,26.892223,17.354628,7.039675,3.738430,11.278767
1577420309.398115,117.000000,0.000000,4211.282227,4186.153809,3975.897461,4089.743652,4036.410156,450.000000,4.000000,,,,0.000000,4.000000,4.000000,4.000000,4.000000,4.000000,,,,,,,,,,,,,,,,,,,,,,,,,,,,,,,,,,,,,,,,,,,,,,,,,,,,,,,,
1577420309.406012,118.000000,0.000000,4191.282227,4224.102539,3970.769287,3951.794922,4018.974365,450.000000,4.000000,,,,0.000000,4.000000,4.000000,4.000000,4.000000,4.000000,,,,,,,,,,,,,,,,,,,,,,,,,,,,,,,,,,,,,,,,,,,,,,,,,,,,,,,,
1577420309.413808,119.000000,0.000000,4211.794922,4202.051270,3977.435791,4027.179443,4041.538574,16255.000000,4.000000,,,,0.000000,4.000000,4.000000,4.000000,4.000000,4.000000,,,,,,,,,,,,,,,,,,,,,,,,,,,,,,,,,,,,,,,,,,,,,,,,,,,,,,,,
1577420309.421705,120.000000,0.000000,4274.871582,4223.077148,4011.281982,4114.358887,4105.128418,450.000000,4.000000,,,,0.000000,4.000000,4.000000,4.000000,4.000000,4.000000,,,,,,,,,,,,,,,,,,,,,,,,,,,,,,,,,,,,,,,,,,,,,,,,,,,,,,,,
1577420309.429502,121.000000,0.000000,4298.461426,4245.128418,4024.615479,4104.102539,4136.922852,450.000000,4.000000,,,,0.000000,4.000000,4.000000,4.000000,4.000000,4.000000,,,,,,,,,,,,,,,,,,,,,,,,,,,,,,,,,,,,,,,,,,,,,,,,,,,,,,,,
1577420309.437398,122.000000,0.000000,4292.820313,4206.153809,4012.307617,4103.077148,4132.820313,450.000000,4.000000,,,,0.000000,4.000000,4.000000,4.000000,4.000000,4.000000,,,,,,,,,,,,,,,,,,,,,,,,,,,,,,,,,,,,,,,,,,,,,,,,,,,,,,,,
1577420309.445195,123.000000,0.000000,4301.538574,4204.102539,4007.692383,4055.384521,4143.077148,16255.000000,4.000000,,,,0.000000,4.000000,4.000000,4.000000,4.000000,4.000000,,,,,,,,,,,,,,,,,,,,,,,,,,,,,,,,,,,,,,,,,,,,,,,,,,,,,,,,
1577420309.453092,124.000000,0.000000,4313.333496,4246.153809,4018.974365,4049.743652,4160.000000,450.000000,4.000000,,,,0.000000,4.000000,4.000000,4.000000,4.000000,4.000000,,,,,,,,,,,,,,,,,,,,,,,,,,,,,,,,,,,,,,,,,,,,,,,,,,,,,,,,
1577420309.460889,125.000000,0.000000,4318.461426,4251.794922,4028.205078,4165.641113,4166.666504,450.000000,4.000000,,,,0.000000,4.000000,4.000000,4.000000,4.000000,4.000000,,,,,,,,,,,,,,,,,,,,,,,,,,,,,,,,,,,,,,,,,,,,,,,,,,,,,,,,
1577420309.468785,126.000000,0.000000,4320.512695,4252.820313,4033.333252,4158.461426,4173.333496,450.000000,4.000000,,,,0.000000,4.000000,4.000000,4.000000,4.000000,4.000000,,,,,,,,,,,,,,,,,,,,,,,,,,,,,,,,,,,,,,,,,,,,,,,,,,,,,,,,
1577420309.476582,127.000000,0.000000,4320.000000,4253.846191,4040.512939,4058.461426,4187.179688,236.000000,4.000000,,,,0.000000,4.000000,4.000000,4.000000,4.000000,4.000000,,,,,,,,,,,,,,,,,,,,,,,,,,,,,,,,,,,,,,,,,,,,,,,,,,,,,,,,
1577420309.484479,0.000000,0.000000,4300.000000,4224.615234,4022.564209,4069.743652,4190.256348,450.000000,4.000000,,,,0.000000,4.000000,4.000000,4.000000,4.000000,4.000000,,,,,,,,,,,,,,,,,,,,,,,,,,,,,,,,,,,,,,,,,,,,,,,,,,,,,,,,
1577420309.492375,1.000000,0.000000,4261.538574,4219.487305,3991.794922,4038.974365,4169.743652,450.000000,4.000000,,,,0.000000,4.000000,4.000000,4.000000,4.000000,4.000000,,,,,,,,,,,,,,,,,,,,,,,,,,,,,,,,,,,,,,,,,,,,,,,,,,,,,,,,
1577420309.500172,2.000000,0.000000,4245.128418,4231.282227,3998.974365,3988.205078,4161.025879,16224.000000,4.000000,,,,0.000000,4.000000,4.000000,4.000000,4.000000,4.000000,,,,,,,,,,,,,,,,,,,,,,,,,,,,,,,,,,,,,,,,,,,,,,,,,,,,,,,,
1577420309.508069,3.000000,0.000000,4262.563965,4238.974121,4025.128174,4067.692383,4190.256348,450.000000,4.000000,,,,0.000000,4.000000,4.000000,4.000000,4.000000,4.000000,,,,,,,,,,,,,,,,,,,,,,,,,,,,,,,,,,,,,,,,,,,,,,,,,,,,,,,,
1577420309.515866,4.000000,0.000000,4287.692383,4255.897461,4041.025635,4168.717773,4222.051270,16216.000000,4.000000,,,,0.000000,4.000000,4.000000,4.000000,4.000000,4.000000,,,,,,,,,,,,,,,,,,,,,,,,,,,,,,,,30.732382,26.501806,11.420801,7.028731,24.926815,13.891850,12.717197,6.474492,5.263872,22.372753,12.717597,22.290817,10.005145,4.980668,26.356348,7.511566,11.469733,16.557096,27.075428,42.514164,35.101967,25.268864,8.759592,3.750311,14.540915
1577420309.523762,5.000000,0.000000,4307.692383,4250.256348,4066.153809,4177.948730,4244.102539,450.000000,4.000000,,,,0.000000,4.000000,4.000000,4.000000,4.000000,4.000000,,,,,,,,,,,,,,,,,,,,,,,,,,,,,,,,,,,,,,,,,,,,,,,,,,,,,,,,
1577420309.531559,6.000000,0.000000,4298.461426,4226.666504,4075.897461,4150.256348,4237.948730,16191.000000,4.000000,,,,0.000000,4.000000,4.000000,4.000000,4.000000,4.000000,,,,,,,,,,,,,,,,,,,,,,,,,,,,,,,,,,,,,,,,,,,,,,,,,,,,,,,,
1577420309.539456,7.000000,0.000000,4260.512695,4238.974121,4048.205078,4081.538574,4196.922852,450.000000,4.000000,,,,0.000000,4.000000,4.000000,4.000000,4.000000,4.000000,,,,,,,,,,,,,,,,,,,,,,,,,,,,,,,,,,,,,,,,,,,,,,,,,,,,,,,,
1577420309.547252,8.000000,0.000000,4255.897461,4264.615234,4043.076904,4066.666748,4196.922852,450.000000,4.000000,,,,0.000000,4.000000,4.000000,4.000000,4.000000,4.000000,,,,,,,,,,,,,,,,,,,,,,,,,,,,,,,,,,,,,,,,,,,,,,,,,,,,,,,,
1577420309.555149,9.000000,0.000000,4266.666504,4257.948730,4064.615479,4108.205078,4222.563965,16167.000000,4.000000,,,,0.000000,4.000000,4.000000,4.000000,4.000000,4.000000,,,,,,,,,,,,,,,,,,,,,,,,,,,,,,,,,,,,,,,,,,,,,,,,,,,,,,,,
1577420309.562946,10.000000,0.000000,4239.487305,4243.589844,4057.948730,4062.051270,4208.717773,450.000000,4.000000,,,,0.000000,4.000000,4.000000,4.000000,4.000000,4.000000,,,,,,,,,,,,,,,,,,,,,,,,,,,,,,,,,,,,,,,,,,,,,,,,,,,,,,,,
1577420309.570843,11.000000,0.000000,4211.282227,4245.128418,4044.102539,4053.333252,4193.333496,16228.000000,4.000000,,,,0.000000,4.000000,4.000000,4.000000,4.000000,4.000000,,,,,,,,,,,,,,,,,,,,,,,,,,,,,,,,,,,,,,,,,,,,,,,,,,,,,,,,
1577420309.578639,12.000000,0.000000,4198.974121,4252.307617,4045.641113,4113.333496,4189.743652,450.000000,4.000000,,,,0.000000,4.000000,4.000000,4.000000,4.000000,4.000000,,,,,,,,,,,,,,,,,,,,,,,,,,,,,,,,,,,,,,,,,,,,,,,,,,,,,,,,
1577420309.586536,13.000000,0.000000,4167.179688,4240.000000,4027.179443,4085.641113,4160.512695,450.000000,4.000000,,,,0.000000,4.000000,4.000000,4.000000,4.000000,4.000000,,,,,,,,,,,,,,,,,,,,,,,,,,,,,,,,,,,,,,,,,,,,,,,,,,,,,,,,
1577420309.594333,14.000000,0.000000,4143.077148,4210.256348,4017.435791,4073.846191,4143.077148,450.000000,4.000000,,,,0.000000,4.000000,4.000000,4.000000,4.000000,4.000000,,,,,,,,,,,,,,,,,,,,,,,,,,,,,,,,,,,,,,,,,,,,,,,,,,,,,,,,
1577420309.602229,15.000000,0.000000,4173.846191,4225.128418,4051.281982,4114.871582,4180.000000,16228.000000,4.000000,,,,0.000000,4.000000,4.000000,4.000000,4.000000,4.000000,,,,,,,,,,,,,,,,,,,,,,,,,,,,,,,,,,,,,,,,,,,,,,,,,,,,,,,,
1577420309.610126,16.000000,0.000000,4219.487305,4280.512695,4085.641113,4084.102539,4231.282227,0.000000,4.000000,,,,0.000000,4.000000,4.000000,4.000000,4.000000,4.000000,,,,,,,,,,,,,,,,,,,,,,,,,,,,,,,,,,,,,,,,,,,,,,,,,,,,,,,,
1577420309.617923,17.000000,0.000000,4208.205078,4295.384766,4076.923096,4080.512939,4235.384766,0.000000,4.000000,,,,0.000000,4.000000,4.000000,4.000000,4.000000,4.000000,,,,,,,,,,,,,,,,,,,,,,,,,,,,,,,,,,,,,,,,,,,,,,,,,,,,,,,,
1577420309.625720,18.000000,0.000000,4177.948730,4267.179688,4048.718018,4140.000000,4209.743652,0.000000,4.000000,,,,0.000000,4.000000,4.000000,4.000000,4.000000,4.000000,,,,,,,,,,,,,,,,,,,,,,,,,,,,,,,,,,,,,,,,,,,,,,,,,,,,,,,,
1577420309.633616,19.000000,0.000000,4221.025879,4255.384766,4050.256348,4169.743652,4231.794922,0.000000,4.000000,,,,0.000000,4.000000,4.000000,4.000000,4.000000,4.000000,,,,,,,,,,,,,,,,,,,,,,,,,,,,,,,,,,,,,,,,,,,,,,,,,,,,,,,,
1577420309.641513,20.000000,0.000000,4267.179688,4260.512695,4065.128174,4173.333496,4263.589844,0.000000,4.000000,,,,0.000000,4.000000,4.000000,4.000000,4.000000,4.000000,,,,,,,,,,,,,,,,,,,,,,,,,,,,,,,,40.306862,33.642593,14.543572,8.856965,30.421856,16.495756,16.306923,7.872924,5.834191,26.552408,17.218298,31.788301,12.640362,6.568967,32.087761,11.708853,15.860466,18.174807,30.720848,42.735306,42.827194,32.788704,10.350870,3.860550,17.405382
1577420309.649310,21.000000,0.000000,4243.589844,4274.358887,4057.435791,4055.897461,4247.179688,0.000000,4.000000,,,,0.000000,4.000000,4.000000,4.000000,4.000000,4.000000,,,,,,,,,,,,,,,,,,,,,,,,,,,,,,,,,,,,,,,,,,,,,,,,,,,,,,,,
1577420309.657206,22.000000,0.000000,4250.769043,4271.794922,4050.769287,4038.974365,4257.948730,0.000000,4.000000,,,,0.000000,4.000000,4.000000,4.000000,4.000000,4.000000,,,,,,,,,,,,,,,,,,,,,,,,,,,,,,,,,,,,,,,,,,,,,,,,,,,,,,,,
1577420309.665003,23.000000,0.000000,4298.461426,4248.205078,4058.461426,4243.589844,4305.128418,0.000000,4.000000,,,,0.000000,4.000000,4.000000,4.000000,4.000000,4.000000,,,,,,,,,,,,,,,,,,,,,,,,,,,,,,,,,,,,,,,,,,,,,,,,,,,,,,,,
1577420309.672900,24.000000,0.000000,4290.256348,4264.102539,4057.948730,4220.512695,4306.153809,0.000000,4.000000,,,,0.000000,4.000000,4.000000,4.000000,4.000000,4.000000,,,,,,,,,,,,,,,,,,,,,,,,,,,,,,,,,,,,,,,,,,,,,,,,,,,,,,,,
1577420309.680697,25.000000,0.000000,4249.743652,4266.666504,4041.025635,4041.025635,4276.922852,0.000000,4.000000,,,,0.000000,4.000000,4.000000,4.000000,4.000000,4.000000,,,,,,,,,,,,,,,,,,,,,,,,,,,,,,,,,,,,,,,,,,,,,,,,,,,,,,,,
1577420309.688593,26.000000,0.000000,4255.384766,4212.307617,4030.769287,4141.538574,4276.410156,0.000000,4.000000,,,,0.000000,4.000000,4.000000,4.000000,4.000000,4.000000,,,,,,,,,,,,,,,,,,,,,,,,,,,,,,,,,,,,,,,,,,,,,,,,,,,,,,,,
1577420309.696390,27.000000,0.000000,4287.179688,4202.563965,4040.000000,4272.820313,4286.153809,0.000000,4.000000,,,,0.000000,4.000000,4.000000,4.000000,4.000000,4.000000,,,,,,,,,,,,,,,,,,,,,,,,,,,,,,,,,,,,,,,,,,,,,,,,,,,,,,,,
1577420309.704287,28.000000,0.000000,4300.000000,4231.794922,4037.948730,4126.666504,4276.922852,0.000000,4.000000,,,,0.000000,4.000000,4.000000,4.000000,4.000000,4.000000,,,,,,,,,,,,,,,,,,,,,,,,,,,,,,,,,,,,,,,,,,,,,,,,,,,,,,,,
1577420309.712083,29.000000,0.000000,4294.871582,4222.563965,4016.923096,4008.718018,4254.358887,0.000000,4.000000,,,,0.000000,4.000000,4.000000,4.000000,4.000000,4.000000,,,,,,,,,,,,,,,,,,,,,,,,,,,,,,,,,,,,,,,,,,,,,,,,,,,,,,,,
1577420309.719980,30.000000,0.000000,4293.846191,4225.641113,4011.281982,4093.333252,4240.512695,0.000000,4.000000,,,,0.000000,4.000000,4.000000,4.000000,4.000000,4.000000,,,,,,,,,,,,,,,,,,,,,,,,,,,,,,,,,,,,,,,,,,,,,,,,,,,,,,,,
1577420309.727777,31.000000,0.000000,4305.641113,4243.077148,4026.153809,4135.897461,4254.871582,0.000000,4.000000,,,,0.000000,4.000000,4.000000,4.000000,4.000000,4.000000,,,,,,,,,,,,,,,,,,,,,,,,,,,,,,,,,,,,,,,,,,,,,,,,,,,,,,,,
1577420309.735673,32.000000,0.000000,4308.717773,4226.666504,4026.666748,4123.077148,4262.563965,0.000000,4.000000,,,,0.000000,4.000000,4.000000,4.000000,4.000000,4.000000,,,,,,,,,,,,,,,,,,,,,,,,,,,,,,,,,,,,,,,,,,,,,,,,,,,,,,,,
1577420309.743470,33.000000,0.000000,4311.794922,4219.487305,4019.487061,4171.794922,4260.512695,0.000000,4.000000,,,,0.000000,4.000000,4.000000,4.000000,4.000000,4.000000,,,,,,,,,,,,,,,,,,,,,,,,,,,,,,,,,,,,,,,,,,,,,,,,,,,,,,,,
1577420309.751367,34.000000,0.000000,4320.512695,4228.717773,4025.641113,4232.820313,4268.205078,0.000000,4.000000,,,,0.000000,4.000000,4.000000,4.000000,4.000000,4.000000,,,,,,,,,,,,,,,,,,,,,,,,,,,,,,,,,,,,,,,,,,,,,,,,,,,,,,,,
1577420309.759164,35.000000,0.000000,4313.846191,4235.384766,4023.076904,4162.563965,4268.205078,0.000000,4.000000,,,,0.000000,4.000000,4.000000,4.000000,4.000000,4.000000,,,,,,,,,,,,,,,,,,,,,,,,,,,,,,,,,,,,,,,,,,,,,,,,,,,,,,,,
1577420309.767060,36.000000,0.000000,4306.153809,4231.794922,4010.256348,4065.641113,4253.333496,0.000000,4.000000,,,,0.000000,4.000000,4.000000,4.000000,4.000000,4.000000,,,,,,,,,,,,,,,,,,,,,,,,,,,,,,,,48.306747,38.324879,16.995010,10.335732,33.769333,18.973297,18.900137,8.954551,6.189252,28.788363,21.057856,39.773258,14.673775,7.886582,35.396027,15.934361,19.661478,18.859575,32.713501,42.746101,48.931065,37.885735,11.575274,4.044929,19.145426
1577420309.774857,37.000000,0.000000,4310.256348,4217.436035,4005.641113,4112.307617,4242.051270,0.000000,4.000000,,,,0.000000,4.000000,4.000000,4.000000,4.000000,4.000000,,,,,,,,,,,,,,,,,,,,,,,,,,,,,,,,,,,,,,,,,,,,,,,,,,,,,,,,
1577420309.782754,38.000000,0.000000,4321.538574,4241.025879,4021.538574,4186.666504,4253.333496,0.000000,4.000000,,,,0.000000,4.000000,4.000000,4.000000,4.000000,4.000000,,,,,,,,,,,,,,,,,,,,,,,,,,,,,,,,,,,,,,,,,,,,,,,,,,,,,,,,
1577420309.790551,39.000000,0.000000,4343.077148,4282.563965,4048.205078,4182.051270,4276.410156,0.000000,4.000000,,,,0.000000,4.000000,4.000000,4.000000,4.000000,4.000000,,,,,,,,,,,,,,,,,,,,,,,,,,,,,,,,,,,,,,,,,,,,,,,,,,,,,,,,
1577420309.798447,40.000000,0.000000,4353.846191,4272.820313,4053.846191,4109.230957,4283.589844,0.000000,4.000000,,,,0.000000,4.000000,4.000000,4.000000,4.000000,4.000000,,,,,,,,,,,,,,,,,,,,,,,,,,,,,,,,,,,,,,,,,,,,,,,,,,,,,,,,
1577420309.806344,41.000000,0.000000,4340.512695,4249.230957,4029.230713,4095.897461,4267.692383,0.000000,4.000000,,,,0.000000,4.000000,4.000000,4.000000,4.000000,4.000000,,,,,,,,,,,,,,,,,,,,,,,,,,,,,,,,,,,,,,,,,,,,,,,,,,,,,,,,
1577420309.814141,42.000000,0.000000,4334.358887,4250.256348,4020.000000,4208.717773,4253.846191,0.000000,4.000000,,,,0.000000,4.000000,4.000000,4.000000,4.000000,4.000000,,,,,,,,,,,,,,,,,,,,,,,,,,,,,,,,,,,,,,,,,,,,,,,,,,,,,,,,
1577420309.821937,43.000000,0.000000,4340.000000,4237.436035,4040.512939,4237.948730,4259.487305,0.000000,4.000000,,,,0.000000,4.000000,4.000000,4.000000,4.000000,4.000000,,,,,,,,,,,,,,,,,,,,,,,,,,,,,,,,,,,,,,,,,,,,,,,,,,,,,,,,
1577420309.829834,44.000000,0.000000,4345.641113,4268.205078,4050.256348,4116.922852,4268.205078,0.000000,4.000000,,,,0.000000,4.000000,4.000000,4.000000,4.000000,4.000000,,,,,,,,,,,,,,,,,,,,,,,,,,,,,,,,,,,,,,,,,,,,,,,,,,,,,,,,
1577420309.837631,45.000000,0.000000,4350.769043,4327.179688,4045.128174,4081.538574,4267.179688,0.000000,4.000000,,,,0.000000,4.000000,4.000000,4.000000,4.000000,4.000000,,,,,,,,,,,,,,,,,,,,,,,,,,,,,,,,,,,,,,,,,,,,,,,,,,,,,,,,
1577420309.845527,46.000000,0.000000,4341.025879,4300.000000,4044.102539,4233.846191,4260.000000,0.000000,4.000000,,,,0.000000,4.000000,4.000000,4.000000,4.000000,4.000000,,,,,,,,,,,,,,,,,,,,,,,,,,,,,,,,,,,,,,,,,,,,,,,,,,,,,,,,
1577420309.853324,47.000000,0.000000,4334.871582,4256.410156,4052.307617,4268.717773,4258.974121,0.000000,4.000000,,,,0.000000,4.000000,4.000000,4.000000,4.000000,4.000000,,,,,,,,,,,,,,,,,,,,,,,,,,,,,,,,,,,,,,,,,,,,,,,,,,,,,,,,
1577420309.861221,48.000000,0.000000,4337.436035,4301.538574,4052.307617,4049.743652,4251.794922,0.000000,4.000000,,,,0.000000,4.000000,4.000000,4.000000,4.000000,4.000000,,,,,,,,,,,,,,,,,,,,,,,,,,,,,,,,,,,,,,,,,,,,,,,,,,,,,,,,
1577420309.869018,49.000000,0.000000,4333.846191,4334.358887,4047.179443,3996.410156,4241.025879,0.000000,4.000000,,,,0.000000,4.000000,4.000000,4.000000,4.000000,4.000000,,,,,,,,,,,,,,,,,,,,,,,,,,,,,,,,,,,,,,,,,,,,,,,,,,,,,,,,
1577420309.876914,50.000000,0.000000,4351.794922,4285.641113,4060.000000,4248.205078,4255.384766,0.000000,4.000000,,,,0.000000,4.000000,4.000000,4.000000,4.000000,4.000000,,,,,,,,,,,,,,,,,,,,,,,,,,,,,,,,,,,,,,,,,,,,,,,,,,,,,,,,
1577420309.884711,51.000000,0.000000,4375.897461,4270.256348,4074.358887,4330.769043,4272.307617,0.000000,4.000000,,,,0.000000,4.000000,4.000000,4.000000,4.000000,4.000000,,,,,,,,,,,,,,,,,,,,,,,,,,,,,,,,,,,,,,,,,,,,,,,,,,,,,,,,
1577420309.892608,52.000000,0.000000,4367.179688,4308.205078,4069.230713,4152.307617,4255.897461,0.000000,4.000000,,,,0.000000,4.000000,4.000000,4.000000,4.000000,4.000000,,,,,,,,,,,,,,,,,,,,,,,,,,,,,,,,53.497700,39.314083,18.156408,10.957647,33.898865,20.469172,19.677942,9.456793,6.212180,28.361029,23.008001,43.646000,15.487669,8.517588,35.202114,19.099464,21.901958,18.801022,32.674419,42.600498,52.983009,39.008327,12.162679,4.246947,19.215271
1577420309.900405,53.000000,0.000000,4353.333496,4302.563965,4055.384521,4080.512939,4241.538574,0.000000,4.000000,,,,0.000000,4.000000,4.000000,4.000000,4.000000,4.000000,,,,,,,,,,,,,,,,,,,,,,,,,,,,,,,,,,,,,,,,,,,,,,,,,,,,,,,,
1577420309.908301,54.000000,0.000000,4348.205078,4271.794922,4046.153809,4097.948730,4240.000000,0.000000,4.000000,,,,0.000000,4.000000,4.000000,4.000000,4.000000,4.000000,,,,,,,,,,,,,,,,,,,,,,,,,,,,,,,,,,,,,,,,,,,,,,,,,,,,,,,,
1577420309.916098,55.000000,0.000000,4313.846191,4281.538574,4029.230713,4120.512695,4218.974121,0.000000,4.000000,,,,0.000000,4.000000,4.000000,4.000000,4.000000,4.000000,,,,,,,,,,,,,,,,,,,,,,,,,,,,,,,,,,,,,,,,,,,,,,,,,,,,,,,,
1577420309.923995,56.000000,0.000000,4274.358887,4292.820313,4011.794922,4193.846191,4194.871582,0.000000,4.000000,,,,0.000000,4.000000,4.000000,4.000000,4.000000,4.000000,,,,,,,,,,,,,,,,,,,,,,,,,,,,,,,,,,,,,,,,,,,,,,,,,,,,,,,,
1577420309.931891,57.000000,0.000000,4295.384766,4300.000000,4035.897461,4098.974121,4219.487305,0.000000,4.000000,,,,0.000000,4.000000,4.000000,4.000000,4.000000,4.000000,,,,,,,,,,,,,,,,,,,,,,,,,,,,,,,,,,,,,,,,,,,,,,,,,,,,,,,,
1577420309.939688,58.000000,0.000000,4336.410156,4331.794922,4072.307617,4017.948730,4260.512695,0.000000,4.000000,,,,0.000000,4.000000,4.000000,4.000000,4.000000,4.000000,,,,,,,,,,,,,,,,,,,,,,,,,,,,,,,,,,,,,,,,,,,,,,,,,,,,,,,,
1577420309.947585,59.000000,0.000000,4331.794922,4343.077148,4068.205078,4222.051270,4256.410156,0.000000,4.000000,,,,0.000000,4.000000,4.000000,4.000000,4.000000,4.000000,,,,,,,,,,,,,,,,,,,,,,,,,,,,,,,,,,,,,,,,,,,,,,,,,,,,,,,,
1577420309.955381,60.000000,0.000000,4330.256348,4332.307617,4065.128174,4273.846191,4252.820313,0.000000,4.000000,,,,0.000000,4.000000,4.000000,4.000000,4.000000,4.000000,,,,,,,,,,,,,,,,,,,,,,,,,,,,,,,,,,,,,,,,,,,,,,,,,,,,,,,,
1577420309.963278,61.000000,0.000000,4355.384766,4337.436035,4080.512939,4100.512695,4274.871582,0.000000,4.000000,,,,0.000000,4.000000,4.000000,4.000000,4.000000,4.000000,,,,,,,,,,,,,,,,,,,,,,,,,,,,,,,,,,,,,,,,,,,,,,,,,,,,,,,,
1577420309.971075,62.000000,0.000000,4357.948730,4337.436035,4076.410156,4145.641113,4272.307617,0.000000,4.000000,,,,0.000000,4.000000,4.000000,4.000000,4.000000,4.000000,,,,,,,,,,,,,,,,,,,,,,,,,,,,,,,,,,,,,,,,,,,,,,,,,,,,,,,,
1577420309.978972,63.000000,0.000000,4342.563965,4314.871582,4060.000000,4226.666504,4247.692383,0.000000,4.000000,,,,0.000000,4.000000,4.000000,4.000000,4.000000,4.000000,,,,,,,,,,,,,,,,,,,,,,,,,,,,,,,,,,,,,,,,,,,,,,,,,,,,,,,,
1577420309.986768,64.000000,0.000000,4344.615234,4295.384766,4061.025635,4109.743652,4247.692383,450.000000,4.000000,,,,0.000000,4.000000,4.000000,4.000000,4.000000,4.000000,,,,,,,,,,,,,,,,,,,,,,,,,,,,,,,,,,,,,,,,,,,,,,,,,,,,,,,,
1577420309.994665,65.000000,0.000000,4359.487305,4301.025879,4075.384521,4109.230957,4264.102539,450.000000,4.000000,,,,0.000000,4.000000,4.000000,4.000000,4.000000,4.000000,,,,,,,,,,,,,,,,,,,,,,,,,,,,,,,,,,,,,,,,,,,,,,,,,,,,,,,,
1577420310.002462,66.000000,0.000000,4376.410156,4312.307617,4077.435791,4194.358887,4266.666504,16212.000000,4.000000,,,,0.000000,4.000000,4.000000,4.000000,4.000000,4.000000,,,,,,,,,,,,,,,,,,,,,,,,,,,,,,,,,,,,,,,,,,,,,,,,,,,,,,,,
1577420310.010358,67.000000,0.000000,4336.922852,4281.025879,4037.435791,4153.333496,4235.897461,450.000000,4.000000,,,,0.000000,4.000000,4.000000,4.000000,4.000000,4.000000,,,,,,,,,,,,,,,,,,,,,,,,,,,,,,,,,,,,,,,,,,,,,,,,,,,,,,,,
1577420310.018155,68.000000,0.000000,4234.871582,4234.358887,3983.076904,4075.897461,4182.563965,16214.000000,4.000000,,,,0.000000,4.000000,4.000000,4.000000,4.000000,4.000000,,,,,,,,,,,,,,,,,,,,,,,,,,,,,,,,55.233147,36.598480,17.692949,10.490150,30.600883,20.108294,18.303263,9.190331,5.909310,25.272146,22.164837,41.982548,14.766398,8.268435,31.367760,20.214130,22.019716,18.571268,30.921446,42.291992,54.803635,35.858105,11.941323,4.418053,17.491032
1577420310.026052,69.000000,0.000000,4200.512695,4253.333496,3986.666748,4036.923096,4178.974121,450.000000,4.000000,,,,0.000000,4.000000,4.000000,4.000000,4.000000,4.000000,,,,,,,,,,,,,,,,,,,,,,,,,,,,,,,,,,,,,,,,,,,,,,,,,,,,,,,,
1577420310.033849,70.000000,0.000000,4276.410156,4300.512695,4037.435791,4062.051270,4234.871582,16179.000000,4.000000,,,,0.000000,4.000000,4.000000,4.000000,4.000000,4.000000,,,,,,,,,,,,,,,,,,,,,,,,,,,,,,,,,,,,,,,,,,,,,,,,,,,,,,,,
1577420310.041745,71.000000,0.000000,4343.589844,4311.282227,4071.794922,4216.410156,4285.641113,450.000000,4.000000,,,,0.000000,4.000000,4.000000,4.000000,4.000000,4.000000,,,,,,,,,,,,,,,,,,,,,,,,,,,,,,,,,,,,,,,,,,,,,,,,,,,,,,,,
1577420310.049542,72.000000,0.000000,4327.692383,4312.820313,4067.692383,4258.974121,4294.871582,450.000000,4.000000,,,,0.000000,4.000000,4.000000,4.000000,4.000000,4.000000,,,,,,,,,,,,,,,,,,,,,,,,,,,,,,,,,,,,,,,,,,,,,,,,,,,,,,,,
1577420310.057439,73.000000,0.000000,4269.743652,4302.563965,4037.948730,4027.692383,4261.538574,16170.000000,4.000000,,,,0.000000,4.000000,4.000000,4.000000,4.000000,4.000000,,,,,,,,,,,,,,,,,,,,,,,,,,,,,,,,,,,,,,,,,,,,,,,,,,,,,,,,
1577420310.065335,74.000000,0.000000,4241.025879,4293.333496,4029.230713,3997.435791,4240.000000,450.000000,4.000000,,,,0.000000,4.000000,4.000000,4.000000,4.000000,4.000000,,,,,,,,,,,,,,,,,,,,,,,,,,,,,,,,,,,,,,,,,,,,,,,,,,,,,,,,
1577420310.073132,75.000000,0.000000,4268.717773,4358.974121,4074.358887,4231.794922,4294.358887,16211.000000,4.000000,,,,0.000000,4.000000,4.000000,4.000000,4.000000,4.000000,,,,,,,,,,,,,,,,,,,,,,,,,,,,,,,,,,,,,,,,,,,,,,,,,,,,,,,,
1577420310.081029,76.000000,0.000000,4292.307617,4425.128418,4108.205078,4224.102539,4352.820313,450.000000,4.000000,,,,0.000000,4.000000,4.000000,4.000000,4.000000,4.000000,,,,,,,,,,,,,,,,,,,,,,,,,,,,,,,,,,,,,,,,,,,,,,,,,,,,,,,,
1577420310.088826,77.000000,0.000000,4266.153809,4381.025879,4084.102539,4089.230713,4339.487305,450.000000,4.000000,,,,0.000000,4.000000,4.000000,4.000000,4.000000,4.000000,,,,,,,,,,,,,,,,,,,,,,,,,,,,,,,,,,,,,,,,,,,,,,,,,,,,,,,,
1577420310.096722,78.000000,0.000000,4228.205078,4314.871582,4046.666748,4200.512695,4294.871582,450.000000,4.000000,,,,0.000000,4.000000,4.000000,4.000000,4.000000,4.000000,,,,,,,,,,,,,,,,,,,,,,,,,,,,,,,,,,,,,,,,,,,,,,,,,,,,,,,,
1577420310.104519,79.000000,0.000000,4203.077148,4309.743652,4014.358887,4274.358887,4252.820313,16211.000000,4.000000,,,,0.000000,4.000000,4.000000,4.000000,4.000000,4.000000,,,,,,,,,,,,,,,,,,,,,,,,,,,,,,,,,,,,,,,,,,,,,,,,,,,,,,,,
1577420310.112416,80.000000,0.000000,4191.794922,4309.743652,3991.281982,4106.153809,4229.743652,450.000000,4.000000,,,,0.000000,4.000000,4.000000,4.000000,4.000000,4.000000,,,,,,,,,,,,,,,,,,,,,,,,,,,,,,,,,,,,,,,,,,,,,,,,,,,,,,,,
1577420310.120212,81.000000,0.000000,4190.769043,4289.743652,3992.307617,4047.179443,4228.717773,450.000000,4.000000,,,,0.000000,4.000000,4.000000,4.000000,4.000000,4.000000,,,,,,,,,,,,,,,,,,,,,,,,,,,,,,,,,,,,,,,,,,,,,,,,,,,,,,,,
1577420310.128109,82.000000,0.000000,4176.410156,4260.000000,3989.230713,4163.077148,4216.410156,450.000000,4.000000,,,,0.000000,4.000000,4.000000,4.000000,4.000000,4.000000,,,,,,,,,,,,,,,,,,,,,,,,,,,,,,,,,,,,,,,,,,,,,,,,,,,,,,,,
1577420310.135906,83.000000,0.000000,4160.000000,4255.384766,3980.512939,4155.384766,4201.025879,16211.000000,4.000000,,,,0.000000,4.000000,4.000000,4.000000,4.000000,4.000000,,,,,,,,,,,,,,,,,,,,,,,,,,,,,,,,,,,,,,,,,,,,,,,,,,,,,,,,
1577420310.143802,84.000000,0.000000,4158.461426,4263.077148,3983.076904,4048.205078,4195.897461,450.000000,4.000000,,,,0.000000,4.000000,4.000000,4.000000,4.000000,4.000000,,,,,,,,,,,,,,,,,,,,,,,,,,,,,,,,53.401024,31.384302,15.762043,9.143547,24.679426,17.893850,15.130818,8.141994,5.387918,20.293839,18.910101,35.289635,12.669723,7.267178,24.819763,18.995056,20.087675,18.734344,28.335543,42.268555,54.430981,29.468306,10.909940,4.536719,14.360974
1577420310.151599,85.000000,0.000000,4154.358887,4223.077148,3977.948730,4087.692383,4187.692383,450.000000,4.000000,,,,0.000000,4.000000,4.000000,4.000000,4.000000,4.000000,,,,,,,,,,,,,,,,,,,,,,,,,,,,,,,,,,,,,,,,,,,,,,,,,,,,,,,,
1577420310.159496,86.000000,0.000000,4169.230957,4213.846191,3981.025635,4232.307617,4199.487305,450.000000,4.000000,,,,0.000000,4.000000,4.000000,4.000000,4.000000,4.000000,,,,,,,,,,,,,,,,,,,,,,,,,,,,,,,,,,,,,,,,,,,,,,,,,,,,,,,,
1577420310.167293,87.000000,0.000000,4200.512695,4273.333496,4003.589844,4162.051270,4230.769043,16211.000000,4.000000,,,,0.000000,4.000000,4.000000,4.000000,4.000000,4.000000,,,,,,,,,,,,,,,,,,,,,,,,,,,,,,,,,,,,,,,,,,,,,,,,,,,,,,,,
1577420310.175189,88.000000,0.000000,4198.461426,4284.615234,4013.333252,4045.128174,4231.282227,450.000000,4.000000,,,,0.000000,4.000000,4.000000,4.000000,4.000000,4.000000,,,,,,,,,,,,,,,,,,,,,,,,,,,,,,,,,,,,,,,,,,,,,,,,,,,,,,,,
1577420310.182986,89.000000,0.000000,4204.102539,4248.205078,4028.205078,4154.871582,4233.846191,450.000000,4.000000,,,,0.000000,4.000000,4.000000,4.000000,4.000000,4.000000,,,,,,,,,,,,,,,,,,,,,,,,,,,,,,,,,,,,,,,,,,,,,,,,,,,,,,,,
1577420310.190883,90.000000,0.000000,4256.922852,4269.743652,4073.846191,4267.179688,4282.563965,450.000000,4.000000,,,,0.000000,4.000000,4.000000,4.000000,4.000000,4.000000,,,,,,,,,,,,,,,,,,,,,,,,,,,,,,,,,,,,,,,,,,,,,,,,,,,,,,,,
1577420310.198679,91.000000,0.000000,4301.538574,4323.589844,4114.358887,4190.256348,4320.512695,16211.000000,4.000000,,,,0.000000,4.000000,4.000000,4.000000,4.000000,4.000000,,,,,,,,,,,,,,,,,,,,,,,,,,,,,,,,,,,,,,,,,,,,,,,,,,,,,,,,
1577420310.206576,92.000000,0.000000,4291.794922,4320.000000,4111.282227,4105.128418,4302.563965,450.000000,4.000000,,,,0.000000,4.000000,4.000000,4.000000,4.000000,4.000000,,,,,,,,,,,,,,,,,,,,,,,,,,,,,,,,,,,,,,,,,,,,,,,,,,,,,,,,
1577420310.214473,93.000000,0.000000,4271.794922,4306.153809,4087.179443,4132.307617,4277.948730,450.000000,4.000000,,,,0.000000,4.000000,4.000000,4.000000,4.000000,4.000000,,,,,,,,,,,,,,,,,,,,,,,,,,,,,,,,,,,,,,,,,,,,,,,,,,,,,,,,
1577420310.222270,94.000000,0.000000,4306.153809,4315.897461,4083.076904,4170.256348,4295.384766,450.000000,4.000000,,,,0.000000,4.000000,4.000000,4.000000,4.000000,4.000000,,,,,,,,,,,,,,,,,,,,,,,,,,,,,,,,,,,,,,,,,,,,,,,,,,,,,,,,
1577420310.230166,95.000000,0.000000,4355.897461,4285.641113,4075.897461,4201.538574,4317.436035,16211.000000,4.000000,,,,0.000000,4.000000,4.000000,4.000000,4.000000,4.000000,,,,,,,,,,,,,,,,,,,,,,,,,,,,,,,,,,,,,,,,,,,,,,,,,,,,,,,,
1577420310.237963,96.000000,0.000000,4368.205078,4268.205078,4048.205078,4218.974121,4309.743652,450.000000,4.000000,,,,0.000000,4.000000,4.000000,4.000000,4.000000,4.000000,,,,,,,,,,,,,,,,,,,,,,,,,,,,,,,,,,,,,,,,,,,,,,,,,,,,,,,,
1577420310.245860,97.000000,0.000000,4380.512695,4321.538574,4037.948730,4129.743652,4315.897461,450.000000,4.000000,,,,0.000000,4.000000,4.000000,4.000000,4.000000,4.000000,,,,,,,,,,,,,,,,,,,,,,,,,,,,,,,,,,,,,,,,,,,,,,,,,,,,,,,,
1577420310.253656,98.000000,0.000000,4415.897461,4322.563965,4045.128174,4123.077148,4344.615234,450.000000,4.000000,,,,0.000000,4.000000,4.000000,4.000000,4.000000,4.000000,,,,,,,,,,,,,,,,,,,,,,,,,,,,,,,,,,,,,,,,,,,,,,,,,,,,,,,,
1577420310.261453,99.000000,0.000000,4416.410156,4251.794922,4029.230713,4230.769043,4335.897461,16211.000000,4.000000,,,,0.000000,4.000000,4.000000,4.000000,4.000000,4.000000,,,,,,,,,,,,,,,,,,,,,,,,,,,,,,,,,,,,,,,,,,,,,,,,,,,,,,,,
1577420310.269350,100.000000,0.000000,4380.000000,4270.256348,4007.179443,4163.077148,4313.846191,450.000000,4.000000,,,,0.000000,4.000000,4.000000,4.000000,4.000000,4.000000,,,,,,,,,,,,,,,,,,,,,,,,,,,,,,,,48.992699,25.586018,12.865681,7.512480,17.669966,14.799530,11.226819,6.506152,4.819921,14.690198,14.121659,25.891935,9.759319,5.933814,17.213964,15.947774,16.936773,19.650532,25.862547,43.450390,51.888039,21.822618,9.235059,4.648057,10.601707
1577420310.277147,101.000000,0.000000,4381.025879,4366.666504,4027.692383,4065.641113,4336.410156,450.000000,4.000000,,,,0.000000,4.000000,4.000000,4.000000,4.000000,4.000000,,,,,,,,,,,,,,,,,,,,,,,,,,,,,,,,,,,,,,,,,,,,,,,,,,,,,,,,
1577420310.284943,102.000000,0.000000,4403.077148,4342.563965,4052.820557,4213.333496,4358.461426,450.000000,4.000000,,,,0.000000,4.000000,4.000000,4.000000,4.000000,4.000000,,,,,,,,,,,,,,,,,,,,,,,,,,,,,,,,,,,,,,,,,,,,,,,,,,,,,,,,
1577420310.292740,103.000000,0.000000,4387.179688,4255.384766,4039.487061,4296.922852,4336.410156,16211.000000,4.000000,,,,0.000000,4.000000,4.000000,4.000000,4.000000,4.000000,,,,,,,,,,,,,,,,,,,,,,,,,,,,,,,,,,,,,,,,,,,,,,,,,,,,,,,,
1577420310.300437,104.000000,0.000000,4355.897461,4275.384766,4020.512939,4149.230957,4302.563965,450.000000,4.000000,,,,0.000000,4.000000,4.000000,4.000000,4.000000,4.000000,,,,,,,,,,,,,,,,,,,,,,,,,,,,,,,,,,,,,,,,,,,,,,,,,,,,,,,,
1577420310.308334,105.000000,0.000000,4345.641113,4328.717773,4016.410156,4066.153809,4291.282227,450.000000,4.000000,,,,0.000000,4.000000,4.000000,4.000000,4.000000,4.000000,,,,,,,,,,,,,,,,,,,,,,,,,,,,,,,,,,,,,,,,,,,,,,,,,,,,,,,,
1577420310.316130,106.000000,0.000000,4337.948730,4281.025879,4010.769287,4153.333496,4281.538574,450.000000,4.000000,,,,0.000000,4.000000,4.000000,4.000000,4.000000,4.000000,,,,,,,,,,,,,,,,,,,,,,,,,,,,,,,,,,,,,,,,,,,,,,,,,,,,,,,,
1577420310.324027,107.000000,0.000000,4312.307617,4216.410156,3991.794922,4198.461426,4252.307617,16211.000000,4.000000,,,,0.000000,4.000000,4.000000,4.000000,4.000000,4.000000,,,,,,,,,,,,,,,,,,,,,,,,,,,,,,,,,,,,,,,,,,,,,,,,,,,,,,,,
1577420310.331824,108.000000,0.000000,4289.743652,4250.769043,3977.435791,4101.025879,4232.307617,450.000000,4.000000,,,,0.000000,4.000000,4.000000,4.000000,4.000000,4.000000,,,,,,,,,,,,,,,,,,,,,,,,,,,,,,,,,,,,,,,,,,,,,,,,,,,,,,,,
1577420310.339721,109.000000,0.000000,4280.512695,4293.333496,3984.102539,4030.256348,4228.205078,450.000000,4.000000,,,,0.000000,4.000000,4.000000,4.000000,4.000000,4.000000,,,,,,,,,,,,,,,,,,,,,,,,,,,,,,,,,,,,,,,,,,,,,,,,,,,,,,,,
1577420310.347517,110.000000,0.000000,4288.717773,4268.205078,4011.281982,4141.025879,4237.436035,450.000000,4.000000,,,,0.000000,4.000000,4.000000,4.000000,4.000000,4.000000,,,,,,,,,,,,,,,,,,,,,,,,,,,,,,,,,,,,,,,,,,,,,,,,,,,,,,,,
1577420310.355414,111.000000,0.000000,4293.333496,4243.077148,4024.102539,4178.974121,4247.692383,16211.000000,4.000000,,,,0.000000,4.000000,4.000000,4.000000,4.000000,4.000000,,,,,,,,,,,,,,,,,,,,,,,,,,,,,,,,,,,,,,,,,,,,,,,,,,,,,,,,
1577420310.363211,112.000000,0.000000,4264.615234,4254.871582,4011.794922,4080.000000,4232.307617,450.000000,4.000000,,,,0.000000,4.000000,4.000000,4.000000,4.000000,4.000000,,,,,,,,,,,,,,,,,,,,,,,,,,,,,,,,,,,,,,,,,,,,,,,,,,,,,,,,
1577420310.371107,113.000000,0.000000,4247.692383,4269.230957,4026.666748,4143.077148,4235.897461,450.000000,4.000000,,,,0.000000,4.000000,4.000000,4.000000,4.000000,4.000000,,,,,,,,,,,,,,,,,,,,,,,,,,,,,,,,,,,,,,,,,,,,,,,,,,,,,,,,
1577420310.378904,114.000000,0.000000,4253.333496,4261.025879,4053.333252,4230.769043,4263.077148,450.000000,4.000000,,,,0.000000,4.000000,4.000000,4.000000,4.000000,4.000000,,,,,,,,,,,,,,,,,,,,,,,,,,,,,,,,,,,,,,,,,,,,,,,,,,,,,,,,
1577420310.386801,115.000000,0.000000,4232.307617,4268.205078,4036.923096,4130.256348,4256.922852,16211.000000,4.000000,,,,0.000000,4.000000,4.000000,4.000000,4.000000,4.000000,,,,,,,,,,,,,,,,,,,,,,,,,,,,,,,,,,,,,,,,,,,,,,,,,,,,,,,,
1577420310.394598,116.000000,0.000000,4208.717773,4297.948730,4016.923096,4087.179443,4237.436035,450.000000,4.000000,,,,0.000000,4.000000,4.000000,4.000000,4.000000,4.000000,,,,,,,,,,,,,,,,,,,,,,,,,,,,,,,,43.863174,20.927319,9.728151,6.309483,11.241364,12.398771,8.178496,4.648479,4.422694,9.738107,9.522766,17.045052,6.754545,4.798945,10.288947,12.335227,13.924532,21.134911,24.235441,46.881256,48.055656,15.327992,7.250638,4.878874,7.081430
1577420310.402494,117.000000,0.000000,4206.153809,4303.077148,4026.153809,4128.717773,4235.384766,450.000000,4.000000,,,,0.000000,4.000000,4.000000,4.000000,4.000000,4.000000,,,,,,,,,,,,,,,,,,,,,,,,,,,,,,,,,,,,,,,,,,,,,,,,,,,,,,,,
1577420310.410291,118.000000,0.000000,4206.666504,4283.589844,4033.846191,4102.563965,4238.974121,450.000000,4.000000,,,,0.000000,4.000000,4.000000,4.000000,4.000000,4.000000,,,,,,,,,,,,,,,,,,,,,,,,,,,,,,,,,,,,,,,,,,,,,,,,,,,,,,,,
1577420310.418188,119.000000,0.000000,4212.820313,4266.153809,4044.615479,4146.153809,4245.128418,16211.000000,4.000000,,,,0.000000,4.000000,4.000000,4.000000,4.000000,4.000000,,,,,,,,,,,,,,,,,,,,,,,,,,,,,,,,,,,,,,,,,,,,,,,,,,,,,,,,
1577420310.425984,120.000000,0.000000,4220.512695,4287.179688,4061.025635,4223.589844,4254.871582,450.000000,4.000000,,,,0.000000,4.000000,4.000000,4.000000,4.000000,4.000000,,,,,,,,,,,,,,,,,,,,,,,,,,,,,,,,,,,,,,,,,,,,,,,,,,,,,,,,
1577420310.433881,121.000000,0.000000,4222.563965,4335.897461,4066.666748,4143.589844,4257.948730,450.000000,4.000000,,,,0.000000,4.000000,4.000000,4.000000,4.000000,4.000000,,,,,,,,,,,,,,,,,,,,,,,,,,,,,,,,,,,,,,,,,,,,,,,,,,,,,,,,
1577420310.441678,122.000000,0.000000,4222.051270,4309.230957,4064.102539,4086.666748,4249.743652,450.000000,4.000000,,,,0.000000,4.000000,4.000000,4.000000,4.000000,4.000000,,,,,,,,,,,,,,,,,,,,,,,,,,,,,,,,,,,,,,,,,,,,,,,,,,,,,,,,
1577420310.449575,123.000000,0.000000,4221.025879,4251.794922,4066.666748,4245.128418,4247.692383,16211.000000,4.000000,,,,0.000000,4.000000,4.000000,4.000000,4.000000,4.000000,,,,,,,,,,,,,,,,,,,,,,,,,,,,,,,,,,,,,,,,,,,,,,,,,,,,,,,,
1577420310.457371,124.000000,0.000000,4226.153809,4301.538574,4080.512939,4249.743652,4263.589844,450.000000,4.000000,,,,0.000000,4.000000,4.000000,4.000000,4.000000,4.000000,,,,,,,,,,,,,,,,,,,,,,,,,,,,,,,,,,,,,,,,,,,,,,,,,,,,,,,,
1577420310.465168,125.000000,0.000000,4216.922852,4340.000000,4077.948730,4041.025635,4262.563965,450.000000,4.000000,,,,0.000000,4.000000,4.000000,4.000000,4.000000,4.000000,,,,,,,,,,,,,,,,,,,,,,,,,,,,,,,,,,,,,,,,,,,,,,,,,,,,,,,,
1577420310.472965,126.000000,0.000000,4183.077148,4254.871582,4047.179443,4097.436035,4228.717773,450.000000,4.000000,,,,0.000000,4.000000,4.000000,4.000000,4.000000,4.000000,,,,,,,,,,,,,,,,,,,,,,,,,,,,,,,,,,,,,,,,,,,,,,,,,,,,,,,,
1577420310.480662,127.000000,0.000000,4163.077148,4213.846191,4037.948730,4277.436035,4210.256348,236.000000,4.000000,,,,0.000000,4.000000,4.000000,4.000000,4.000000,4.000000,,,,,,,,,,,,,,,,,,,,,,,,,,,,,,,,,,,,,,,,,,,,,,,,,,,,,,,,
1577420310.488458,0.000000,0.000000,4176.922852,4272.820313,4050.769287,4108.205078,4226.153809,450.000000,4.000000,,,,0.000000,4.000000,4.000000,4.000000,4.000000,4.000000,,,,,,,,,,,,,,,,,,,,,,,,,,,,,,,,,,,,,,,,,,,,,,,,,,,,,,,,
1577420310.496155,1.000000,0.000000,4176.410156,4307.179688,4045.128174,3949.230713,4214.871582,450.000000,4.000000,,,,0.000000,4.000000,4.000000,4.000000,4.000000,4.000000,,,,,,,,,,,,,,,,,,,,,,,,,,,,,,,,,,,,,,,,,,,,,,,,,,,,,,,,
1577420310.504052,2.000000,0.000000,4149.743652,4296.410156,4042.564209,4174.871582,4183.589844,16212.000000,4.000000,,,,0.000000,4.000000,4.000000,4.000000,4.000000,4.000000,,,,,,,,,,,,,,,,,,,,,,,,,,,,,,,,,,,,,,,,,,,,,,,,,,,,,,,,
1577420310.511849,3.000000,0.000000,4151.794922,4280.512695,4053.333252,4284.615234,4191.794922,450.000000,4.000000,,,,0.000000,4.000000,4.000000,4.000000,4.000000,4.000000,,,,,,,,,,,,,,,,,,,,,,,,,,,,,,,,,,,,,,,,,,,,,,,,,,,,,,,,
1577420310.519745,4.000000,0.000000,4180.000000,4279.487305,4050.769287,4144.102539,4217.436035,16208.000000,4.000000,,,,0.000000,4.000000,4.000000,4.000000,4.000000,4.000000,,,,,,,,,,,,,,,,,,,,,,,,,,,,,,,,40.809013,18.413502,7.065029,5.989644,6.606706,11.951097,7.390982,3.035519,4.335823,6.337480,7.008246,11.709160,4.411035,4.235845,5.261704,9.443455,12.283057,22.564930,23.669491,53.030903,44.787788,12.036642,5.356968,5.300482,4.457136
1577420310.527542,5.000000,0.000000,4183.077148,4290.769043,4044.102539,4149.230957,4218.974121,450.000000,4.000000,,,,0.000000,4.000000,4.000000,4.000000,4.000000,4.000000,,,,,,,,,,,,,,,,,,,,,,,,,,,,,,,,,,,,,,,,,,,,,,,,,,,,,,,,
1577420310.535439,6.000000,0.000000,4160.000000,4284.615234,4035.384521,4170.256348,4193.846191,16173.000000,4.000000,,,,0.000000,4.000000,4.000000,4.000000,4.000000,4.000000,,,,,,,,,,,,,,,,,,,,,,,,,,,,,,,,,,,,,,,,,,,,,,,,,,,,,,,,
1577420310.543236,7.000000,0.000000,4156.410156,4291.794922,4023.076904,4061.025635,4182.051270,450.000000,4.000000,,,,0.000000,4.000000,4.000000,4.000000,4.000000,4.000000,,,,,,,,,,,,,,,,,,,,,,,,,,,,,,,,,,,,,,,,,,,,,,,,,,,,,,,,
1577420310.551132,8.000000,0.000000,4183.589844,4314.871582,4029.230713,4063.076904,4197.948730,450.000000,4.000000,,,,0.000000,4.000000,4.000000,4.000000,4.000000,4.000000,,,,,,,,,,,,,,,,,,,,,,,,,,,,,,,,,,,,,,,,,,,,,,,,,,,,,,,,
1577420310.558929,9.000000,0.000000,4197.948730,4287.692383,4040.512939,4194.871582,4198.974121,16141.000000,4.000000,,,,0.000000,4.000000,4.000000,4.000000,4.000000,4.000000,,,,,,,,,,,,,,,,,,,,,,,,,,,,,,,,,,,,,,,,,,,,,,,,,,,,,,,,
1577420310.566826,10.000000,0.000000,4189.743652,4263.589844,4033.333252,4202.563965,4186.153809,450.000000,4.000000,,,,0.000000,4.000000,4.000000,4.000000,4.000000,4.000000,,,,,,,,,,,,,,,,,,,,,,,,,,,,,,,,,,,,,,,,,,,,,,,,,,,,,,,,
1577420310.574622,11.000000,0.000000,4189.230957,4299.487305,4025.128174,4116.922852,4186.666504,16210.000000,4.000000,,,,0.000000,4.000000,4.000000,4.000000,4.000000,4.000000,,,,,,,,,,,,,,,,,,,,,,,,,,,,,,,,,,,,,,,,,,,,,,,,,,,,,,,,
1577420310.582519,12.000000,0.000000,4196.922852,4300.512695,4030.769287,4080.000000,4191.282227,450.000000,4.000000,,,,0.000000,4.000000,4.000000,4.000000,4.000000,4.000000,,,,,,,,,,,,,,,,,,,,,,,,,,,,,,,,,,,,,,,,,,,,,,,,,,,,,,,,
1577420310.590316,13.000000,0.000000,4198.461426,4256.922852,4036.923096,4177.948730,4183.077148,450.000000,4.000000,,,,0.000000,4.000000,4.000000,4.000000,4.000000,4.000000,,,,,,,,,,,,,,,,,,,,,,,,,,,,,,,,,,,,,,,,,,,,,,,,,,,,,,,,
1577420310.598213,14.000000,0.000000,4190.256348,4263.077148,4029.743652,4264.615234,4168.205078,450.000000,4.000000,,,,0.000000,4.000000,4.000000,4.000000,4.000000,4.000000,,,,,,,,,,,,,,,,,,,,,,,,,,,,,,,,,,,,,,,,,,,,,,,,,,,,,,,,
1577420310.606109,15.000000,0.000000,4183.589844,4291.794922,4023.589844,4096.410156,4169.230957,16210.000000,4.000000,,,,0.000000,4.000000,4.000000,4.000000,4.000000,4.000000,,,,,,,,,,,,,,,,,,,,,,,,,,,,,,,,,,,,,,,,,,,,,,,,,,,,,,,,
1577420310.613906,16.000000,0.000000,4201.025879,4300.512695,4046.666748,4014.871826,4195.897461,0.000000,4.000000,,,,0.000000,4.000000,4.000000,4.000000,4.000000,4.000000,,,,,,,,,,,,,,,,,,,,,,,,,,,,,,,,,,,,,,,,,,,,,,,,,,,,,,,,
1577420310.621703,17.000000,0.000000,4221.538574,4294.358887,4066.666748,4226.666504,4205.128418,0.000000,4.000000,,,,0.000000,4.000000,4.000000,4.000000,4.000000,4.000000,,,,,,,,,,,,,,,,,,,,,,,,,,,,,,,,,,,,,,,,,,,,,,,,,,,,,,,,
1577420310.629599,18.000000,0.000000,4203.589844,4273.846191,4050.256348,4284.615234,4178.974121,0.000000,4.000000,,,,0.000000,4.000000,4.000000,4.000000,4.000000,4.000000,,,,,,,,,,,,,,,,,,,,,,,,,,,,,,,,,,,,,,,,,,,,,,,,,,,,,,,,
1577420310.637496,19.000000,0.000000,4176.922852,4281.025879,4029.743652,4104.102539,4165.128418,0.000000,4.000000,,,,0.000000,4.000000,4.000000,4.000000,4.000000,4.000000,,,,,,,,,,,,,,,,,,,,,,,,,,,,,,,,,,,,,,,,,,,,,,,,,,,,,,,,
1577420310.645293,20.000000,0.000000,4171.282227,4297.436035,4018.461426,4032.307617,4165.641113,0.000000,4.000000,,,,0.000000,4.000000,4.000000,4.000000,4.000000,4.000000,,,,,,,,,,,,,,,,,,,,,,,,,,,,,,,,42.095772,17.727388,5.302691,6.530485,4.184547,14.228549,9.195532,2.011638,4.531357,4.839458,8.156978,10.925741,3.210369,4.276044,2.533552,7.957953,12.444327,23.327475,23.756540,61.185005,43.274700,12.324710,3.892979,5.865396,2.997645
1577420310.653189,21.000000,0.000000,4171.794922,4270.769043,4010.769287,4150.256348,4152.307617,0.000000,4.000000,,,,0.000000,4.000000,4.000000,4.000000,4.000000,4.000000,,,,,,,,,,,,,,,,,,,,,,,,,,,,,,,,,,,,,,,,,,,,,,,,,,,,,,,,
1577420310.660986,22.000000,0.000000,4169.230957,4233.333496,4011.794922,4233.333496,4139.487305,0.000000,4.000000,,,,0.000000,4.000000,4.000000,4.000000,4.000000,4.000000,,,,,,,,,,,,,,,,,,,,,,,,,,,,,,,,,,,,,,,,,,,,,,,,,,,,,,,,
1577420310.668883,23.000000,0.000000,4170.256348,4234.358887,4013.333252,4138.461426,4139.487305,0.000000,4.000000,,,,0.000000,4.000000,4.000000,4.000000,4.000000,4.000000,,,,,,,,,,,,,,,,,,,,,,,,,,,,,,,,,,,,,,,,,,,,,,,,,,,,,,,,
1577420310.676680,24.000000,0.000000,4179.487305,4253.333496,4010.769287,4007.179443,4134.871582,0.000000,4.000000,,,,0.000000,4.000000,4.000000,4.000000,4.000000,4.000000,,,,,,,,,,,,,,,,,,,,,,,,,,,,,,,,,,,,,,,,,,,,,,,,,,,,,,,,
1577420310.684576,25.000000,0.000000,4186.666504,4262.051270,4001.538574,4100.000000,4121.538574,0.000000,4.000000,,,,0.000000,4.000000,4.000000,4.000000,4.000000,4.000000,,,,,,,,,,,,,,,,,,,,,,,,,,,,,,,,,,,,,,,,,,,,,,,,,,,,,,,,
1577420310.692373,26.000000,0.000000,4181.025879,4254.871582,3994.871826,4214.358887,4103.589844,0.000000,4.000000,,,,0.000000,4.000000,4.000000,4.000000,4.000000,4.000000,,,,,,,,,,,,,,,,,,,,,,,,,,,,,,,,,,,,,,,,,,,,,,,,,,,,,,,,
1577420310.700270,27.000000,0.000000,4183.077148,4245.641113,4003.076904,4113.333496,4096.410156,0.000000,4.000000,,,,0.000000,4.000000,4.000000,4.000000,4.000000,4.000000,,,,,,,,,,,,,,,,,,,,,,,,,,,,,,,,,,,,,,,,,,,,,,,,,,,,,,,,
1577420310.708067,28.000000,0.000000,4209.743652,4260.000000,4012.820557,4056.410156,4113.333496,0.000000,4.000000,,,,0.000000,4.000000,4.000000,4.000000,4.000000,4.000000,,,,,,,,,,,,,,,,,,,,,,,,,,,,,,,,,,,,,,,,,,,,,,,,,,,,,,,,
1577420310.715963,29.000000,0.000000,4225.128418,4281.025879,4007.692383,4101.538574,4125.641113,0.000000,4.000000,,,,0.000000,4.000000,4.000000,4.000000,4.000000,4.000000,,,,,,,,,,,,,,,,,,,,,,,,,,,,,,,,,,,,,,,,,,,,,,,,,,,,,,,,
1577420310.723760,30.000000,0.000000,4208.205078,4271.794922,3995.384521,4096.410156,4109.230957,0.000000,4.000000,,,,0.000000,4.000000,4.000000,4.000000,4.000000,4.000000,,,,,,,,,,,,,,,,,,,,,,,,,,,,,,,,,,,,,,,,,,,,,,,,,,,,,,,,
1577420310.731657,31.000000,0.000000,4199.487305,4252.820313,3995.384521,4098.974121,4103.589844,0.000000,4.000000,,,,0.000000,4.000000,4.000000,4.000000,4.000000,4.000000,,,,,,,,,,,,,,,,,,,,,,,,,,,,,,,,,,,,,,,,,,,,,,,,,,,,,,,,
1577420310.739453,32.000000,0.000000,4203.077148,4257.948730,3998.461426,4159.487305,4112.820313,0.000000,4.000000,,,,0.000000,4.000000,4.000000,4.000000,4.000000,4.000000,,,,,,,,,,,,,,,,,,,,,,,,,,,,,,,,,,,,,,,,,,,,,,,,,,,,,,,,
1577420310.747250,33.000000,0.000000,4186.666504,4282.051270,3986.153809,4112.307617,4102.051270,0.000000,4.000000,,,,0.000000,4.000000,4.000000,4.000000,4.000000,4.000000,,,,,,,,,,,,,,,,,,,,,,,,,,,,,,,,,,,,,,,,,,,,,,,,,,,,,,,,
1577420310.754947,34.000000,0.000000,4178.461426,4291.282227,3986.666748,4045.641113,4094.871826,0.000000,4.000000,,,,0.000000,4.000000,4.000000,4.000000,4.000000,4.000000,,,,,,,,,,,,,,,,,,,,,,,,,,,,,,,,,,,,,,,,,,,,,,,,,,,,,,,,
1577420310.762843,35.000000,0.000000,4188.205078,4280.512695,3996.923096,4146.153809,4104.615234,0.000000,4.000000,,,,0.000000,4.000000,4.000000,4.000000,4.000000,4.000000,,,,,,,,,,,,,,,,,,,,,,,,,,,,,,,,,,,,,,,,,,,,,,,,,,,,,,,,
1577420310.770640,36.000000,0.000000,4178.974121,4272.820313,3985.641113,4206.153809,4096.410156,0.000000,4.000000,,,,0.000000,4.000000,4.000000,4.000000,4.000000,4.000000,,,,,,,,,,,,,,,,,,,,,,,,,,,,,,,,48.047150,17.742165,4.433898,7.470677,3.507987,18.744799,12.723307,1.610757,4.826009,4.955454,13.086530,13.546941,3.138123,4.647129,1.624363,7.791372,13.836122,23.160038,23.816376,69.729889,44.222332,14.925527,2.963650,6.398788,2.510307
1577420310.778537,37.000000,0.000000,4168.717773,4280.512695,3978.461426,4072.820557,4088.205078,0.000000,4.000000,,,,0.000000,4.000000,4.000000,4.000000,4.000000,4.000000,,,,,,,,,,,,,,,,,,,,,,,,,,,,,,,,,,,,,,,,,,,,,,,,,,,,,,,,
1577420310.786334,38.000000,0.000000,4193.846191,4308.205078,3997.948730,4059.487061,4120.512695,0.000000,4.000000,,,,0.000000,4.000000,4.000000,4.000000,4.000000,4.000000,,,,,,,,,,,,,,,,,,,,,,,,,,,,,,,,,,,,,,,,,,,,,,,,,,,,,,,,
1577420310.794230,39.000000,0.000000,4232.307617,4341.025879,4014.871826,4229.230957,4155.897461,0.000000,4.000000,,,,0.000000,4.000000,4.000000,4.000000,4.000000,4.000000,,,,,,,,,,,,,,,,,,,,,,,,,,,,,,,,,,,,,,,,,,,,,,,,,,,,,,,,
1577420310.802127,40.000000,0.000000,4240.000000,4328.717773,4005.641113,4235.897461,4144.615234,0.000000,4.000000,,,,0.000000,4.000000,4.000000,4.000000,4.000000,4.000000,,,,,,,,,,,,,,,,,,,,,,,,,,,,,,,,,,,,,,,,,,,,,,,,,,,,,,,,
1577420310.809924,41.000000,0.000000,4217.948730,4300.000000,3980.000000,4134.358887,4115.897461,0.000000,4.000000,,,,0.000000,4.000000,4.000000,4.000000,4.000000,4.000000,,,,,,,,,,,,,,,,,,,,,,,,,,,,,,,,,,,,,,,,,,,,,,,,,,,,,,,,
1577420310.817720,42.000000,0.000000,4214.871582,4327.179688,3975.897461,4086.153809,4115.384766,0.000000,4.000000,,,,0.000000,4.000000,4.000000,4.000000,4.000000,4.000000,,,,,,,,,,,,,,,,,,,,,,,,,,,,,,,,,,,,,,,,,,,,,,,,,,,,,,,,
1577420310.825417,43.000000,0.000000,4236.410156,4362.051270,3993.333252,4072.307617,4130.256348,0.000000,4.000000,,,,0.000000,4.000000,4.000000,4.000000,4.000000,4.000000,,,,,,,,,,,,,,,,,,,,,,,,,,,,,,,,,,,,,,,,,,,,,,,,,,,,,,,,
1577420310.833214,44.000000,0.000000,4246.666504,4362.051270,4000.512939,4145.641113,4135.384766,0.000000,4.000000,,,,0.000000,4.000000,4.000000,4.000000,4.000000,4.000000,,,,,,,,,,,,,,,,,,,,,,,,,,,,,,,,,,,,,,,,,,,,,,,,,,,,,,,,
1577420310.840911,45.000000,0.000000,4255.897461,4349.230957,4003.076904,4245.128418,4140.000000,0.000000,4.000000,,,,0.000000,4.000000,4.000000,4.000000,4.000000,4.000000,,,,,,,,,,,,,,,,,,,,,,,,,,,,,,,,,,,,,,,,,,,,,,,,,,,,,,,,
1577420310.848708,46.000000,0.000000,4278.461426,4348.205078,4013.846191,4169.743652,4151.794922,0.000000,4.000000,,,,0.000000,4.000000,4.000000,4.000000,4.000000,4.000000,,,,,,,,,,,,,,,,,,,,,,,,,,,,,,,,,,,,,,,,,,,,,,,,,,,,,,,,
1577420310.856405,47.000000,0.000000,4298.461426,4380.512695,4028.205078,4046.153809,4163.589844,0.000000,4.000000,,,,0.000000,4.000000,4.000000,4.000000,4.000000,4.000000,,,,,,,,,,,,,,,,,,,,,,,,,,,,,,,,,,,,,,,,,,,,,,,,,,,,,,,,
1577420310.864201,48.000000,0.000000,4317.436035,4405.641113,4039.487061,4106.666504,4170.256348,0.000000,4.000000,,,,0.000000,4.000000,4.000000,4.000000,4.000000,4.000000,,,,,,,,,,,,,,,,,,,,,,,,,,,,,,,,,,,,,,,,,,,,,,,,,,,,,,,,
1577420310.871898,49.000000,0.000000,4330.769043,4383.589844,4044.615479,4181.538574,4173.333496,0.000000,4.000000,,,,0.000000,4.000000,4.000000,4.000000,4.000000,4.000000,,,,,,,,,,,,,,,,,,,,,,,,,,,,,,,,,,,,,,,,,,,,,,,,,,,,,,,,
1577420310.879695,50.000000,0.000000,4331.282227,4383.589844,4047.179443,4167.179688,4167.179688,0.000000,4.000000,,,,0.000000,4.000000,4.000000,4.000000,4.000000,4.000000,,,,,,,,,,,,,,,,,,,,,,,,,,,,,,,,,,,,,,,,,,,,,,,,,,,,,,,,
1577420310.887392,51.000000,0.000000,4337.436035,4401.025879,4049.230713,4144.102539,4162.563965,0.000000,4.000000,,,,0.000000,4.000000,4.000000,4.000000,4.000000,4.000000,,,,,,,,,,,,,,,,,,,,,,,,,,,,,,,,,,,,,,,,,,,,,,,,,,,,,,,,
1577420310.895289,52.000000,0.000000,4335.897461,4364.615234,4041.025635,4139.487305,4161.538574,0.000000,4.000000,,,,0.000000,4.000000,4.000000,4.000000,4.000000,4.000000,,,,,,,,,,,,,,,,,,,,,,,,,,,,,,,,56.621201,17.287088,4.087982,8.174536,3.581943,23.654284,16.312464,1.595555,4.989961,5.950141,20.141193,17.107241,3.771153,4.950388,1.545269,8.350485,15.323098,22.243362,23.216434,76.937637,46.729977,17.845091,2.414033,6.648583,2.494232
1577420310.903085,53.000000,0.000000,4327.179688,4364.102539,4033.846191,4110.256348,4159.487305,0.000000,4.000000,,,,0.000000,4.000000,4.000000,4.000000,4.000000,4.000000,,,,,,,,,,,,,,,,,,,,,,,,,,,,,,,,,,,,,,,,,,,,,,,,,,,,,,,,
1577420310.910982,54.000000,0.000000,4352.820313,4404.102539,4050.769287,4162.051270,4182.051270,0.000000,4.000000,,,,0.000000,4.000000,4.000000,4.000000,4.000000,4.000000,,,,,,,,,,,,,,,,,,,,,,,,,,,,,,,,,,,,,,,,,,,,,,,,,,,,,,,,
1577420310.918779,55.000000,0.000000,4387.179688,4374.358887,4065.641113,4274.871582,4211.282227,0.000000,4.000000,,,,0.000000,4.000000,4.000000,4.000000,4.000000,4.000000,,,,,,,,,,,,,,,,,,,,,,,,,,,,,,,,,,,,,,,,,,,,,,,,,,,,,,,,
1577420310.926675,56.000000,0.000000,4377.948730,4360.512695,4045.641113,4138.461426,4204.615234,0.000000,4.000000,,,,0.000000,4.000000,4.000000,4.000000,4.000000,4.000000,,,,,,,,,,,,,,,,,,,,,,,,,,,,,,,,,,,,,,,,,,,,,,,,,,,,,,,,
1577420310.934472,57.000000,0.000000,4376.410156,4405.641113,4034.358887,3997.948730,4200.000000,0.000000,4.000000,,,,0.000000,4.000000,4.000000,4.000000,4.000000,4.000000,,,,,,,,,,,,,,,,,,,,,,,,,,,,,,,,,,,,,,,,,,,,,,,,,,,,,,,,
1577420310.942369,58.000000,0.000000,4412.307617,4381.538574,4049.230713,4158.461426,4226.153809,0.000000,4.000000,,,,0.000000,4.000000,4.000000,4.000000,4.000000,4.000000,,,,,,,,,,,,,,,,,,,,,,,,,,,,,,,,,,,,,,,,,,,,,,,,,,,,,,,,
1577420310.950166,59.000000,0.000000,4413.333496,4338.974121,4046.153809,4268.205078,4239.487305,0.000000,4.000000,,,,0.000000,4.000000,4.000000,4.000000,4.000000,4.000000,,,,,,,,,,,,,,,,,,,,,,,,,,,,,,,,,,,,,,,,,,,,,,,,,,,,,,,,
1577420310.958062,60.000000,0.000000,4386.666504,4372.820313,4029.743652,4115.384766,4249.230957,0.000000,4.000000,,,,0.000000,4.000000,4.000000,4.000000,4.000000,4.000000,,,,,,,,,,,,,,,,,,,,,,,,,,,,,,,,,,,,,,,,,,,,,,,,,,,,,,,,
1577420310.965859,61.000000,0.000000,4395.384766,4388.717773,4031.794922,4050.256348,4297.948730,0.000000,4.000000,,,,0.000000,4.000000,4.000000,4.000000,4.000000,4.000000,,,,,,,,,,,,,,,,,,,,,,,,,,,,,,,,,,,,,,,,,,,,,,,,,,,,,,,,
1577420310.973756,62.000000,0.000000,4428.717773,4353.333496,4037.948730,4194.871582,4357.948730,0.000000,4.000000,,,,0.000000,4.000000,4.000000,4.000000,4.000000,4.000000,,,,,,,,,,,,,,,,,,,,,,,,,,,,,,,,,,,,,,,,,,,,,,,,,,,,,,,,
1577420310.981552,63.000000,0.000000,4445.128418,4347.179688,4031.794922,4224.102539,4382.051270,0.000000,4.000000,,,,0.000000,4.000000,4.000000,4.000000,4.000000,4.000000,,,,,,,,,,,,,,,,,,,,,,,,,,,,,,,,,,,,,,,,,,,,,,,,,,,,,,,,
1577420310.989449,64.000000,0.000000,4448.205078,4373.846191,4030.256348,4077.948730,4396.922852,450.000000,4.000000,,,,0.000000,4.000000,4.000000,4.000000,4.000000,4.000000,,,,,,,,,,,,,,,,,,,,,,,,,,,,,,,,,,,,,,,,,,,,,,,,,,,,,,,,
1577420310.997246,65.000000,0.000000,4450.256348,4371.794922,4037.435791,4029.743652,4423.077148,450.000000,4.000000,,,,0.000000,4.000000,4.000000,4.000000,4.000000,4.000000,,,,,,,,,,,,,,,,,,,,,,,,,,,,,,,,,,,,,,,,,,,,,,,,,,,,,,,,
1577420311.005142,66.000000,0.000000,4432.307617,4343.077148,4030.769287,4115.384766,4416.922852,16222.000000,4.000000,,,,0.000000,4.000000,4.000000,4.000000,4.000000,4.000000,,,,,,,,,,,,,,,,,,,,,,,,,,,,,,,,,,,,,,,,,,,,,,,,,,,,,,,,
1577420311.012939,67.000000,0.000000,4393.846191,4325.641113,4018.461426,4118.461426,4389.230957,450.000000,4.000000,,,,0.000000,4.000000,4.000000,4.000000,4.000000,4.000000,,,,,,,,,,,,,,,,,,,,,,,,,,,,,,,,,,,,,,,,,,,,,,,,,,,,,,,,
1577420311.020636,68.000000,0.000000,4347.692383,4318.461426,4015.384521,4054.871826,4366.666504,16209.000000,4.000000,,,,0.000000,4.000000,4.000000,4.000000,4.000000,4.000000,,,,,,,,,,,,,,,,,,,,,,,,,,,,,,,,63.695808,15.850698,3.806549,8.199627,3.645322,26.984308,18.437353,1.681542,4.876889,7.143829,26.836321,19.287861,4.552694,4.913312,1.574544,9.017095,15.829851,20.908169,21.785360,81.829514,48.808815,19.424181,2.028997,6.438389,2.538572
1577420311.028433,69.000000,0.000000,4301.538574,4320.000000,4012.820557,4021.025635,4341.025879,450.000000,4.000000,,,,0.000000,4.000000,4.000000,4.000000,4.000000,4.000000,,,,,,,,,,,,,,,,,,,,,,,,,,,,,,,,,,,,,,,,,,,,,,,,,,,,,,,,
1577420311.036130,70.000000,0.000000,4271.282227,4340.000000,4015.384521,3967.179443,4328.717773,16172.000000,4.000000,,,,0.000000,4.000000,4.000000,4.000000,4.000000,4.000000,,,,,,,,,,,,,,,,,,,,,,,,,,,,,,,,,,,,,,,,,,,,,,,,,,,,,,,,
1577420311.043927,71.000000,0.000000,4257.436035,4346.666504,4033.333252,4019.487061,4329.743652,450.000000,4.000000,,,,0.000000,4.000000,4.000000,4.000000,4.000000,4.000000,,,,,,,,,,,,,,,,,,,,,,,,,,,,,,,,,,,,,,,,,,,,,,,,,,,,,,,,
1577420311.051623,72.000000,0.000000,4222.051270,4324.102539,4036.923096,4170.769043,4305.641113,450.000000,4.000000,,,,0.000000,4.000000,4.000000,4.000000,4.000000,4.000000,,,,,,,,,,,,,,,,,,,,,,,,,,,,,,,,,,,,,,,,,,,,,,,,,,,,,,,,
1577420311.059520,73.000000,0.000000,4174.358887,4328.205078,4023.076904,4147.179688,4266.666504,16112.000000,4.000000,,,,0.000000,4.000000,4.000000,4.000000,4.000000,4.000000,,,,,,,,,,,,,,,,,,,,,,,,,,,,,,,,,,,,,,,,,,,,,,,,,,,,,,,,
1577420311.067317,74.000000,0.000000,4158.974121,4329.230957,4020.000000,3957.948730,4245.641113,450.000000,4.000000,,,,0.000000,4.000000,4.000000,4.000000,4.000000,4.000000,,,,,,,,,,,,,,,,,,,,,,,,,,,,,,,,,,,,,,,,,,,,,,,,,,,,,,,,
1577420311.075213,75.000000,0.000000,4159.487305,4315.897461,4020.512939,3908.718018,4228.205078,16216.000000,4.000000,,,,0.000000,4.000000,4.000000,4.000000,4.000000,4.000000,,,,,,,,,,,,,,,,,,,,,,,,,,,,,,,,,,,,,,,,,,,,,,,,,,,,,,,,
1577420311.083010,76.000000,0.000000,4169.743652,4338.974121,4035.384521,4096.922852,4221.025879,450.000000,4.000000,,,,0.000000,4.000000,4.000000,4.000000,4.000000,4.000000,,,,,,,,,,,,,,,,,,,,,,,,,,,,,,,,,,,,,,,,,,,,,,,,,,,,,,,,
1577420311.090907,77.000000,0.000000,4180.000000,4350.256348,4048.718018,4168.717773,4224.615234,450.000000,4.000000,,,,0.000000,4.000000,4.000000,4.000000,4.000000,4.000000,,,,,,,,,,,,,,,,,,,,,,,,,,,,,,,,,,,,,,,,,,,,,,,,,,,,,,,,
1577420311.098704,78.000000,0.000000,4172.307617,4328.717773,4034.871826,3986.153809,4210.256348,450.000000,4.000000,,,,0.000000,4.000000,4.000000,4.000000,4.000000,4.000000,,,,,,,,,,,,,,,,,,,,,,,,,,,,,,,,,,,,,,,,,,,,,,,,,,,,,,,,
1577420311.106600,79.000000,0.000000,4175.384766,4322.563965,4033.846191,3992.820557,4192.307617,16216.000000,4.000000,,,,0.000000,4.000000,4.000000,4.000000,4.000000,4.000000,,,,,,,,,,,,,,,,,,,,,,,,,,,,,,,,,,,,,,,,,,,,,,,,,,,,,,,,
1577420311.114397,80.000000,0.000000,4175.897461,4335.384766,4039.487061,4145.128418,4185.641113,450.000000,4.000000,,,,0.000000,4.000000,4.000000,4.000000,4.000000,4.000000,,,,,,,,,,,,,,,,,,,,,,,,,,,,,,,,,,,,,,,,,,,,,,,,,,,,,,,,
1577420311.122294,81.000000,0.000000,4152.820313,4336.922852,4022.051270,4026.666748,4173.333496,450.000000,4.000000,,,,0.000000,4.000000,4.000000,4.000000,4.000000,4.000000,,,,,,,,,,,,,,,,,,,,,,,,,,,,,,,,,,,,,,,,,,,,,,,,,,,,,,,,
1577420311.130091,82.000000,0.000000,4163.077148,4324.615234,4028.718018,3929.743652,4180.512695,450.000000,4.000000,,,,0.000000,4.000000,4.000000,4.000000,4.000000,4.000000,,,,,,,,,,,,,,,,,,,,,,,,,,,,,,,,,,,,,,,,,,,,,,,,,,,,,,,,
1577420311.137987,83.000000,0.000000,4211.282227,4328.205078,4068.718018,4156.922852,4210.256348,16216.000000,4.000000,,,,0.000000,4.000000,4.000000,4.000000,4.000000,4.000000,,,,,,,,,,,,,,,,,,,,,,,,,,,,,,,,,,,,,,,,,,,,,,,,,,,,,,,,
1577420311.145784,84.000000,0.000000,4220.512695,4351.794922,4074.358887,4222.051270,4205.641113,450.000000,4.000000,,,,0.000000,4.000000,4.000000,4.000000,4.000000,4.000000,,,,,,,,,,,,,,,,,,,,,,,,,,,,,,,,66.533623,13.862363,3.463108,7.442644,3.483776,27.473194,18.466894,1.737116,4.470179,8.133656,31.292131,19.258757,5.181210,4.479805,1.532984,9.560875,15.002290,19.486231,19.841930,84.372269,49.495335,19.084702,1.787683,5.758148,2.500197
1577420311.153681,85.000000,0.000000,4209.230957,4362.051270,4049.230713,3992.820557,4188.205078,450.000000,4.000000,,,,0.000000,4.000000,4.000000,4.000000,4.000000,4.000000,,,,,,,,,,,,,,,,,,,,,,,,,,,,,,,,,,,,,,,,,,,,,,,,,,,,,,,,
1577420311.161477,86.000000,0.000000,4230.769043,4366.153809,4060.512939,3960.512939,4203.077148,450.000000,4.000000,,,,0.000000,4.000000,4.000000,4.000000,4.000000,4.000000,,,,,,,,,,,,,,,,,,,,,,,,,,,,,,,,,,,,,,,,,,,,,,,,,,,,,,,,
1577420311.169374,87.000000,0.000000,4248.717773,4363.589844,4083.589844,4137.948730,4211.794922,16216.000000,4.000000,,,,0.000000,4.000000,4.000000,4.000000,4.000000,4.000000,,,,,,,,,,,,,,,,,,,,,,,,,,,,,,,,,,,,,,,,,,,,,,,,,,,,,,,,
1577420311.177271,88.000000,0.000000,4243.077148,4343.077148,4085.128174,4208.205078,4201.025879,450.000000,4.000000,,,,0.000000,4.000000,4.000000,4.000000,4.000000,4.000000,,,,,,,,,,,,,,,,,,,,,,,,,,,,,,,,,,,,,,,,,,,,,,,,,,,,,,,,
1577420311.185067,89.000000,0.000000,4234.871582,4354.358887,4086.153809,4075.384521,4190.769043,450.000000,4.000000,,,,0.000000,4.000000,4.000000,4.000000,4.000000,4.000000,,,,,,,,,,,,,,,,,,,,,,,,,,,,,,,,,,,,,,,,,,,,,,,,,,,,,,,,
1577420311.192864,90.000000,0.000000,4220.512695,4361.538574,4081.025635,3944.102539,4184.102539,450.000000,4.000000,,,,0.000000,4.000000,4.000000,4.000000,4.000000,4.000000,,,,,,,,,,,,,,,,,,,,,,,,,,,,,,,,,,,,,,,,,,,,,,,,,,,,,,,,
1577420311.200561,91.000000,0.000000,4205.128418,4326.666504,4064.615479,4052.820557,4177.436035,16216.000000,4.000000,,,,0.000000,4.000000,4.000000,4.000000,4.000000,4.000000,,,,,,,,,,,,,,,,,,,,,,,,,,,,,,,,,,,,,,,,,,,,,,,,,,,,,,,,
1577420311.208458,92.000000,0.000000,4204.102539,4338.461426,4060.512939,4194.871582,4175.384766,450.000000,4.000000,,,,0.000000,4.000000,4.000000,4.000000,4.000000,4.000000,,,,,,,,,,,,,,,,,,,,,,,,,,,,,,,,,,,,,,,,,,,,,,,,,,,,,,,,
1577420311.216255,93.000000,0.000000,4220.000000,4361.025879,4073.846191,4033.333252,4186.666504,450.000000,4.000000,,,,0.000000,4.000000,4.000000,4.000000,4.000000,4.000000,,,,,,,,,,,,,,,,,,,,,,,,,,,,,,,,,,,,,,,,,,,,,,,,,,,,,,,,
1577420311.224151,94.000000,0.000000,4232.820313,4327.179688,4072.820557,3907.692383,4186.666504,450.000000,4.000000,,,,0.000000,4.000000,4.000000,4.000000,4.000000,4.000000,,,,,,,,,,,,,,,,,,,,,,,,,,,,,,,,,,,,,,,,,,,,,,,,,,,,,,,,
1577420311.231948,95.000000,0.000000,4229.230957,4310.256348,4048.205078,4125.641113,4167.179688,16216.000000,4.000000,,,,0.000000,4.000000,4.000000,4.000000,4.000000,4.000000,,,,,,,,,,,,,,,,,,,,,,,,,,,,,,,,,,,,,,,,,,,,,,,,,,,,,,,,
1577420311.239845,96.000000,0.000000,4235.384766,4327.179688,4036.410156,4273.846191,4163.589844,450.000000,4.000000,,,,0.000000,4.000000,4.000000,4.000000,4.000000,4.000000,,,,,,,,,,,,,,,,,,,,,,,,,,,,,,,,,,,,,,,,,,,,,,,,,,,,,,,,
1577420311.247641,97.000000,0.000000,4258.461426,4324.102539,4043.589844,4068.205078,4181.538574,450.000000,4.000000,,,,0.000000,4.000000,4.000000,4.000000,4.000000,4.000000,,,,,,,,,,,,,,,,,,,,,,,,,,,,,,,,,,,,,,,,,,,,,,,,,,,,,,,,
1577420311.255538,98.000000,0.000000,4279.487305,4321.538574,4048.205078,3890.256348,4197.436035,450.000000,4.000000,,,,0.000000,4.000000,4.000000,4.000000,4.000000,4.000000,,,,,,,,,,,,,,,,,,,,,,,,,,,,,,,,,,,,,,,,,,,,,,,,,,,,,,,,
1577420311.263335,99.000000,0.000000,4289.743652,4343.589844,4043.076904,4056.410156,4204.102539,16216.000000,4.000000,,,,0.000000,4.000000,4.000000,4.000000,4.000000,4.000000,,,,,,,,,,,,,,,,,,,,,,,,,,,,,,,,,,,,,,,,,,,,,,,,,,,,,,,,
1577420311.271231,100.000000,0.000000,4292.820313,4348.717773,4031.794922,4212.307617,4208.205078,450.000000,4.000000,,,,0.000000,4.000000,4.000000,4.000000,4.000000,4.000000,,,,,,,,,,,,,,,,,,,,,,,,,,,,,,,,64.790878,11.631100,3.135241,6.100587,3.100916,24.903093,16.415800,1.713609,3.849579,8.619392,32.209316,17.007137,5.419830,3.744367,1.405341,9.972960,12.960198,17.971687,17.919561,85.151093,48.926239,16.921864,1.727119,4.759202,2.341640
1577420311.279028,101.000000,0.000000,4291.794922,4321.025879,4023.589844,4145.128418,4207.179688,450.000000,4.000000,,,,0.000000,4.000000,4.000000,4.000000,4.000000,4.000000,,,,,,,,,,,,,,,,,,,,,,,,,,,,,,,,,,,,,,,,,,,,,,,,,,,,,,,,
1577420311.286925,102.000000,0.000000,4285.641113,4296.410156,4025.641113,4060.000000,4203.077148,450.000000,4.000000,,,,0.000000,4.000000,4.000000,4.000000,4.000000,4.000000,,,,,,,,,,,,,,,,,,,,,,,,,,,,,,,,,,,,,,,,,,,,,,,,,,,,,,,,
1577420311.294722,103.000000,0.000000,4281.025879,4313.333496,4028.205078,4039.487061,4203.077148,16216.000000,4.000000,,,,0.000000,4.000000,4.000000,4.000000,4.000000,4.000000,,,,,,,,,,,,,,,,,,,,,,,,,,,,,,,,,,,,,,,,,,,,,,,,,,,,,,,,
1577420311.302518,104.000000,0.000000,4280.000000,4349.230957,4023.589844,4036.923096,4207.179688,450.000000,4.000000,,,,0.000000,4.000000,4.000000,4.000000,4.000000,4.000000,,,,,,,,,,,,,,,,,,,,,,,,,,,,,,,,,,,,,,,,,,,,,,,,,,,,,,,,
1577420311.310215,105.000000,0.000000,4279.487305,4324.615234,4024.102539,4116.922852,4215.897461,450.000000,4.000000,,,,0.000000,4.000000,4.000000,4.000000,4.000000,4.000000,,,,,,,,,,,,,,,,,,,,,,,,,,,,,,,,,,,,,,,,,,,,,,,,,,,,,,,,
1577420311.318012,106.000000,0.000000,4275.897461,4283.589844,4026.153809,4202.051270,4217.436035,450.000000,4.000000,,,,0.000000,4.000000,4.000000,4.000000,4.000000,4.000000,,,,,,,,,,,,,,,,,,,,,,,,,,,,,,,,,,,,,,,,,,,,,,,,,,,,,,,,
1577420311.325709,107.000000,0.000000,4266.153809,4301.025879,4017.948730,4068.205078,4205.641113,16216.000000,4.000000,,,,0.000000,4.000000,4.000000,4.000000,4.000000,4.000000,,,,,,,,,,,,,,,,,,,,,,,,,,,,,,,,,,,,,,,,,,,,,,,,,,,,,,,,
1577420311.333606,108.000000,0.000000,4260.000000,4320.000000,4007.179443,3978.974365,4193.846191,450.000000,4.000000,,,,0.000000,4.000000,4.000000,4.000000,4.000000,4.000000,,,,,,,,,,,,,,,,,,,,,,,,,,,,,,,,,,,,,,,,,,,,,,,,,,,,,,,,
1577420311.341402,109.000000,0.000000,4260.000000,4291.794922,4003.589844,4094.871826,4182.051270,450.000000,4.000000,,,,0.000000,4.000000,4.000000,4.000000,4.000000,4.000000,,,,,,,,,,,,,,,,,,,,,,,,,,,,,,,,,,,,,,,,,,,,,,,,,,,,,,,,
1577420311.349299,110.000000,0.000000,4252.820313,4271.282227,4009.743652,4154.871582,4165.128418,450.000000,4.000000,,,,0.000000,4.000000,4.000000,4.000000,4.000000,4.000000,,,,,,,,,,,,,,,,,,,,,,,,,,,,,,,,,,,,,,,,,,,,,,,,,,,,,,,,
1577420311.357096,111.000000,0.000000,4242.051270,4288.205078,4010.256348,4066.666748,4151.794922,16216.000000,4.000000,,,,0.000000,4.000000,4.000000,4.000000,4.000000,4.000000,,,,,,,,,,,,,,,,,,,,,,,,,,,,,,,,,,,,,,,,,,,,,,,,,,,,,,,,
1577420311.364893,112.000000,0.000000,4234.358887,4304.615234,3998.461426,4009.230713,4141.025879,450.000000,4.000000,,,,0.000000,4.000000,4.000000,4.000000,4.000000,4.000000,,,,,,,,,,,,,,,,,,,,,,,,,,,,,,,,,,,,,,,,,,,,,,,,,,,,,,,,
1577420311.372689,113.000000,0.000000,4233.846191,4294.871582,4000.512939,4058.461426,4140.512695,450.000000,4.000000,,,,0.000000,4.000000,4.000000,4.000000,4.000000,4.000000,,,,,,,,,,,,,,,,,,,,,,,,,,,,,,,,,,,,,,,,,,,,,,,,,,,,,,,,
1577420311.380386,114.000000,0.000000,4255.897461,4271.794922,4030.769287,4099.487305,4163.589844,450.000000,4.000000,,,,0.000000,4.000000,4.000000,4.000000,4.000000,4.000000,,,,,,,,,,,,,,,,,,,,,,,,,,,,,,,,,,,,,,,,,,,,,,,,,,,,,,,,
1577420311.388183,115.000000,0.000000,4274.358887,4263.589844,4048.718018,4115.897461,4176.922852,16216.000000,4.000000,,,,0.000000,4.000000,4.000000,4.000000,4.000000,4.000000,,,,,,,,,,,,,,,,,,,,,,,,,,,,,,,,,,,,,,,,,,,,,,,,,,,,,,,,
1577420311.395880,116.000000,0.000000,4265.128418,4284.102539,4040.512939,4123.077148,4162.563965,450.000000,4.000000,,,,0.000000,4.000000,4.000000,4.000000,4.000000,4.000000,,,,,,,,,,,,,,,,,,,,,,,,,,,,,,,,59.897926,9.491444,2.986147,4.561466,2.585754,19.877361,12.931845,1.586554,3.156907,8.435050,29.518106,13.197492,5.143443,2.894228,1.218048,10.303856,10.210166,16.139288,16.707222,85.225197,48.578953,13.685074,1.865800,3.696481,2.074333
1577420311.403677,117.000000,0.000000,4251.282227,4288.205078,4038.461426,4135.384766,4147.179688,450.000000,4.000000,,,,0.000000,4.000000,4.000000,4.000000,4.000000,4.000000,,,,,,,,,,,,,,,,,,,,,,,,,,,,,,,,,,,,,,,,,,,,,,,,,,,,,,,,
1577420311.411373,118.000000,0.000000,4241.025879,4258.974121,4032.307617,4125.128418,4134.871582,450.000000,4.000000,,,,0.000000,4.000000,4.000000,4.000000,4.000000,4.000000,,,,,,,,,,,,,,,,,,,,,,,,,,,,,,,,,,,,,,,,,,,,,,,,,,,,,,,,
1577420311.419170,119.000000,0.000000,4236.410156,4262.563965,4025.641113,4000.512939,4132.307617,16216.000000,4.000000,,,,0.000000,4.000000,4.000000,4.000000,4.000000,4.000000,,,,,,,,,,,,,,,,,,,,,,,,,,,,,,,,,,,,,,,,,,,,,,,,,,,,,,,,
1577420311.426867,120.000000,0.000000,4247.692383,4280.512695,4040.512939,3936.410156,4150.256348,450.000000,4.000000,,,,0.000000,4.000000,4.000000,4.000000,4.000000,4.000000,,,,,,,,,,,,,,,,,,,,,,,,,,,,,,,,,,,,,,,,,,,,,,,,,,,,,,,,
1577420311.434664,121.000000,0.000000,4263.077148,4271.282227,4058.461426,4083.589844,4163.589844,450.000000,4.000000,,,,0.000000,4.000000,4.000000,4.000000,4.000000,4.000000,,,,,,,,,,,,,,,,,,,,,,,,,,,,,,,,,,,,,,,,,,,,,,,,,,,,,,,,
1577420311.442361,122.000000,0.000000,4263.589844,4259.487305,4057.435791,4191.794922,4163.589844,450.000000,4.000000,,,,0.000000,4.000000,4.000000,4.000000,4.000000,4.000000,,,,,,,,,,,,,,,,,,,,,,,,,,,,,,,,,,,,,,,,,,,,,,,,,,,,,,,,
1577420311.450157,123.000000,0.000000,4258.974121,4261.025879,4053.846191,4124.615234,4163.589844,16216.000000,4.000000,,,,0.000000,4.000000,4.000000,4.000000,4.000000,4.000000,,,,,,,,,,,,,,,,,,,,,,,,,,,,,,,,,,,,,,,,,,,,,,,,,,,,,,,,
1577420311.457854,124.000000,0.000000,4256.922852,4263.077148,4058.461426,4109.230957,4153.846191,450.000000,4.000000,,,,0.000000,4.000000,4.000000,4.000000,4.000000,4.000000,,,,,,,,,,,,,,,,,,,,,,,,,,,,,,,,,,,,,,,,,,,,,,,,,,,,,,,,
1577420311.465651,125.000000,0.000000,4252.307617,4273.333496,4062.051270,4084.102539,4141.025879,450.000000,4.000000,,,,0.000000,4.000000,4.000000,4.000000,4.000000,4.000000,,,,,,,,,,,,,,,,,,,,,,,,,,,,,,,,,,,,,,,,,,,,,,,,,,,,,,,,
1577420311.473348,126.000000,0.000000,4260.512695,4292.820313,4075.384521,4012.820557,4153.846191,450.000000,4.000000,,,,0.000000,4.000000,4.000000,4.000000,4.000000,4.000000,,,,,,,,,,,,,,,,,,,,,,,,,,,,,,,,,,,,,,,,,,,,,,,,,,,,,,,,
1577420311.481145,127.000000,0.000000,4295.384766,4283.077148,4103.077148,4155.897461,4182.051270,236.000000,4.000000,,,,0.000000,4.000000,4.000000,4.000000,4.000000,4.000000,,,,,,,,,,,,,,,,,,,,,,,,,,,,,,,,,,,,,,,,,,,,,,,,,,,,,,,,
1577420311.488842,0.000000,0.000000,4314.871582,4279.487305,4115.384766,4271.794922,4192.307617,450.000000,4.000000,,,,0.000000,4.000000,4.000000,4.000000,4.000000,4.000000,,,,,,,,,,,,,,,,,,,,,,,,,,,,,,,,,,,,,,,,,,,,,,,,,,,,,,,,
1577420311.496738,1.000000,0.000000,4303.077148,4318.974121,4115.897461,4135.897461,4183.589844,450.000000,4.000000,,,,0.000000,4.000000,4.000000,4.000000,4.000000,4.000000,,,,,,,,,,,,,,,,,,,,,,,,,,,,,,,,,,,,,,,,,,,,,,,,,,,,,,,,
1577420311.504535,2.000000,0.000000,4299.487305,4329.230957,4123.589844,4079.487061,4174.358887,16228.000000,4.000000,,,,0.000000,4.000000,4.000000,4.000000,4.000000,4.000000,,,,,,,,,,,,,,,,,,,,,,,,,,,,,,,,,,,,,,,,,,,,,,,,,,,,,,,,
1577420311.512432,3.000000,0.000000,4302.563965,4298.974121,4125.641113,4174.358887,4168.717773,450.000000,4.000000,,,,0.000000,4.000000,4.000000,4.000000,4.000000,4.000000,,,,,,,,,,,,,,,,,,,,,,,,,,,,,,,,,,,,,,,,,,,,,,,,,,,,,,,,
1577420311.520228,4.000000,0.000000,4291.794922,4288.205078,4115.897461,4127.179688,4161.025879,16224.000000,4.000000,,,,0.000000,4.000000,4.000000,4.000000,4.000000,4.000000,,,,,,,,,,,,,,,,,,,,,,,,,,,,,,,,55.461979,7.748775,3.131929,3.243600,2.066825,13.949837,9.083610,1.381825,2.545953,7.627322,24.225473,8.934840,4.414376,2.144454,1.022801,10.626582,7.488652,13.819979,16.738461,86.043182,50.887447,10.426039,2.182822,2.831372,1.751157
1577420311.528125,5.000000,0.000000,4286.153809,4290.769043,4113.846191,4005.641113,4155.897461,450.000000,4.000000,,,,0.000000,4.000000,4.000000,4.000000,4.000000,4.000000,,,,,,,,,,,,,,,,,,,,,,,,,,,,,,,,,,,,,,,,,,,,,,,,,,,,,,,,
1577420311.535922,6.000000,0.000000,4301.025879,4294.358887,4124.102539,4102.563965,4163.077148,16173.000000,4.000000,,,,0.000000,4.000000,4.000000,4.000000,4.000000,4.000000,,,,,,,,,,,,,,,,,,,,,,,,,,,,,,,,,,,,,,,,,,,,,,,,,,,,,,,,
1577420311.543819,7.000000,0.000000,4310.256348,4307.179688,4124.102539,4245.128418,4174.358887,450.000000,4.000000,,,,0.000000,4.000000,4.000000,4.000000,4.000000,4.000000,,,,,,,,,,,,,,,,,,,,,,,,,,,,,,,,,,,,,,,,,,,,,,,,,,,,,,,,
1577420311.551615,8.000000,0.000000,4299.487305,4304.615234,4116.410156,4163.077148,4174.358887,450.000000,4.000000,,,,0.000000,4.000000,4.000000,4.000000,4.000000,4.000000,,,,,,,,,,,,,,,,,,,,,,,,,,,,,,,,,,,,,,,,,,,,,,,,,,,,,,,,
1577420311.559512,9.000000,0.000000,4290.256348,4292.307617,4117.436035,4033.846191,4164.615234,16187.000000,4.000000,,,,0.000000,4.000000,4.000000,4.000000,4.000000,4.000000,,,,,,,,,,,,,,,,,,,,,,,,,,,,,,,,,,,,,,,,,,,,,,,,,,,,,,,,
1577420311.567309,10.000000,0.000000,4269.743652,4275.384766,4106.666504,4102.051270,4141.538574,450.000000,4.000000,,,,0.000000,4.000000,4.000000,4.000000,4.000000,4.000000,,,,,,,,,,,,,,,,,,,,,,,,,,,,,,,,,,,,,,,,,,,,,,,,,,,,,,,,
1577420311.575006,11.000000,0.000000,4258.974121,4264.102539,4111.282227,4213.333496,4135.897461,16209.000000,4.000000,,,,0.000000,4.000000,4.000000,4.000000,4.000000,4.000000,,,,,,,,,,,,,,,,,,,,,,,,,,,,,,,,,,,,,,,,,,,,,,,,,,,,,,,,
1577420311.582802,12.000000,0.000000,4294.358887,4296.410156,4151.282227,4133.333496,4170.256348,450.000000,4.000000,,,,0.000000,4.000000,4.000000,4.000000,4.000000,4.000000,,,,,,,,,,,,,,,,,,,,,,,,,,,,,,,,,,,,,,,,,,,,,,,,,,,,,,,,
1577420311.590499,13.000000,0.000000,4315.897461,4332.820313,4167.692383,4043.076904,4190.256348,450.000000,4.000000,,,,0.000000,4.000000,4.000000,4.000000,4.000000,4.000000,,,,,,,,,,,,,,,,,,,,,,,,,,,,,,,,,,,,,,,,,,,,,,,,,,,,,,,,
1577420311.598396,14.000000,0.000000,4282.051270,4301.538574,4150.256348,4144.615234,4162.563965,450.000000,4.000000,,,,0.000000,4.000000,4.000000,4.000000,4.000000,4.000000,,,,,,,,,,,,,,,,,,,,,,,,,,,,,,,,,,,,,,,,,,,,,,,,,,,,,,,,
1577420311.606193,15.000000,0.000000,4264.102539,4278.974121,4151.282227,4199.487305,4145.128418,16209.000000,4.000000,,,,0.000000,4.000000,4.000000,4.000000,4.000000,4.000000,,,,,,,,,,,,,,,,,,,,,,,,,,,,,,,,,,,,,,,,,,,,,,,,,,,,,,,,
1577420311.613989,16.000000,0.000000,4287.692383,4327.179688,4168.205078,4086.666748,4168.205078,0.000000,4.000000,,,,0.000000,4.000000,4.000000,4.000000,4.000000,4.000000,,,,,,,,,,,,,,,,,,,,,,,,,,,,,,,,,,,,,,,,,,,,,,,,,,,,,,,,
1577420311.621686,17.000000,0.000000,4303.077148,4348.717773,4175.384766,4097.436035,4182.563965,0.000000,4.000000,,,,0.000000,4.000000,4.000000,4.000000,4.000000,4.000000,,,,,,,,,,,,,,,,,,,,,,,,,,,,,,,,,,,,,,,,,,,,,,,,,,,,,,,,
1577420311.629583,18.000000,0.000000,4301.538574,4307.179688,4174.358887,4235.897461,4172.820313,0.000000,4.000000,,,,0.000000,4.000000,4.000000,4.000000,4.000000,4.000000,,,,,,,,,,,,,,,,,,,,,,,,,,,,,,,,,,,,,,,,,,,,,,,,,,,,,,,,
1577420311.637380,19.000000,0.000000,4296.410156,4293.846191,4167.692383,4177.436035,4167.179688,0.000000,4.000000,,,,0.000000,4.000000,4.000000,4.000000,4.000000,4.000000,,,,,,,,,,,,,,,,,,,,,,,,,,,,,,,,,,,,,,,,,,,,,,,,,,,,,,,,
1577420311.645276,20.000000,0.000000,4304.102539,4331.282227,4176.410156,4066.153809,4179.487305,0.000000,4.000000,,,,0.000000,4.000000,4.000000,4.000000,4.000000,4.000000,,,,,,,,,,,,,,,,,,,,,,,,,,,,,,,,54.555916,6.591101,3.575301,2.420846,1.643352,8.657729,5.833584,1.127671,2.116937,6.431887,18.081114,5.309842,3.414909,1.645595,0.865246,10.932535,5.481224,11.161832,18.352907,88.567406,56.865238,7.978533,2.596629,2.334177,1.430303
1577420311.653073,21.000000,0.000000,4309.230957,4338.974121,4189.743652,4152.307617,4182.051270,0.000000,4.000000,,,,0.000000,4.000000,4.000000,4.000000,4.000000,4.000000,,,,,,,,,,,,,,,,,,,,,,,,,,,,,,,,,,,,,,,,,,,,,,,,,,,,,,,,
1577420311.660970,22.000000,0.000000,4309.230957,4328.717773,4191.282227,4222.563965,4174.358887,0.000000,4.000000,,,,0.000000,4.000000,4.000000,4.000000,4.000000,4.000000,,,,,,,,,,,,,,,,,,,,,,,,,,,,,,,,,,,,,,,,,,,,,,,,,,,,,,,,
1577420311.668767,23.000000,0.000000,4321.538574,4321.538574,4198.974121,4198.974121,4186.666504,0.000000,4.000000,,,,0.000000,4.000000,4.000000,4.000000,4.000000,4.000000,,,,,,,,,,,,,,,,,,,,,,,,,,,,,,,,,,,,,,,,,,,,,,,,,,,,,,,,
1577420311.676663,24.000000,0.000000,4328.717773,4315.384766,4208.717773,4148.205078,4203.589844,0.000000,4.000000,,,,0.000000,4.000000,4.000000,4.000000,4.000000,4.000000,,,,,,,,,,,,,,,,,,,,,,,,,,,,,,,,,,,,,,,,,,,,,,,,,,,,,,,,
1577420311.684460,25.000000,0.000000,4329.743652,4329.230957,4204.102539,4128.205078,4205.128418,0.000000,4.000000,,,,0.000000,4.000000,4.000000,4.000000,4.000000,4.000000,,,,,,,,,,,,,,,,,,,,,,,,,,,,,,,,,,,,,,,,,,,,,,,,,,,,,,,,
1577420311.692357,26.000000,0.000000,4329.743652,4323.589844,4184.615234,4174.871582,4193.333496,0.000000,4.000000,,,,0.000000,4.000000,4.000000,4.000000,4.000000,4.000000,,,,,,,,,,,,,,,,,,,,,,,,,,,,,,,,,,,,,,,,,,,,,,,,,,,,,,,,
1577420311.700153,27.000000,0.000000,4316.922852,4305.128418,4174.358887,4208.717773,4180.512695,0.000000,4.000000,,,,0.000000,4.000000,4.000000,4.000000,4.000000,4.000000,,,,,,,,,,,,,,,,,,,,,,,,,,,,,,,,,,,,,,,,,,,,,,,,,,,,,,,,
1577420311.708050,28.000000,0.000000,4301.538574,4313.846191,4179.487305,4197.436035,4178.461426,0.000000,4.000000,,,,0.000000,4.000000,4.000000,4.000000,4.000000,4.000000,,,,,,,,,,,,,,,,,,,,,,,,,,,,,,,,,,,,,,,,,,,,,,,,,,,,,,,,
1577420311.715847,29.000000,0.000000,4296.922852,4312.820313,4181.538574,4132.820313,4178.974121,0.000000,4.000000,,,,0.000000,4.000000,4.000000,4.000000,4.000000,4.000000,,,,,,,,,,,,,,,,,,,,,,,,,,,,,,,,,,,,,,,,,,,,,,,,,,,,,,,,
1577420311.723743,30.000000,0.000000,4278.461426,4266.666504,4160.000000,4063.076904,4151.794922,0.000000,4.000000,,,,0.000000,4.000000,4.000000,4.000000,4.000000,4.000000,,,,,,,,,,,,,,,,,,,,,,,,,,,,,,,,,,,,,,,,,,,,,,,,,,,,,,,,
1577420311.731540,31.000000,0.000000,4276.922852,4273.333496,4161.025879,4082.564209,4154.358887,0.000000,4.000000,,,,0.000000,4.000000,4.000000,4.000000,4.000000,4.000000,,,,,,,,,,,,,,,,,,,,,,,,,,,,,,,,,,,,,,,,,,,,,,,,,,,,,,,,
1577420311.739437,32.000000,0.000000,4328.205078,4332.820313,4217.436035,4227.692383,4219.487305,0.000000,4.000000,,,,0.000000,4.000000,4.000000,4.000000,4.000000,4.000000,,,,,,,,,,,,,,,,,,,,,,,,,,,,,,,,,,,,,,,,,,,,,,,,,,,,,,,,
1577420311.747234,33.000000,0.000000,4351.794922,4322.051270,4248.717773,4272.820313,4238.974121,0.000000,4.000000,,,,0.000000,4.000000,4.000000,4.000000,4.000000,4.000000,,,,,,,,,,,,,,,,,,,,,,,,,,,,,,,,,,,,,,,,,,,,,,,,,,,,,,,,
1577420311.754931,34.000000,0.000000,4312.307617,4295.384766,4221.025879,4153.846191,4191.282227,0.000000,4.000000,,,,0.000000,4.000000,4.000000,4.000000,4.000000,4.000000,,,,,,,,,,,,,,,,,,,,,,,,,,,,,,,,,,,,,,,,,,,,,,,,,,,,,,,,
1577420311.762727,35.000000,0.000000,4280.512695,4318.974121,4195.897461,4072.820557,4162.051270,0.000000,4.000000,,,,0.000000,4.000000,4.000000,4.000000,4.000000,4.000000,,,,,,,,,,,,,,,,,,,,,,,,,,,,,,,,,,,,,,,,,,,,,,,,,,,,,,,,
1577420311.770424,36.000000,0.000000,4300.000000,4323.589844,4211.282227,4120.512695,4183.077148,0.000000,4.000000,,,,0.000000,4.000000,4.000000,4.000000,4.000000,4.000000,,,,,,,,,,,,,,,,,,,,,,,,,,,,,,,,57.940491,6.188660,4.126105,2.130068,1.352322,5.091953,3.711203,0.868055,1.886485,5.172158,12.675799,2.999658,2.385871,1.434502,0.766618,11.162275,4.586085,8.588987,21.693295,92.552483,65.484489,6.685764,2.964079,2.234362,1.152591
1577420311.778221,37.000000,0.000000,4330.769043,4289.743652,4234.871582,4223.589844,4211.282227,0.000000,4.000000,,,,0.000000,4.000000,4.000000,4.000000,4.000000,4.000000,,,,,,,,,,,,,,,,,,,,,,,,,,,,,,,,,,,,,,,,,,,,,,,,,,,,,,,,
1577420311.785918,38.000000,0.000000,4317.436035,4303.589844,4232.820313,4214.358887,4204.102539,0.000000,4.000000,,,,0.000000,4.000000,4.000000,4.000000,4.000000,4.000000,,,,,,,,,,,,,,,,,,,,,,,,,,,,,,,,,,,,,,,,,,,,,,,,,,,,,,,,
1577420311.793715,39.000000,0.000000,4292.307617,4359.487305,4224.102539,4155.897461,4198.461426,0.000000,4.000000,,,,0.000000,4.000000,4.000000,4.000000,4.000000,4.000000,,,,,,,,,,,,,,,,,,,,,,,,,,,,,,,,,,,,,,,,,,,,,,,,,,,,,,,,
1577420311.801411,40.000000,0.000000,4321.025879,4353.846191,4246.666504,4193.333496,4227.692383,0.000000,4.000000,,,,0.000000,4.000000,4.000000,4.000000,4.000000,4.000000,,,,,,,,,,,,,,,,,,,,,,,,,,,,,,,,,,,,,,,,,,,,,,,,,,,,,,,,
1577420311.809308,41.000000,0.000000,4367.692383,4305.128418,4277.436035,4220.000000,4251.794922,0.000000,4.000000,,,,0.000000,4.000000,4.000000,4.000000,4.000000,4.000000,,,,,,,,,,,,,,,,,,,,,,,,,,,,,,,,,,,,,,,,,,,,,,,,,,,,,,,,
1577420311.817105,42.000000,0.000000,4350.256348,4312.820313,4266.153809,4150.256348,4241.025879,0.000000,4.000000,,,,0.000000,4.000000,4.000000,4.000000,4.000000,4.000000,,,,,,,,,,,,,,,,,,,,,,,,,,,,,,,,,,,,,,,,,,,,,,,,,,,,,,,,
1577420311.824902,43.000000,0.000000,4296.410156,4352.307617,4242.051270,4162.563965,4225.641113,0.000000,4.000000,,,,0.000000,4.000000,4.000000,4.000000,4.000000,4.000000,,,,,,,,,,,,,,,,,,,,,,,,,,,,,,,,,,,,,,,,,,,,,,,,,,,,,,,,
1577420311.832598,44.000000,0.000000,4258.974121,4314.358887,4237.436035,4236.922852,4223.077148,0.000000,4.000000,,,,0.000000,4.000000,4.000000,4.000000,4.000000,4.000000,,,,,,,,,,,,,,,,,,,,,,,,,,,,,,,,,,,,,,,,,,,,,,,,,,,,,,,,
1577420311.840395,45.000000,0.000000,4242.051270,4275.384766,4250.769043,4175.897461,4245.128418,0.000000,4.000000,,,,0.000000,4.000000,4.000000,4.000000,4.000000,4.000000,,,,,,,,,,,,,,,,,,,,,,,,,,,,,,,,,,,,,,,,,,,,,,,,,,,,,,,,
1577420311.848092,46.000000,0.000000,4248.205078,4322.563965,4268.205078,4129.743652,4274.358887,0.000000,4.000000,,,,0.000000,4.000000,4.000000,4.000000,4.000000,4.000000,,,,,,,,,,,,,,,,,,,,,,,,,,,,,,,,,,,,,,,,,,,,,,,,,,,,,,,,
1577420311.855889,47.000000,0.000000,4245.128418,4350.256348,4267.692383,4250.769043,4269.230957,0.000000,4.000000,,,,0.000000,4.000000,4.000000,4.000000,4.000000,4.000000,,,,,,,,,,,,,,,,,,,,,,,,,,,,,,,,,,,,,,,,,,,,,,,,,,,,,,,,
1577420311.863586,48.000000,0.000000,4224.615234,4331.282227,4267.692383,4292.307617,4262.051270,0.000000,4.000000,,,,0.000000,4.000000,4.000000,4.000000,4.000000,4.000000,,,,,,,,,,,,,,,,,,,,,,,,,,,,,,,,,,,,,,,,,,,,,,,,,,,,,,,,
1577420311.871383,49.000000,0.000000,4209.230957,4327.692383,4275.384766,4152.820313,4292.307617,0.000000,4.000000,,,,0.000000,4.000000,4.000000,4.000000,4.000000,4.000000,,,,,,,,,,,,,,,,,,,,,,,,,,,,,,,,,,,,,,,,,,,,,,,,,,,,,,,,
1577420311.879079,50.000000,0.000000,4196.922852,4306.666504,4266.153809,4134.871582,4309.230957,0.000000,4.000000,,,,0.000000,4.000000,4.000000,4.000000,4.000000,4.000000,,,,,,,,,,,,,,,,,,,,,,,,,,,,,,,,,,,,,,,,,,,,,,,,,,,,,,,,
1577420311.886976,51.000000,0.000000,4194.358887,4275.897461,4252.820313,4249.743652,4298.461426,0.000000,4.000000,,,,0.000000,4.000000,4.000000,4.000000,4.000000,4.000000,,,,,,,,,,,,,,,,,,,,,,,,,,,,,,,,,,,,,,,,,,,,,,,,,,,,,,,,
1577420311.894773,52.000000,0.000000,4211.282227,4293.333496,4258.974121,4212.307617,4308.205078,0.000000,4.000000,,,,0.000000,4.000000,4.000000,4.000000,4.000000,4.000000,,,,,,,,,,,,,,,,,,,,,,,,,,,,,,,,63.116920,6.309640,4.538481,2.204200,1.177013,3.387655,2.665349,0.656061,1.798479,4.134555,9.121557,2.026118,1.552036,1.430441,0.723707,11.187548,4.757357,6.662655,26.541338,96.668617,73.181328,6.170914,3.168118,2.413700,0.942820
1577420311.902669,53.000000,0.000000,4238.974121,4310.769043,4268.717773,4172.307617,4321.538574,0.000000,4.000000,,,,0.000000,4.000000,4.000000,4.000000,4.000000,4.000000,,,,,,,,,,,,,,,,,,,,,,,,,,,,,,,,,,,,,,,,,,,,,,,,,,,,,,,,
1577420311.910466,54.000000,0.000000,4263.589844,4286.666504,4271.282227,4305.128418,4316.410156,0.000000,4.000000,,,,0.000000,4.000000,4.000000,4.000000,4.000000,4.000000,,,,,,,,,,,,,,,,,,,,,,,,,,,,,,,,,,,,,,,,,,,,,,,,,,,,,,,,
1577420311.918363,55.000000,0.000000,4285.641113,4264.615234,4267.692383,4292.307617,4310.256348,0.000000,4.000000,,,,0.000000,4.000000,4.000000,4.000000,4.000000,4.000000,,,,,,,,,,,,,,,,,,,,,,,,,,,,,,,,,,,,,,,,,,,,,,,,,,,,,,,,
1577420311.926160,56.000000,0.000000,4302.563965,4274.871582,4254.358887,4067.179443,4297.436035,0.000000,4.000000,,,,0.000000,4.000000,4.000000,4.000000,4.000000,4.000000,,,,,,,,,,,,,,,,,,,,,,,,,,,,,,,,,,,,,,,,,,,,,,,,,,,,,,,,
1577420311.934056,57.000000,0.000000,4320.512695,4284.102539,4242.563965,4082.051270,4293.333496,0.000000,4.000000,,,,0.000000,4.000000,4.000000,4.000000,4.000000,4.000000,,,,,,,,,,,,,,,,,,,,,,,,,,,,,,,,,,,,,,,,,,,,,,,,,,,,,,,,
1577420311.941853,58.000000,0.000000,4329.230957,4260.512695,4230.769043,4330.769043,4291.794922,0.000000,4.000000,,,,0.000000,4.000000,4.000000,4.000000,4.000000,4.000000,,,,,,,,,,,,,,,,,,,,,,,,,,,,,,,,,,,,,,,,,,,,,,,,,,,,,,,,
1577420311.949750,59.000000,0.000000,4314.358887,4230.256348,4217.436035,4289.743652,4274.358887,0.000000,4.000000,,,,0.000000,4.000000,4.000000,4.000000,4.000000,4.000000,,,,,,,,,,,,,,,,,,,,,,,,,,,,,,,,,,,,,,,,,,,,,,,,,,,,,,,,
1577420311.957547,60.000000,0.000000,4309.230957,4273.333496,4232.820313,4069.743652,4280.000000,0.000000,4.000000,,,,0.000000,4.000000,4.000000,4.000000,4.000000,4.000000,,,,,,,,,,,,,,,,,,,,,,,,,,,,,,,,,,,,,,,,,,,,,,,,,,,,,,,,
1577420311.965443,61.000000,0.000000,4311.282227,4341.538574,4254.358887,4122.563965,4296.410156,0.000000,4.000000,,,,0.000000,4.000000,4.000000,4.000000,4.000000,4.000000,,,,,,,,,,,,,,,,,,,,,,,,,,,,,,,,,,,,,,,,,,,,,,,,,,,,,,,,
1577420311.973240,62.000000,0.000000,4285.641113,4300.512695,4235.897461,4277.948730,4275.897461,0.000000,4.000000,,,,0.000000,4.000000,4.000000,4.000000,4.000000,4.000000,,,,,,,,,,,,,,,,,,,,,,,,,,,,,,,,,,,,,,,,,,,,,,,,,,,,,,,,
1577420311.980937,63.000000,0.000000,4252.820313,4244.615234,4212.307617,4194.871582,4246.153809,0.000000,4.000000,,,,0.000000,4.000000,4.000000,4.000000,4.000000,4.000000,,,,,,,,,,,,,,,,,,,,,,,,,,,,,,,,,,,,,,,,,,,,,,,,,,,,,,,,
1577420311.988734,64.000000,0.000000,4248.205078,4268.717773,4221.025879,4114.358887,4244.615234,450.000000,4.000000,,,,0.000000,4.000000,4.000000,4.000000,4.000000,4.000000,,,,,,,,,,,,,,,,,,,,,,,,,,,,,,,,,,,,,,,,,,,,,,,,,,,,,,,,
1577420311.996430,65.000000,0.000000,4251.794922,4285.128418,4222.563965,4199.487305,4248.717773,450.000000,4.000000,,,,0.000000,4.000000,4.000000,4.000000,4.000000,4.000000,,,,,,,,,,,,,,,,,,,,,,,,,,,,,,,,,,,,,,,,,,,,,,,,,,,,,,,,
1577420312.004227,66.000000,0.000000,4247.692383,4278.974121,4213.846191,4144.102539,4241.538574,16218.000000,4.000000,,,,0.000000,4.000000,4.000000,4.000000,4.000000,4.000000,,,,,,,,,,,,,,,,,,,,,,,,,,,,,,,,,,,,,,,,,,,,,,,,,,,,,,,,
1577420312.011924,67.000000,0.000000,4264.615234,4287.692383,4231.282227,4077.435791,4248.205078,450.000000,4.000000,,,,0.000000,4.000000,4.000000,4.000000,4.000000,4.000000,,,,,,,,,,,,,,,,,,,,,,,,,,,,,,,,,,,,,,,,,,,,,,,,,,,,,,,,
1577420312.019721,68.000000,0.000000,4291.282227,4286.666504,4254.871582,4212.820313,4263.589844,16199.000000,4.000000,,,,0.000000,4.000000,4.000000,4.000000,4.000000,4.000000,,,,,,,,,,,,,,,,,,,,,,,,,,,,,,,,66.499031,6.411849,4.671357,2.427910,1.083673,2.960131,2.279287,0.523931,1.780361,3.480803,7.008033,1.964567,1.071183,1.513357,0.725475,10.920230,5.570666,5.696255,32.232090,99.002113,75.042412,5.751345,3.169414,2.709144,0.819948
1577420312.027418,69.000000,0.000000,4286.666504,4269.743652,4249.230957,4260.000000,4254.871582,450.000000,4.000000,,,,0.000000,4.000000,4.000000,4.000000,4.000000,4.000000,,,,,,,,,,,,,,,,,,,,,,,,,,,,,,,,,,,,,,,,,,,,,,,,,,,,,,,,
1577420312.035214,70.000000,0.000000,4267.179688,4275.897461,4233.846191,4130.256348,4240.000000,16170.000000,4.000000,,,,0.000000,4.000000,4.000000,4.000000,4.000000,4.000000,,,,,,,,,,,,,,,,,,,,,,,,,,,,,,,,,,,,,,,,,,,,,,,,,,,,,,,,
1577420312.042911,71.000000,0.000000,4273.846191,4295.384766,4241.538574,4104.102539,4252.820313,450.000000,4.000000,,,,0.000000,4.000000,4.000000,4.000000,4.000000,4.000000,,,,,,,,,,,,,,,,,,,,,,,,,,,,,,,,,,,,,,,,,,,,,,,,,,,,,,,,
1577420312.050708,72.000000,0.000000,4278.974121,4292.820313,4247.692383,4185.128418,4269.743652,450.000000,4.000000,,,,0.000000,4.000000,4.000000,4.000000,4.000000,4.000000,,,,,,,,,,,,,,,,,,,,,,,,,,,,,,,,,,,,,,,,,,,,,,,,,,,,,,,,
1577420312.058405,73.000000,0.000000,4269.743652,4286.666504,4240.000000,4184.102539,4266.666504,16165.000000,4.000000,,,,0.000000,4.000000,4.000000,4.000000,4.000000,4.000000,,,,,,,,,,,,,,,,,,,,,,,,,,,,,,,,,,,,,,,,,,,,,,,,,,,,,,,,
1577420312.066302,74.000000,0.000000,4275.897461,4295.897461,4248.205078,4184.102539,4268.205078,450.000000,4.000000,,,,0.000000,4.000000,4.000000,4.000000,4.000000,4.000000,,,,,,,,,,,,,,,,,,,,,,,,,,,,,,,,,,,,,,,,,,,,,,,,,,,,,,,,
1577420312.074098,75.000000,0.000000,4283.077148,4308.717773,4256.922852,4172.820313,4278.461426,16213.000000,4.000000,,,,0.000000,4.000000,4.000000,4.000000,4.000000,4.000000,,,,,,,,,,,,,,,,,,,,,,,,,,,,,,,,,,,,,,,,,,,,,,,,,,,,,,,,
1577420312.081895,76.000000,0.000000,4268.717773,4305.128418,4251.282227,4160.000000,4275.384766,450.000000,4.000000,,,,0.000000,4.000000,4.000000,4.000000,4.000000,4.000000,,,,,,,,,,,,,,,,,,,,,,,,,,,,,,,,,,,,,,,,,,,,,,,,,,,,,,,,
1577420312.089592,77.000000,0.000000,4237.948730,4273.333496,4236.922852,4185.128418,4253.333496,450.000000,4.000000,,,,0.000000,4.000000,4.000000,4.000000,4.000000,4.000000,,,,,,,,,,,,,,,,,,,,,,,,,,,,,,,,,,,,,,,,,,,,,,,,,,,,,,,,
1577420312.097489,78.000000,0.000000,4223.077148,4265.128418,4230.256348,4152.820313,4239.487305,450.000000,4.000000,,,,0.000000,4.000000,4.000000,4.000000,4.000000,4.000000,,,,,,,,,,,,,,,,,,,,,,,,,,,,,,,,,,,,,,,,,,,,,,,,,,,,,,,,
1577420312.105285,79.000000,0.000000,4234.358887,4305.641113,4243.589844,4132.820313,4247.692383,16213.000000,4.000000,,,,0.000000,4.000000,4.000000,4.000000,4.000000,4.000000,,,,,,,,,,,,,,,,,,,,,,,,,,,,,,,,,,,,,,,,,,,,,,,,,,,,,,,,
1577420312.113182,80.000000,0.000000,4249.743652,4325.128418,4261.025879,4261.538574,4263.589844,450.000000,4.000000,,,,0.000000,4.000000,4.000000,4.000000,4.000000,4.000000,,,,,,,,,,,,,,,,,,,,,,,,,,,,,,,,,,,,,,,,,,,,,,,,,,,,,,,,
1577420312.120979,81.000000,0.000000,4249.230957,4285.641113,4264.615234,4257.436035,4271.794922,450.000000,4.000000,,,,0.000000,4.000000,4.000000,4.000000,4.000000,4.000000,,,,,,,,,,,,,,,,,,,,,,,,,,,,,,,,,,,,,,,,,,,,,,,,,,,,,,,,
1577420312.128876,82.000000,0.000000,4223.589844,4269.743652,4246.666504,4041.025635,4257.436035,450.000000,4.000000,,,,0.000000,4.000000,4.000000,4.000000,4.000000,4.000000,,,,,,,,,,,,,,,,,,,,,,,,,,,,,,,,,,,,,,,,,,,,,,,,,,,,,,,,
1577420312.136672,83.000000,0.000000,4205.641113,4303.077148,4232.307617,4103.589844,4248.205078,16213.000000,4.000000,,,,0.000000,4.000000,4.000000,4.000000,4.000000,4.000000,,,,,,,,,,,,,,,,,,,,,,,,,,,,,,,,,,,,,,,,,,,,,,,,,,,,,,,,
1577420312.144569,84.000000,0.000000,4206.153809,4292.820313,4237.948730,4330.256348,4249.230957,450.000000,4.000000,,,,0.000000,4.000000,4.000000,4.000000,4.000000,4.000000,,,,,,,,,,,,,,,,,,,,,,,,,,,,,,,,65.510269,6.177760,4.494743,2.691018,1.077557,3.158570,2.167481,0.465342,1.801508,3.231505,6.165182,2.310934,0.958720,1.615648,0.771033,10.435784,6.478204,5.436174,37.773209,97.909561,68.564827,4.987586,2.980897,3.001658,0.813398
1577420312.152366,85.000000,0.000000,4200.000000,4269.743652,4242.563965,4147.692383,4233.846191,450.000000,4.000000,,,,0.000000,4.000000,4.000000,4.000000,4.000000,4.000000,,,,,,,,,,,,,,,,,,,,,,,,,,,,,,,,,,,,,,,,,,,,,,,,,,,,,,,,
1577420312.160063,86.000000,0.000000,4196.410156,4279.487305,4240.512695,4009.230713,4222.051270,450.000000,4.000000,,,,0.000000,4.000000,4.000000,4.000000,4.000000,4.000000,,,,,,,,,,,,,,,,,,,,,,,,,,,,,,,,,,,,,,,,,,,,,,,,,,,,,,,,
1577420312.167959,87.000000,0.000000,4194.358887,4274.358887,4232.307617,4209.230957,4228.205078,16213.000000,4.000000,,,,0.000000,4.000000,4.000000,4.000000,4.000000,4.000000,,,,,,,,,,,,,,,,,,,,,,,,,,,,,,,,,,,,,,,,,,,,,,,,,,,,,,,,
1577420312.175756,88.000000,0.000000,4188.717773,4277.436035,4223.077148,4178.461426,4227.692383,450.000000,4.000000,,,,0.000000,4.000000,4.000000,4.000000,4.000000,4.000000,,,,,,,,,,,,,,,,,,,,,,,,,,,,,,,,,,,,,,,,,,,,,,,,,,,,,,,,
1577420312.183653,89.000000,0.000000,4202.563965,4315.384766,4232.820313,4062.051270,4228.205078,450.000000,4.000000,,,,0.000000,4.000000,4.000000,4.000000,4.000000,4.000000,,,,,,,,,,,,,,,,,,,,,,,,,,,,,,,,,,,,,,,,,,,,,,,,,,,,,,,,
1577420312.191449,90.000000,0.000000,4229.743652,4311.794922,4251.794922,4235.897461,4245.641113,450.000000,4.000000,,,,0.000000,4.000000,4.000000,4.000000,4.000000,4.000000,,,,,,,,,,,,,,,,,,,,,,,,,,,,,,,,,,,,,,,,,,,,,,,,,,,,,,,,
1577420312.199346,91.000000,0.000000,4224.615234,4255.897461,4241.538574,4249.230957,4235.897461,16213.000000,4.000000,,,,0.000000,4.000000,4.000000,4.000000,4.000000,4.000000,,,,,,,,,,,,,,,,,,,,,,,,,,,,,,,,,,,,,,,,,,,,,,,,,,,,,,,,
1577420312.207143,92.000000,0.000000,4213.846191,4254.871582,4225.128418,4061.025635,4212.307617,450.000000,4.000000,,,,0.000000,4.000000,4.000000,4.000000,4.000000,4.000000,,,,,,,,,,,,,,,,,,,,,,,,,,,,,,,,,,,,,,,,,,,,,,,,,,,,,,,,
1577420312.215040,93.000000,0.000000,4247.179688,4298.461426,4245.641113,4122.051270,4230.256348,450.000000,4.000000,,,,0.000000,4.000000,4.000000,4.000000,4.000000,4.000000,,,,,,,,,,,,,,,,,,,,,,,,,,,,,,,,,,,,,,,,,,,,,,,,,,,,,,,,
1577420312.222836,94.000000,0.000000,4268.205078,4298.974121,4258.461426,4265.128418,4241.538574,450.000000,4.000000,,,,0.000000,4.000000,4.000000,4.000000,4.000000,4.000000,,,,,,,,,,,,,,,,,,,,,,,,,,,,,,,,,,,,,,,,,,,,,,,,,,,,,,,,
1577420312.230733,95.000000,0.000000,4242.051270,4283.077148,4236.410156,4187.179688,4216.410156,16213.000000,4.000000,,,,0.000000,4.000000,4.000000,4.000000,4.000000,4.000000,,,,,,,,,,,,,,,,,,,,,,,,,,,,,,,,,,,,,,,,,,,,,,,,,,,,,,,,
1577420312.238530,96.000000,0.000000,4231.794922,4282.051270,4228.717773,4082.564209,4206.666504,450.000000,4.000000,,,,0.000000,4.000000,4.000000,4.000000,4.000000,4.000000,,,,,,,,,,,,,,,,,,,,,,,,,,,,,,,,,,,,,,,,,,,,,,,,,,,,,,,,
1577420312.246426,97.000000,0.000000,4238.974121,4268.717773,4236.410156,4120.512695,4211.282227,450.000000,4.000000,,,,0.000000,4.000000,4.000000,4.000000,4.000000,4.000000,,,,,,,,,,,,,,,,,,,,,,,,,,,,,,,,,,,,,,,,,,,,,,,,,,,,,,,,
1577420312.254223,98.000000,0.000000,4226.666504,4264.102539,4221.538574,4206.153809,4198.974121,450.000000,4.000000,,,,0.000000,4.000000,4.000000,4.000000,4.000000,4.000000,,,,,,,,,,,,,,,,,,,,,,,,,,,,,,,,,,,,,,,,,,,,,,,,,,,,,,,,
1577420312.262020,99.000000,0.000000,4229.230957,4291.794922,4213.846191,4189.230957,4203.589844,16213.000000,4.000000,,,,0.000000,4.000000,4.000000,4.000000,4.000000,4.000000,,,,,,,,,,,,,,,,,,,,,,,,,,,,,,,,,,,,,,,,,,,,,,,,,,,,,,,,
1577420312.269717,100.000000,0.000000,4254.871582,4283.077148,4232.820313,4145.641113,4227.692383,450.000000,4.000000,,,,0.000000,4.000000,4.000000,4.000000,4.000000,4.000000,,,,,,,,,,,,,,,,,,,,,,,,,,,,,,,,60.212887,5.898091,4.101762,2.976301,1.184548,3.700884,2.166529,0.472642,1.903108,3.320653,5.721698,2.712158,1.123330,1.741248,0.866518,9.774405,6.996663,5.395336,42.242897,92.967003,55.138931,3.957832,2.691699,3.238102,0.944659
1577420312.277613,101.000000,0.000000,4253.846191,4257.436035,4239.487305,4183.589844,4225.641113,450.000000,4.000000,,,,0.000000,4.000000,4.000000,4.000000,4.000000,4.000000,,,,,,,,,,,,,,,,,,,,,,,,,,,,,,,,,,,,,,,,,,,,,,,,,,,,,,,,
1577420312.285410,102.000000,0.000000,4237.948730,4304.615234,4232.307617,4154.358887,4216.922852,450.000000,4.000000,,,,0.000000,4.000000,4.000000,4.000000,4.000000,4.000000,,,,,,,,,,,,,,,,,,,,,,,,,,,,,,,,,,,,,,,,,,,,,,,,,,,,,,,,
1577420312.293307,103.000000,0.000000,4240.000000,4329.743652,4234.871582,4094.871826,4223.589844,16213.000000,4.000000,,,,0.000000,4.000000,4.000000,4.000000,4.000000,4.000000,,,,,,,,,,,,,,,,,,,,,,,,,,,,,,,,,,,,,,,,,,,,,,,,,,,,,,,,
1577420312.301104,104.000000,0.000000,4246.153809,4269.743652,4238.974121,4235.897461,4225.128418,450.000000,4.000000,,,,0.000000,4.000000,4.000000,4.000000,4.000000,4.000000,,,,,,,,,,,,,,,,,,,,,,,,,,,,,,,,,,,,,,,,,,,,,,,,,,,,,,,,
1577420312.309000,105.000000,0.000000,4236.922852,4254.358887,4228.205078,4331.282227,4216.922852,450.000000,4.000000,,,,0.000000,4.000000,4.000000,4.000000,4.000000,4.000000,,,,,,,,,,,,,,,,,,,,,,,,,,,,,,,,,,,,,,,,,,,,,,,,,,,,,,,,
1577420312.316797,106.000000,0.000000,4226.666504,4298.461426,4221.025879,4092.820557,4211.794922,450.000000,4.000000,,,,0.000000,4.000000,4.000000,4.000000,4.000000,4.000000,,,,,,,,,,,,,,,,,,,,,,,,,,,,,,,,,,,,,,,,,,,,,,,,,,,,,,,,
1577420312.324694,107.000000,0.000000,4234.358887,4298.974121,4228.205078,4003.589844,4215.897461,16213.000000,4.000000,,,,0.000000,4.000000,4.000000,4.000000,4.000000,4.000000,,,,,,,,,,,,,,,,,,,,,,,,,,,,,,,,,,,,,,,,,,,,,,,,,,,,,,,,
1577420312.332490,108.000000,0.000000,4244.615234,4269.230957,4233.846191,4270.256348,4220.512695,450.000000,4.000000,,,,0.000000,4.000000,4.000000,4.000000,4.000000,4.000000,,,,,,,,,,,,,,,,,,,,,,,,,,,,,,,,,,,,,,,,,,,,,,,,,,,,,,,,
1577420312.340287,109.000000,0.000000,4247.179688,4274.358887,4238.974121,4307.179688,4219.487305,450.000000,4.000000,,,,0.000000,4.000000,4.000000,4.000000,4.000000,4.000000,,,,,,,,,,,,,,,,,,,,,,,,,,,,,,,,,,,,,,,,,,,,,,,,,,,,,,,,
1577420312.347984,110.000000,0.000000,4251.282227,4287.179688,4241.538574,4097.948730,4220.512695,450.000000,4.000000,,,,0.000000,4.000000,4.000000,4.000000,4.000000,4.000000,,,,,,,,,,,,,,,,,,,,,,,,,,,,,,,,,,,,,,,,,,,,,,,,,,,,,,,,
1577420312.355681,111.000000,0.000000,4246.153809,4275.384766,4226.153809,4047.179443,4215.384766,16213.000000,4.000000,,,,0.000000,4.000000,4.000000,4.000000,4.000000,4.000000,,,,,,,,,,,,,,,,,,,,,,,,,,,,,,,,,,,,,,,,,,,,,,,,,,,,,,,,
1577420312.363577,112.000000,0.000000,4228.205078,4248.205078,4211.794922,4134.871582,4195.384766,450.000000,4.000000,,,,0.000000,4.000000,4.000000,4.000000,4.000000,4.000000,,,,,,,,,,,,,,,,,,,,,,,,,,,,,,,,,,,,,,,,,,,,,,,,,,,,,,,,
1577420312.371374,113.000000,0.000000,4227.692383,4249.230957,4225.641113,4184.102539,4202.051270,450.000000,4.000000,,,,0.000000,4.000000,4.000000,4.000000,4.000000,4.000000,,,,,,,,,,,,,,,,,,,,,,,,,,,,,,,,,,,,,,,,,,,,,,,,,,,,,,,,
1577420312.379171,114.000000,0.000000,4248.717773,4278.461426,4243.589844,4177.436035,4232.820313,450.000000,4.000000,,,,0.000000,4.000000,4.000000,4.000000,4.000000,4.000000,,,,,,,,,,,,,,,,,,,,,,,,,,,,,,,,,,,,,,,,,,,,,,,,,,,,,,,,
1577420312.386868,115.000000,0.000000,4245.641113,4279.487305,4230.256348,4123.589844,4226.153809,16213.000000,4.000000,,,,0.000000,4.000000,4.000000,4.000000,4.000000,4.000000,,,,,,,,,,,,,,,,,,,,,,,,,,,,,,,,,,,,,,,,,,,,,,,,,,,,,,,,
1577420312.394665,116.000000,0.000000,4223.589844,4268.717773,4211.282227,4152.307617,4197.436035,450.000000,4.000000,,,,0.000000,4.000000,4.000000,4.000000,4.000000,4.000000,,,,,,,,,,,,,,,,,,,,,,,,,,,,,,,,52.996185,6.036791,3.636984,3.263928,1.396246,4.490310,2.194261,0.525010,2.123876,3.654407,5.950450,2.969002,1.413503,1.899426,1.003977,9.088297,6.873250,5.099969,44.938736,85.348732,38.889000,2.903205,2.437061,3.369754,1.192183
1577420312.402361,117.000000,0.000000,4230.256348,4268.205078,4224.102539,4247.692383,4205.641113,450.000000,4.000000,,,,0.000000,4.000000,4.000000,4.000000,4.000000,4.000000,,,,,,,,,,,,,,,,,,,,,,,,,,,,,,,,,,,,,,,,,,,,,,,,,,,,,,,,
1577420312.410158,118.000000,0.000000,4250.769043,4255.897461,4238.974121,4133.333496,4226.666504,450.000000,4.000000,,,,0.000000,4.000000,4.000000,4.000000,4.000000,4.000000,,,,,,,,,,,,,,,,,,,,,,,,,,,,,,,,,,,,,,,,,,,,,,,,,,,,,,,,
1577420312.417855,119.000000,0.000000,4252.307617,4266.666504,4233.846191,4074.871826,4223.077148,16213.000000,4.000000,,,,0.000000,4.000000,4.000000,4.000000,4.000000,4.000000,,,,,,,,,,,,,,,,,,,,,,,,,,,,,,,,,,,,,,,,,,,,,,,,,,,,,,,,
1577420312.425652,120.000000,0.000000,4246.153809,4280.512695,4226.153809,4227.692383,4209.743652,450.000000,4.000000,,,,0.000000,4.000000,4.000000,4.000000,4.000000,4.000000,,,,,,,,,,,,,,,,,,,,,,,,,,,,,,,,,,,,,,,,,,,,,,,,,,,,,,,,
1577420312.433349,121.000000,0.000000,4241.538574,4266.666504,4223.077148,4154.871582,4203.589844,450.000000,4.000000,,,,0.000000,4.000000,4.000000,4.000000,4.000000,4.000000,,,,,,,,,,,,,,,,,,,,,,,,,,,,,,,,,,,,,,,,,,,,,,,,,,,,,,,,
1577420312.441145,122.000000,0.000000,4230.769043,4265.641113,4212.307617,3999.487061,4195.897461,450.000000,4.000000,,,,0.000000,4.000000,4.000000,4.000000,4.000000,4.000000,,,,,,,,,,,,,,,,,,,,,,,,,,,,,,,,,,,,,,,,,,,,,,,,,,,,,,,,
1577420312.448842,123.000000,0.000000,4233.846191,4268.205078,4205.641113,4127.179688,4198.974121,16213.000000,4.000000,,,,0.000000,4.000000,4.000000,4.000000,4.000000,4.000000,,,,,,,,,,,,,,,,,,,,,,,,,,,,,,,,,,,,,,,,,,,,,,,,,,,,,,,,
1577420312.456739,124.000000,0.000000,4264.102539,4255.384766,4228.717773,4290.769043,4232.307617,450.000000,4.000000,,,,0.000000,4.000000,4.000000,4.000000,4.000000,4.000000,,,,,,,,,,,,,,,,,,,,,,,,,,,,,,,,,,,,,,,,,,,,,,,,,,,,,,,,
1577420312.464536,125.000000,0.000000,4280.512695,4268.205078,4241.538574,4209.743652,4246.666504,450.000000,4.000000,,,,0.000000,4.000000,4.000000,4.000000,4.000000,4.000000,,,,,,,,,,,,,,,,,,,,,,,,,,,,,,,,,,,,,,,,,,,,,,,,,,,,,,,,
1577420312.472333,126.000000,0.000000,4258.974121,4275.384766,4217.436035,4144.615234,4217.948730,450.000000,4.000000,,,,0.000000,4.000000,4.000000,4.000000,4.000000,4.000000,,,,,,,,,,,,,,,,,,,,,,,,,,,,,,,,,,,,,,,,,,,,,,,,,,,,,,,,
1577420312.480029,127.000000,0.000000,4243.077148,4250.256348,4200.512695,4127.692383,4201.538574,236.000000,4.000000,,,,0.000000,4.000000,4.000000,4.000000,4.000000,4.000000,,,,,,,,,,,,,,,,,,,,,,,,,,,,,,,,,,,,,,,,,,,,,,,,,,,,,,,,
1577420312.487926,0.000000,0.000000,4248.717773,4261.025879,4203.589844,4035.897461,4207.179688,450.000000,4.000000,,,,0.000000,4.000000,4.000000,4.000000,4.000000,4.000000,,,,,,,,,,,,,,,,,,,,,,,,,,,,,,,,,,,,,,,,,,,,,,,,,,,,,,,,
1577420312.495723,1.000000,0.000000,4242.563965,4260.000000,4200.512695,4101.025879,4199.487305,450.000000,4.000000,,,,0.000000,4.000000,4.000000,4.000000,4.000000,4.000000,,,,,,,,,,,,,,,,,,,,,,,,,,,,,,,,,,,,,,,,,,,,,,,,,,,,,,,,
1577420312.503619,2.000000,0.000000,4231.794922,4216.410156,4195.897461,4243.589844,4187.179688,16221.000000,4.000000,,,,0.000000,4.000000,4.000000,4.000000,4.000000,4.000000,,,,,,,,,,,,,,,,,,,,,,,,,,,,,,,,,,,,,,,,,,,,,,,,,,,,,,,,
1577420312.511416,3.000000,0.000000,4235.897461,4240.000000,4200.000000,4166.666504,4189.230957,450.000000,4.000000,,,,0.000000,4.000000,4.000000,4.000000,4.000000,4.000000,,,,,,,,,,,,,,,,,,,,,,,,,,,,,,,,,,,,,,,,,,,,,,,,,,,,,,,,
1577420312.519313,4.000000,0.000000,4249.230957,4288.717773,4208.205078,4042.564209,4196.922852,16195.000000,4.000000,,,,0.000000,4.000000,4.000000,4.000000,4.000000,4.000000,,,,,,,,,,,,,,,,,,,,,,,,,,,,,,,,46.857906,6.912367,3.238520,3.499454,1.656145,5.312892,2.176887,0.593859,2.440098,4.133887,6.250456,2.937687,1.685279,2.064562,1.158496,8.446368,6.140293,4.419462,45.526409,77.677208,24.676762,1.998014,2.319051,3.341532,1.484724
1577420312.527110,5.000000,0.000000,4255.897461,4267.179688,4212.307617,4131.794922,4203.077148,450.000000,4.000000,,,,0.000000,4.000000,4.000000,4.000000,4.000000,4.000000,,,,,,,,,,,,,,,,,,,,,,,,,,,,,,,,,,,,,,,,,,,,,,,,,,,,,,,,
1577420312.535006,6.000000,0.000000,4247.692383,4235.384766,4206.666504,4217.948730,4197.948730,16173.000000,4.000000,,,,0.000000,4.000000,4.000000,4.000000,4.000000,4.000000,,,,,,,,,,,,,,,,,,,,,,,,,,,,,,,,,,,,,,,,,,,,,,,,,,,,,,,,
1577420312.542803,7.000000,0.000000,4243.589844,4249.230957,4207.179688,4174.871582,4185.128418,450.000000,4.000000,,,,0.000000,4.000000,4.000000,4.000000,4.000000,4.000000,,,,,,,,,,,,,,,,,,,,,,,,,,,,,,,,,,,,,,,,,,,,,,,,,,,,,,,,
1577420312.550500,8.000000,0.000000,4255.384766,4263.077148,4222.051270,4080.000000,4191.282227,450.000000,4.000000,,,,0.000000,4.000000,4.000000,4.000000,4.000000,4.000000,,,,,,,,,,,,,,,,,,,,,,,,,,,,,,,,,,,,,,,,,,,,,,,,,,,,,,,,
1577420312.558297,9.000000,0.000000,4270.256348,4280.512695,4233.333496,4060.512939,4211.282227,16139.000000,4.000000,,,,0.000000,4.000000,4.000000,4.000000,4.000000,4.000000,,,,,,,,,,,,,,,,,,,,,,,,,,,,,,,,,,,,,,,,,,,,,,,,,,,,,,,,
1577420312.565994,10.000000,0.000000,4273.846191,4283.589844,4231.794922,4245.128418,4211.282227,450.000000,4.000000,,,,0.000000,4.000000,4.000000,4.000000,4.000000,4.000000,,,,,,,,,,,,,,,,,,,,,,,,,,,,,,,,,,,,,,,,,,,,,,,,,,,,,,,,
1577420312.573790,11.000000,0.000000,4263.589844,4250.769043,4229.743652,4262.051270,4200.000000,16218.000000,4.000000,,,,0.000000,4.000000,4.000000,4.000000,4.000000,4.000000,,,,,,,,,,,,,,,,,,,,,,,,,,,,,,,,,,,,,,,,,,,,,,,,,,,,,,,,
1577420312.581487,12.000000,0.000000,4260.512695,4254.871582,4235.897461,4031.794922,4206.666504,450.000000,4.000000,,,,0.000000,4.000000,4.000000,4.000000,4.000000,4.000000,,,,,,,,,,,,,,,,,,,,,,,,,,,,,,,,,,,,,,,,,,,,,,,,,,,,,,,,
1577420312.589384,13.000000,0.000000,4269.230957,4271.282227,4236.922852,4103.589844,4213.333496,450.000000,4.000000,,,,0.000000,4.000000,4.000000,4.000000,4.000000,4.000000,,,,,,,,,,,,,,,,,,,,,,,,,,,,,,,,,,,,,,,,,,,,,,,,,,,,,,,,
1577420312.597181,14.000000,0.000000,4269.743652,4260.000000,4229.743652,4326.153809,4204.615234,450.000000,4.000000,,,,0.000000,4.000000,4.000000,4.000000,4.000000,4.000000,,,,,,,,,,,,,,,,,,,,,,,,,,,,,,,,,,,,,,,,,,,,,,,,,,,,,,,,
1577420312.604978,15.000000,0.000000,4267.692383,4265.641113,4231.282227,4177.436035,4201.025879,16218.000000,4.000000,,,,0.000000,4.000000,4.000000,4.000000,4.000000,4.000000,,,,,,,,,,,,,,,,,,,,,,,,,,,,,,,,,,,,,,,,,,,,,,,,,,,,,,,,
1577420312.612775,16.000000,0.000000,4271.794922,4273.333496,4237.948730,4067.179443,4209.743652,0.000000,4.000000,,,,0.000000,4.000000,4.000000,4.000000,4.000000,4.000000,,,,,,,,,,,,,,,,,,,,,,,,,,,,,,,,,,,,,,,,,,,,,,,,,,,,,,,,
1577420312.620672,17.000000,0.000000,4271.794922,4265.641113,4240.512695,4179.487305,4206.666504,0.000000,4.000000,,,,0.000000,4.000000,4.000000,4.000000,4.000000,4.000000,,,,,,,,,,,,,,,,,,,,,,,,,,,,,,,,,,,,,,,,,,,,,,,,,,,,,,,,
1577420312.628568,18.000000,0.000000,4269.743652,4268.205078,4240.000000,4111.794922,4198.461426,0.000000,4.000000,,,,0.000000,4.000000,4.000000,4.000000,4.000000,4.000000,,,,,,,,,,,,,,,,,,,,,,,,,,,,,,,,,,,,,,,,,,,,,,,,,,,,,,,,
1577420312.636365,19.000000,0.000000,4276.410156,4268.717773,4239.487305,4135.897461,4207.179688,0.000000,4.000000,,,,0.000000,4.000000,4.000000,4.000000,4.000000,4.000000,,,,,,,,,,,,,,,,,,,,,,,,,,,,,,,,,,,,,,,,,,,,,,,,,,,,,,,,
1577420312.644262,20.000000,0.000000,4278.974121,4262.051270,4236.922852,4290.769043,4214.871582,0.000000,4.000000,,,,0.000000,4.000000,4.000000,4.000000,4.000000,4.000000,,,,,,,,,,,,,,,,,,,,,,,,,,,,,,,,43.663258,8.477058,2.958201,3.607749,1.879030,5.943067,2.091071,0.649373,2.777809,4.641056,6.572239,2.610571,1.824448,2.192839,1.292084,7.929908,5.134475,3.601882,44.204964,73.059021,15.898673,1.380803,2.339659,3.128882,1.728731
1577420312.652059,21.000000,0.000000,4274.871582,4287.692383,4232.307617,4156.922852,4210.256348,0.000000,4.000000,,,,0.000000,4.000000,4.000000,4.000000,4.000000,4.000000,,,,,,,,,,,,,,,,,,,,,,,,,,,,,,,,,,,,,,,,,,,,,,,,,,,,,,,,
1577420312.659955,22.000000,0.000000,4278.461426,4293.333496,4232.307617,4046.153809,4215.897461,0.000000,4.000000,,,,0.000000,4.000000,4.000000,4.000000,4.000000,4.000000,,,,,,,,,,,,,,,,,,,,,,,,,,,,,,,,,,,,,,,,,,,,,,,,,,,,,,,,
1577420312.667752,23.000000,0.000000,4270.769043,4244.615234,4228.205078,4177.948730,4211.282227,0.000000,4.000000,,,,0.000000,4.000000,4.000000,4.000000,4.000000,4.000000,,,,,,,,,,,,,,,,,,,,,,,,,,,,,,,,,,,,,,,,,,,,,,,,,,,,,,,,
1577420312.675649,24.000000,0.000000,4251.282227,4238.461426,4215.897461,4180.000000,4193.846191,0.000000,4.000000,,,,0.000000,4.000000,4.000000,4.000000,4.000000,4.000000,,,,,,,,,,,,,,,,,,,,,,,,,,,,,,,,,,,,,,,,,,,,,,,,,,,,,,,,
1577420312.683446,25.000000,0.000000,4249.743652,4257.436035,4210.769043,4135.384766,4185.641113,0.000000,4.000000,,,,0.000000,4.000000,4.000000,4.000000,4.000000,4.000000,,,,,,,,,,,,,,,,,,,,,,,,,,,,,,,,,,,,,,,,,,,,,,,,,,,,,,,,
1577420312.691342,26.000000,0.000000,4262.051270,4244.102539,4217.436035,4175.384766,4192.307617,0.000000,4.000000,,,,0.000000,4.000000,4.000000,4.000000,4.000000,4.000000,,,,,,,,,,,,,,,,,,,,,,,,,,,,,,,,,,,,,,,,,,,,,,,,,,,,,,,,
1577420312.699239,27.000000,0.000000,4257.948730,4261.025879,4218.461426,4131.794922,4192.820313,0.000000,4.000000,,,,0.000000,4.000000,4.000000,4.000000,4.000000,4.000000,,,,,,,,,,,,,,,,,,,,,,,,,,,,,,,,,,,,,,,,,,,,,,,,,,,,,,,,
1577420312.707036,28.000000,0.000000,4248.717773,4287.692383,4211.794922,4129.230957,4184.102539,0.000000,4.000000,,,,0.000000,4.000000,4.000000,4.000000,4.000000,4.000000,,,,,,,,,,,,,,,,,,,,,,,,,,,,,,,,,,,,,,,,,,,,,,,,,,,,,,,,
1577420312.714832,29.000000,0.000000,4250.769043,4240.000000,4210.256348,4117.436035,4187.692383,0.000000,4.000000,,,,0.000000,4.000000,4.000000,4.000000,4.000000,4.000000,,,,,,,,,,,,,,,,,,,,,,,,,,,,,,,,,,,,,,,,,,,,,,,,,,,,,,,,
1577420312.722729,30.000000,0.000000,4242.563965,4234.871582,4205.641113,4044.102539,4182.563965,0.000000,4.000000,,,,0.000000,4.000000,4.000000,4.000000,4.000000,4.000000,,,,,,,,,,,,,,,,,,,,,,,,,,,,,,,,,,,,,,,,,,,,,,,,,,,,,,,,
1577420312.730626,31.000000,0.000000,4234.358887,4277.948730,4198.974121,4161.025879,4173.333496,0.000000,4.000000,,,,0.000000,4.000000,4.000000,4.000000,4.000000,4.000000,,,,,,,,,,,,,,,,,,,,,,,,,,,,,,,,,,,,,,,,,,,,,,,,,,,,,,,,
1577420312.738422,32.000000,0.000000,4243.589844,4230.256348,4198.974121,4267.692383,4188.205078,0.000000,4.000000,,,,0.000000,4.000000,4.000000,4.000000,4.000000,4.000000,,,,,,,,,,,,,,,,,,,,,,,,,,,,,,,,,,,,,,,,,,,,,,,,,,,,,,,,
1577420312.746219,33.000000,0.000000,4243.589844,4212.820313,4197.948730,4058.461426,4193.333496,0.000000,4.000000,,,,0.000000,4.000000,4.000000,4.000000,4.000000,4.000000,,,,,,,,,,,,,,,,,,,,,,,,,,,,,,,,,,,,,,,,,,,,,,,,,,,,,,,,
1577420312.754116,34.000000,0.000000,4239.487305,4272.307617,4195.897461,3983.589844,4181.025879,0.000000,4.000000,,,,0.000000,4.000000,4.000000,4.000000,4.000000,4.000000,,,,,,,,,,,,,,,,,,,,,,,,,,,,,,,,,,,,,,,,,,,,,,,,,,,,,,,,
