title:d0, start timestamp:2019-12-27T08:02:40.198574+03:00, stop timestamp:2019-12-27T08:03:10.059073+03:00, headset type:INSIGHT, headset serial:A2D200FB, headset firmware:930, subject name:Qasim, channels:44, sampling rate:eeg_128;pow_8, samples:3828      , version:2.0
Timestamp,EEG.Counter,EEG.Interpolated,EEG.AF3,EEG.T7,EEG.Pz,EEG.T8,EEG.AF4,EEG.RawCq,EEG.Battery,MarkerIndex,MarkerType,MarkerValueInt,EEG.MarkerHardware,CQ.AF3,CQ.T7,CQ.Pz,CQ.T8,CQ.AF4,POW.AF3.Theta,POW.AF3.Alpha,POW.AF3.BetaL,POW.AF3.BetaH,POW.AF3.Gamma,POW.T7.Theta,POW.T7.Alpha,POW.T7.BetaL,POW.T7.BetaH,POW.T7.Gamma,POW.Pz.Theta,POW.Pz.Alpha,POW.Pz.BetaL,POW.Pz.BetaH,POW.Pz.Gamma,POW.T8.Theta,POW.T8.Alpha,POW.T8.BetaL,POW.T8.BetaH,POW.T8.Gamma,POW.AF4.Theta,POW.AF4.Alpha,POW.AF4.BetaL,POW.AF4.BetaH,POW.AF4.Gamma
1577422960.198574,48.000000,0.000000,4320.000000,4299.487305,4348.717773,4113.846191,4601.025879,0.000000,3.000000,,,,0.000000,4.000000,4.000000,4.000000,4.000000,4.000000,,,,,,,,,,,,,,,,,,,,,,,,,
1577422960.206271,49.000000,0.000000,4307.179688,4295.384766,4354.358887,4145.641113,4627.179688,0.000000,3.000000,,,,0.000000,4.000000,4.000000,4.000000,4.000000,4.000000,,,,,,,,,,,,,,,,,,,,,,,,,
1577422960.214067,50.000000,0.000000,4303.589844,4284.615234,4352.307617,4163.077148,4622.051270,0.000000,3.000000,,,,0.000000,4.000000,4.000000,4.000000,4.000000,4.000000,50.559628,25.984760,4.217336,4.527559,21.887444,6.314311,4.550819,2.790577,3.548308,16.329407,39.634590,11.018479,4.253673,2.820978,14.351726,15.045867,4.664163,3.523592,6.665005,25.099302,12.448552,15.675096,3.543242,3.237476,20.874216
1577422960.221864,51.000000,0.000000,4308.717773,4280.512695,4351.282227,4145.641113,4615.897461,0.000000,3.000000,,,,0.000000,4.000000,4.000000,4.000000,4.000000,4.000000,,,,,,,,,,,,,,,,,,,,,,,,,
1577422960.229560,52.000000,0.000000,4316.410156,4292.307617,4357.436035,4152.820313,4639.487305,0.000000,3.000000,,,,0.000000,4.000000,4.000000,4.000000,4.000000,4.000000,,,,,,,,,,,,,,,,,,,,,,,,,
1577422960.237257,53.000000,0.000000,4317.948730,4296.410156,4362.563965,4173.333496,4661.025879,0.000000,3.000000,,,,0.000000,4.000000,4.000000,4.000000,4.000000,4.000000,,,,,,,,,,,,,,,,,,,,,,,,,
1577422960.245053,54.000000,0.000000,4326.666504,4298.974121,4366.666504,4171.282227,4671.794922,0.000000,3.000000,,,,0.000000,4.000000,4.000000,4.000000,4.000000,4.000000,,,,,,,,,,,,,,,,,,,,,,,,,
1577422960.252750,55.000000,0.000000,4306.666504,4302.563965,4354.358887,4155.897461,4660.512695,0.000000,3.000000,,,,0.000000,4.000000,4.000000,4.000000,4.000000,4.000000,,,,,,,,,,,,,,,,,,,,,,,,,
1577422960.260546,56.000000,0.000000,4279.487305,4296.922852,4345.128418,4141.538574,4655.384766,0.000000,3.000000,,,,0.000000,4.000000,4.000000,4.000000,4.000000,4.000000,,,,,,,,,,,,,,,,,,,,,,,,,
1577422960.268243,57.000000,0.000000,4279.487305,4281.538574,4336.410156,4124.102539,4650.769043,0.000000,3.000000,,,,0.000000,4.000000,4.000000,4.000000,4.000000,4.000000,,,,,,,,,,,,,,,,,,,,,,,,,
1577422960.276039,58.000000,0.000000,4280.000000,4275.897461,4325.128418,4120.512695,4640.000000,0.000000,3.000000,,,,0.000000,4.000000,4.000000,4.000000,4.000000,4.000000,,,,,,,,,,,,,,,,,,,,,,,,,
1577422960.283836,59.000000,0.000000,4286.153809,4287.179688,4325.128418,4135.384766,4664.615234,0.000000,3.000000,,,,0.000000,4.000000,4.000000,4.000000,4.000000,4.000000,,,,,,,,,,,,,,,,,,,,,,,,,
1577422960.291532,60.000000,0.000000,4282.051270,4280.000000,4313.333496,4144.102539,4671.794922,0.000000,3.000000,,,,0.000000,4.000000,4.000000,4.000000,4.000000,4.000000,,,,,,,,,,,,,,,,,,,,,,,,,
1577422960.299229,61.000000,0.000000,4280.512695,4280.000000,4311.282227,4156.922852,4662.563965,0.000000,3.000000,,,,0.000000,4.000000,4.000000,4.000000,4.000000,4.000000,,,,,,,,,,,,,,,,,,,,,,,,,
1577422960.307025,62.000000,0.000000,4283.589844,4285.128418,4318.461426,4160.512695,4676.410156,0.000000,3.000000,,,,0.000000,4.000000,4.000000,4.000000,4.000000,4.000000,,,,,,,,,,,,,,,,,,,,,,,,,
1577422960.314722,63.000000,0.000000,4263.589844,4274.871582,4315.384766,4154.871582,4674.871582,0.000000,3.000000,,,,0.000000,4.000000,4.000000,4.000000,4.000000,4.000000,,,,,,,,,,,,,,,,,,,,,,,,,
1577422960.322518,64.000000,0.000000,4259.487305,4292.307617,4322.563965,4166.153809,4678.461426,450.000000,3.000000,,,,0.000000,4.000000,4.000000,4.000000,4.000000,4.000000,,,,,,,,,,,,,,,,,,,,,,,,,
1577422960.330215,65.000000,0.000000,4268.717773,4309.743652,4329.743652,4172.820313,4703.077148,450.000000,3.000000,,,,0.000000,4.000000,4.000000,4.000000,4.000000,4.000000,,,,,,,,,,,,,,,,,,,,,,,,,
1577422960.338011,66.000000,0.000000,4277.436035,4292.820313,4341.025879,4186.666504,4723.589844,16193.000000,3.000000,,,,0.000000,4.000000,4.000000,4.000000,4.000000,4.000000,32.768429,24.204914,4.288237,4.729168,18.559492,5.917177,4.130116,2.321172,3.433456,13.875718,41.560127,10.595695,4.395605,2.969395,12.123750,14.442379,4.809484,4.272386,7.128581,21.789703,9.404530,16.403450,4.047222,3.169367,17.663794
1577422960.345707,67.000000,0.000000,4295.897461,4284.615234,4357.948730,4198.974121,4731.794922,450.000000,3.000000,,,,0.000000,4.000000,4.000000,4.000000,4.000000,4.000000,,,,,,,,,,,,,,,,,,,,,,,,,
1577422960.353504,68.000000,0.000000,4291.794922,4294.871582,4357.948730,4193.333496,4723.077148,16186.000000,3.000000,,,,0.000000,4.000000,4.000000,4.000000,4.000000,4.000000,,,,,,,,,,,,,,,,,,,,,,,,,
1577422960.361200,69.000000,0.000000,4283.589844,4307.179688,4351.282227,4181.538574,4721.538574,450.000000,3.000000,,,,0.000000,4.000000,4.000000,4.000000,4.000000,4.000000,,,,,,,,,,,,,,,,,,,,,,,,,
1577422960.368996,70.000000,0.000000,4273.333496,4294.358887,4337.948730,4150.769043,4721.025879,16139.000000,3.000000,,,,0.000000,4.000000,4.000000,4.000000,4.000000,4.000000,,,,,,,,,,,,,,,,,,,,,,,,,
1577422960.376693,71.000000,0.000000,4261.025879,4278.461426,4329.230957,4132.307617,4709.230957,450.000000,3.000000,,,,0.000000,4.000000,4.000000,4.000000,4.000000,4.000000,,,,,,,,,,,,,,,,,,,,,,,,,
1577422960.384389,72.000000,0.000000,4262.051270,4288.717773,4334.358887,4123.077148,4710.769043,450.000000,3.000000,,,,0.000000,4.000000,4.000000,4.000000,4.000000,4.000000,,,,,,,,,,,,,,,,,,,,,,,,,
1577422960.392186,73.000000,0.000000,4249.230957,4297.948730,4340.512695,4121.025879,4709.743652,16166.000000,3.000000,,,,0.000000,4.000000,4.000000,4.000000,4.000000,4.000000,,,,,,,,,,,,,,,,,,,,,,,,,
1577422960.399982,74.000000,0.000000,4255.384766,4312.820313,4354.358887,4156.410156,4723.077148,450.000000,3.000000,,,,0.000000,4.000000,4.000000,4.000000,4.000000,4.000000,,,,,,,,,,,,,,,,,,,,,,,,,
1577422960.407679,75.000000,0.000000,4275.897461,4319.487305,4362.051270,4172.820313,4747.179688,16252.000000,3.000000,,,,0.000000,4.000000,4.000000,4.000000,4.000000,4.000000,,,,,,,,,,,,,,,,,,,,,,,,,
1577422960.415475,76.000000,0.000000,4278.461426,4318.974121,4374.358887,4170.256348,4758.461426,450.000000,3.000000,,,,0.000000,4.000000,4.000000,4.000000,4.000000,4.000000,,,,,,,,,,,,,,,,,,,,,,,,,
1577422960.423171,77.000000,0.000000,4294.871582,4339.487305,4399.487305,4191.794922,4784.102539,450.000000,3.000000,,,,0.000000,4.000000,4.000000,4.000000,4.000000,4.000000,,,,,,,,,,,,,,,,,,,,,,,,,
1577422960.430968,78.000000,0.000000,4299.487305,4323.589844,4387.692383,4193.846191,4783.077148,450.000000,3.000000,,,,0.000000,4.000000,4.000000,4.000000,4.000000,4.000000,,,,,,,,,,,,,,,,,,,,,,,,,
1577422960.438664,79.000000,0.000000,4295.897461,4289.743652,4368.205078,4183.077148,4758.974121,16252.000000,3.000000,,,,0.000000,4.000000,4.000000,4.000000,4.000000,4.000000,,,,,,,,,,,,,,,,,,,,,,,,,
1577422960.446361,80.000000,0.000000,4297.948730,4296.410156,4369.230957,4177.948730,4764.615234,450.000000,3.000000,,,,0.000000,4.000000,4.000000,4.000000,4.000000,4.000000,,,,,,,,,,,,,,,,,,,,,,,,,
1577422960.454157,81.000000,0.000000,4291.282227,4305.641113,4358.461426,4165.641113,4768.205078,450.000000,3.000000,,,,0.000000,4.000000,4.000000,4.000000,4.000000,4.000000,,,,,,,,,,,,,,,,,,,,,,,,,
1577422960.461954,82.000000,0.000000,4299.487305,4300.000000,4346.666504,4161.025879,4763.077148,450.000000,3.000000,,,,0.000000,4.000000,4.000000,4.000000,4.000000,4.000000,22.662834,20.270195,4.346627,4.732769,13.902635,5.574110,3.539966,1.920642,3.062726,10.423696,39.620125,9.474553,4.400424,3.001100,8.958893,12.858420,4.635748,4.788805,6.992669,16.782675,8.236073,15.729080,4.731441,3.027274,13.199285
1577422960.469650,83.000000,0.000000,4294.358887,4283.589844,4338.461426,4168.717773,4748.717773,16252.000000,3.000000,,,,0.000000,4.000000,4.000000,4.000000,4.000000,4.000000,,,,,,,,,,,,,,,,,,,,,,,,,
1577422960.477347,84.000000,0.000000,4281.538574,4289.743652,4338.461426,4174.358887,4744.102539,450.000000,3.000000,,,,0.000000,4.000000,4.000000,4.000000,4.000000,4.000000,,,,,,,,,,,,,,,,,,,,,,,,,
1577422960.485143,85.000000,0.000000,4292.307617,4302.051270,4332.820313,4161.025879,4755.897461,450.000000,3.000000,,,,0.000000,4.000000,4.000000,4.000000,4.000000,4.000000,,,,,,,,,,,,,,,,,,,,,,,,,
1577422960.492840,86.000000,0.000000,4279.487305,4273.333496,4318.461426,4156.410156,4751.794922,450.000000,3.000000,,,,0.000000,4.000000,4.000000,4.000000,4.000000,4.000000,,,,,,,,,,,,,,,,,,,,,,,,,
1577422960.500536,87.000000,0.000000,4269.230957,4266.153809,4338.461426,4164.615234,4759.487305,16252.000000,3.000000,,,,0.000000,4.000000,4.000000,4.000000,4.000000,4.000000,,,,,,,,,,,,,,,,,,,,,,,,,
1577422960.508333,88.000000,0.000000,4275.897461,4278.461426,4336.410156,4142.051270,4768.717773,450.000000,3.000000,,,,0.000000,4.000000,4.000000,4.000000,4.000000,4.000000,,,,,,,,,,,,,,,,,,,,,,,,,
1577422960.516130,89.000000,0.000000,4258.461426,4273.333496,4297.948730,4124.615234,4751.282227,450.000000,3.000000,,,,0.000000,4.000000,4.000000,4.000000,4.000000,4.000000,,,,,,,,,,,,,,,,,,,,,,,,,
1577422960.523826,90.000000,0.000000,4246.153809,4276.410156,4284.615234,4138.974121,4743.589844,450.000000,3.000000,,,,0.000000,4.000000,4.000000,4.000000,4.000000,4.000000,,,,,,,,,,,,,,,,,,,,,,,,,
1577422960.531622,91.000000,0.000000,4254.871582,4278.974121,4276.922852,4153.333496,4763.589844,16252.000000,3.000000,,,,0.000000,4.000000,4.000000,4.000000,4.000000,4.000000,,,,,,,,,,,,,,,,,,,,,,,,,
1577422960.539319,92.000000,0.000000,4284.102539,4291.794922,4285.641113,4163.589844,4794.871582,450.000000,3.000000,,,,0.000000,4.000000,4.000000,4.000000,4.000000,4.000000,,,,,,,,,,,,,,,,,,,,,,,,,
1577422960.547115,93.000000,0.000000,4288.717773,4295.384766,4281.538574,4143.077148,4786.153809,450.000000,3.000000,,,,0.000000,4.000000,4.000000,4.000000,4.000000,4.000000,,,,,,,,,,,,,,,,,,,,,,,,,
1577422960.554811,94.000000,0.000000,4233.846191,4254.358887,4235.897461,4130.256348,4736.410156,450.000000,3.000000,,,,0.000000,4.000000,4.000000,4.000000,4.000000,4.000000,,,,,,,,,,,,,,,,,,,,,,,,,
1577422960.562608,95.000000,0.000000,4356.410156,4351.794922,4328.717773,4231.794922,4850.256348,16252.000000,3.000000,,,,0.000000,4.000000,4.000000,4.000000,4.000000,4.000000,,,,,,,,,,,,,,,,,,,,,,,,,
1577422960.570304,96.000000,0.000000,4338.974121,4316.410156,4265.128418,4095.384521,4801.025879,450.000000,3.000000,,,,0.000000,4.000000,4.000000,4.000000,4.000000,4.000000,,,,,,,,,,,,,,,,,,,,,,,,,
1577422960.578100,97.000000,0.000000,4079.487061,4109.743652,4081.025635,4050.769287,4566.666504,450.000000,3.000000,,,,0.000000,4.000000,4.000000,4.000000,4.000000,4.000000,,,,,,,,,,,,,,,,,,,,,,,,,
1577422960.585797,98.000000,0.000000,4451.794922,4450.256348,4408.205078,4390.256348,4933.846191,450.000000,3.000000,,,,0.000000,4.000000,4.000000,4.000000,4.000000,4.000000,16.972500,14.987461,4.204458,4.656806,9.099318,5.372442,2.885164,1.673978,2.579289,6.847672,34.872364,7.853834,4.141562,2.947884,5.678018,10.328328,4.149907,4.800621,6.361402,11.398815,8.328723,13.667576,5.201228,2.892148,8.598139
1577422960.593593,99.000000,0.000000,4462.051270,4434.358887,4325.128418,4030.769287,4874.871582,16252.000000,3.000000,,,,0.000000,4.000000,4.000000,4.000000,4.000000,4.000000,,,,,,,,,,,,,,,,,,,,,,,,,
1577422960.601289,100.000000,0.000000,4103.589844,4125.641113,4071.794922,3945.641113,4525.128418,450.000000,3.000000,,,,0.000000,4.000000,4.000000,4.000000,4.000000,4.000000,,,,,,,,,,,,,,,,,,,,,,,,,
1577422960.609086,101.000000,0.000000,4426.153809,4404.102539,4368.205078,4422.563965,4867.692383,450.000000,3.000000,,,,0.000000,4.000000,4.000000,4.000000,4.000000,4.000000,,,,,,,,,,,,,,,,,,,,,,,,,
1577422960.616782,102.000000,0.000000,4393.846191,4356.922852,4271.282227,4180.000000,4806.666504,450.000000,3.000000,,,,0.000000,4.000000,4.000000,4.000000,4.000000,4.000000,,,,,,,,,,,,,,,,,,,,,,,,,
1577422960.624479,103.000000,0.000000,4254.871582,4241.025879,4173.333496,4107.692383,4670.256348,16252.000000,3.000000,,,,0.000000,4.000000,4.000000,4.000000,4.000000,4.000000,,,,,,,,,,,,,,,,,,,,,,,,,
1577422960.632275,104.000000,0.000000,4378.461426,4333.333496,4272.307617,4231.794922,4790.256348,450.000000,3.000000,,,,0.000000,4.000000,4.000000,4.000000,4.000000,4.000000,,,,,,,,,,,,,,,,,,,,,,,,,
1577422960.639972,105.000000,0.000000,4295.384766,4263.589844,4186.153809,4144.615234,4684.615234,450.000000,3.000000,,,,0.000000,4.000000,4.000000,4.000000,4.000000,4.000000,,,,,,,,,,,,,,,,,,,,,,,,,
1577422960.647768,106.000000,0.000000,4303.077148,4291.794922,4192.820313,4190.769043,4692.820313,450.000000,3.000000,,,,0.000000,4.000000,4.000000,4.000000,4.000000,4.000000,,,,,,,,,,,,,,,,,,,,,,,,,
1577422960.655465,107.000000,0.000000,4298.974121,4283.077148,4174.871582,4163.077148,4693.846191,16252.000000,3.000000,,,,0.000000,4.000000,4.000000,4.000000,4.000000,4.000000,,,,,,,,,,,,,,,,,,,,,,,,,
1577422960.663261,108.000000,0.000000,4286.666504,4267.692383,4162.563965,4170.769043,4672.820313,450.000000,3.000000,,,,0.000000,4.000000,4.000000,4.000000,4.000000,4.000000,,,,,,,,,,,,,,,,,,,,,,,,,
1577422960.670958,109.000000,0.000000,4298.461426,4286.153809,4170.256348,4181.538574,4671.282227,450.000000,3.000000,,,,0.000000,4.000000,4.000000,4.000000,4.000000,4.000000,,,,,,,,,,,,,,,,,,,,,,,,,
1577422960.678755,110.000000,0.000000,4275.897461,4278.974121,4153.846191,4137.436035,4640.512695,450.000000,3.000000,,,,0.000000,4.000000,4.000000,4.000000,4.000000,4.000000,,,,,,,,,,,,,,,,,,,,,,,,,
1577422960.686451,111.000000,0.000000,4288.205078,4294.871582,4170.769043,4168.717773,4652.307617,16252.000000,3.000000,,,,0.000000,4.000000,4.000000,4.000000,4.000000,4.000000,,,,,,,,,,,,,,,,,,,,,,,,,
1577422960.694248,112.000000,0.000000,4316.922852,4311.282227,4194.358887,4227.692383,4672.307617,450.000000,3.000000,,,,0.000000,4.000000,4.000000,4.000000,4.000000,4.000000,,,,,,,,,,,,,,,,,,,,,,,,,
1577422960.701944,113.000000,0.000000,4320.512695,4306.153809,4190.256348,4217.948730,4645.128418,450.000000,3.000000,,,,0.000000,4.000000,4.000000,4.000000,4.000000,4.000000,,,,,,,,,,,,,,,,,,,,,,,,,
1577422960.709740,114.000000,0.000000,4313.333496,4301.538574,4175.897461,4170.256348,4608.717773,450.000000,3.000000,,,,0.000000,4.000000,4.000000,4.000000,4.000000,4.000000,13.653937,9.637084,3.905014,4.602050,5.246920,5.319824,2.282260,1.631645,2.127426,3.969055,29.028076,6.107100,3.736690,2.837783,3.055161,7.917265,3.670093,4.394338,5.511776,6.958377,8.798726,10.906890,5.288350,2.820550,4.905770
1577422960.717437,115.000000,0.000000,4303.077148,4293.333496,4165.128418,4143.589844,4589.230957,16252.000000,3.000000,,,,0.000000,4.000000,4.000000,4.000000,4.000000,4.000000,,,,,,,,,,,,,,,,,,,,,,,,,
1577422960.725233,116.000000,0.000000,4307.179688,4296.410156,4178.974121,4164.615234,4592.307617,450.000000,3.000000,,,,0.000000,4.000000,4.000000,4.000000,4.000000,4.000000,,,,,,,,,,,,,,,,,,,,,,,,,
1577422960.732930,117.000000,0.000000,4311.794922,4310.256348,4186.666504,4183.589844,4590.769043,450.000000,3.000000,,,,0.000000,4.000000,4.000000,4.000000,4.000000,4.000000,,,,,,,,,,,,,,,,,,,,,,,,,
1577422960.740726,118.000000,0.000000,4304.102539,4301.538574,4153.846191,4167.692383,4568.205078,450.000000,3.000000,,,,0.000000,4.000000,4.000000,4.000000,4.000000,4.000000,,,,,,,,,,,,,,,,,,,,,,,,,
1577422960.748422,119.000000,0.000000,4302.563965,4294.358887,4142.563965,4164.102539,4559.487305,16252.000000,3.000000,,,,0.000000,4.000000,4.000000,4.000000,4.000000,4.000000,,,,,,,,,,,,,,,,,,,,,,,,,
1577422960.756218,120.000000,0.000000,4289.743652,4304.102539,4156.410156,4171.794922,4551.794922,450.000000,3.000000,,,,0.000000,4.000000,4.000000,4.000000,4.000000,4.000000,,,,,,,,,,,,,,,,,,,,,,,,,
1577422960.763915,121.000000,0.000000,4291.794922,4315.897461,4156.922852,4168.717773,4555.897461,450.000000,3.000000,,,,0.000000,4.000000,4.000000,4.000000,4.000000,4.000000,,,,,,,,,,,,,,,,,,,,,,,,,
1577422960.771612,122.000000,0.000000,4292.820313,4293.333496,4134.871582,4146.666504,4550.769043,450.000000,3.000000,,,,0.000000,4.000000,4.000000,4.000000,4.000000,4.000000,,,,,,,,,,,,,,,,,,,,,,,,,
1577422960.779408,123.000000,0.000000,4272.820313,4266.666504,4122.563965,4132.820313,4519.487305,16252.000000,3.000000,,,,0.000000,4.000000,4.000000,4.000000,4.000000,4.000000,,,,,,,,,,,,,,,,,,,,,,,,,
1577422960.787105,124.000000,0.000000,4273.846191,4297.948730,4138.461426,4146.666504,4517.436035,450.000000,3.000000,,,,0.000000,4.000000,4.000000,4.000000,4.000000,4.000000,,,,,,,,,,,,,,,,,,,,,,,,,
1577422960.794901,125.000000,0.000000,4269.230957,4314.871582,4140.512695,4137.436035,4512.307617,450.000000,3.000000,,,,0.000000,4.000000,4.000000,4.000000,4.000000,4.000000,,,,,,,,,,,,,,,,,,,,,,,,,
1577422960.802598,126.000000,0.000000,4271.282227,4303.589844,4153.846191,4140.512695,4498.974121,450.000000,3.000000,,,,0.000000,4.000000,4.000000,4.000000,4.000000,4.000000,,,,,,,,,,,,,,,,,,,,,,,,,
1577422960.810394,127.000000,0.000000,4294.871582,4314.358887,4180.512695,4162.563965,4505.128418,233.000000,3.000000,,,,0.000000,4.000000,4.000000,4.000000,4.000000,4.000000,,,,,,,,,,,,,,,,,,,,,,,,,
1577422960.818091,0.000000,0.000000,4292.307617,4309.743652,4173.846191,4149.230957,4497.436035,450.000000,3.000000,,,,0.000000,4.000000,4.000000,4.000000,4.000000,4.000000,,,,,,,,,,,,,,,,,,,,,,,,,
1577422960.825887,1.000000,0.000000,4278.974121,4289.743652,4163.077148,4136.410156,4488.205078,450.000000,3.000000,,,,0.000000,4.000000,4.000000,4.000000,4.000000,4.000000,,,,,,,,,,,,,,,,,,,,,,,,,
1577422960.833684,2.000000,0.000000,4271.282227,4286.666504,4164.615234,4130.769043,4480.512695,16176.000000,3.000000,,,,0.000000,4.000000,4.000000,4.000000,4.000000,4.000000,11.277383,5.375217,3.547286,4.572607,3.240759,5.515383,1.843228,1.764303,1.788717,2.469861,23.384239,4.696724,3.337933,2.674795,1.716405,5.896595,3.636106,3.848202,4.723806,4.609333,9.421757,8.374671,4.975187,2.815821,2.998085
1577422960.841380,3.000000,0.000000,4262.051270,4284.615234,4164.102539,4131.282227,4481.025879,450.000000,3.000000,,,,0.000000,4.000000,4.000000,4.000000,4.000000,4.000000,,,,,,,,,,,,,,,,,,,,,,,,,
1577422960.849177,4.000000,0.000000,4261.538574,4277.948730,4164.615234,4163.589844,4503.589844,16171.000000,3.000000,,,,0.000000,4.000000,4.000000,4.000000,4.000000,4.000000,,,,,,,,,,,,,,,,,,,,,,,,,
1577422960.856873,5.000000,0.000000,4255.384766,4284.102539,4163.077148,4186.153809,4512.307617,450.000000,3.000000,,,,0.000000,4.000000,4.000000,4.000000,4.000000,4.000000,,,,,,,,,,,,,,,,,,,,,,,,,
1577422960.864669,6.000000,0.000000,4258.974121,4295.384766,4173.846191,4183.589844,4527.179688,16173.000000,3.000000,,,,0.000000,4.000000,4.000000,4.000000,4.000000,4.000000,,,,,,,,,,,,,,,,,,,,,,,,,
1577422960.872366,7.000000,0.000000,4267.179688,4284.615234,4184.615234,4187.179688,4551.282227,450.000000,3.000000,,,,0.000000,4.000000,4.000000,4.000000,4.000000,4.000000,,,,,,,,,,,,,,,,,,,,,,,,,
1577422960.880062,8.000000,0.000000,4257.436035,4278.974121,4180.512695,4206.153809,4557.436035,450.000000,3.000000,,,,0.000000,4.000000,4.000000,4.000000,4.000000,4.000000,,,,,,,,,,,,,,,,,,,,,,,,,
1577422960.887859,9.000000,0.000000,4257.948730,4303.077148,4184.102539,4220.000000,4563.589844,16173.000000,3.000000,,,,0.000000,4.000000,4.000000,4.000000,4.000000,4.000000,,,,,,,,,,,,,,,,,,,,,,,,,
1577422960.895556,10.000000,0.000000,4274.871582,4313.333496,4191.794922,4227.692383,4578.461426,450.000000,3.000000,,,,0.000000,4.000000,4.000000,4.000000,4.000000,4.000000,,,,,,,,,,,,,,,,,,,,,,,,,
1577422960.903352,11.000000,0.000000,4300.512695,4310.769043,4193.333496,4253.846191,4597.948730,16187.000000,3.000000,,,,0.000000,4.000000,4.000000,4.000000,4.000000,4.000000,,,,,,,,,,,,,,,,,,,,,,,,,
1577422960.911048,12.000000,0.000000,4296.922852,4291.282227,4178.461426,4251.282227,4591.282227,450.000000,3.000000,,,,0.000000,4.000000,4.000000,4.000000,4.000000,4.000000,,,,,,,,,,,,,,,,,,,,,,,,,
1577422960.918845,13.000000,0.000000,4263.077148,4258.461426,4161.025879,4221.025879,4561.025879,450.000000,3.000000,,,,0.000000,4.000000,4.000000,4.000000,4.000000,4.000000,,,,,,,,,,,,,,,,,,,,,,,,,
1577422960.926541,14.000000,0.000000,4263.077148,4264.102539,4176.410156,4235.384766,4558.461426,450.000000,3.000000,,,,0.000000,4.000000,4.000000,4.000000,4.000000,4.000000,,,,,,,,,,,,,,,,,,,,,,,,,
1577422960.934438,15.000000,0.000000,4269.743652,4271.794922,4185.641113,4246.666504,4563.589844,16187.000000,3.000000,,,,0.000000,4.000000,4.000000,4.000000,4.000000,4.000000,,,,,,,,,,,,,,,,,,,,,,,,,
1577422960.942234,16.000000,0.000000,4270.256348,4258.461426,4183.589844,4224.102539,4560.000000,0.000000,3.000000,,,,0.000000,4.000000,4.000000,4.000000,4.000000,4.000000,,,,,,,,,,,,,,,,,,,,,,,,,
1577422960.950031,17.000000,0.000000,4289.743652,4258.461426,4205.128418,4225.641113,4560.000000,0.000000,3.000000,,,,0.000000,4.000000,4.000000,4.000000,4.000000,4.000000,,,,,,,,,,,,,,,,,,,,,,,,,
1577422960.957727,18.000000,0.000000,4301.025879,4246.666504,4204.615234,4235.384766,4560.000000,0.000000,3.000000,,,,0.000000,4.000000,4.000000,4.000000,4.000000,4.000000,10.390585,2.832349,3.230846,4.478496,3.709139,5.881330,1.629556,1.984809,1.572928,2.846272,19.340361,4.045106,3.090400,2.447901,2.094711,4.975486,4.241776,3.495526,4.162609,5.255240,9.743396,6.757539,4.445251,2.824297,3.524693
1577422960.965523,19.000000,0.000000,4326.666504,4230.769043,4187.179688,4231.282227,4580.512695,0.000000,3.000000,,,,0.000000,4.000000,4.000000,4.000000,4.000000,4.000000,,,,,,,,,,,,,,,,,,,,,,,,,
1577422960.973220,20.000000,0.000000,4378.461426,4231.794922,4184.615234,4232.820313,4614.871582,0.000000,3.000000,,,,0.000000,4.000000,4.000000,4.000000,4.000000,4.000000,,,,,,,,,,,,,,,,,,,,,,,,,
1577422960.981016,21.000000,0.000000,4419.487305,4227.692383,4167.179688,4228.717773,4638.974121,0.000000,3.000000,,,,0.000000,4.000000,4.000000,4.000000,4.000000,4.000000,,,,,,,,,,,,,,,,,,,,,,,,,
1577422960.988712,22.000000,0.000000,4475.897461,4217.436035,4142.563965,4229.230957,4685.641113,0.000000,3.000000,,,,0.000000,4.000000,4.000000,4.000000,4.000000,4.000000,,,,,,,,,,,,,,,,,,,,,,,,,
1577422960.996509,23.000000,0.000000,4546.153809,4212.307617,4134.358887,4241.025879,4748.717773,0.000000,3.000000,,,,0.000000,4.000000,4.000000,4.000000,4.000000,4.000000,,,,,,,,,,,,,,,,,,,,,,,,,
1577422961.004205,24.000000,0.000000,4596.922852,4228.205078,4141.025879,4249.743652,4799.487305,0.000000,3.000000,,,,0.000000,4.000000,4.000000,4.000000,4.000000,4.000000,,,,,,,,,,,,,,,,,,,,,,,,,
1577422961.012001,25.000000,0.000000,4631.282227,4241.538574,4144.102539,4259.487305,4851.282227,0.000000,3.000000,,,,0.000000,4.000000,4.000000,4.000000,4.000000,4.000000,,,,,,,,,,,,,,,,,,,,,,,,,
1577422961.019698,26.000000,0.000000,4648.717773,4210.256348,4145.641113,4274.871582,4892.307617,0.000000,3.000000,,,,0.000000,4.000000,4.000000,4.000000,4.000000,4.000000,,,,,,,,,,,,,,,,,,,,,,,,,
1577422961.027494,27.000000,0.000000,4645.128418,4180.512695,4178.461426,4291.282227,4905.641113,0.000000,3.000000,,,,0.000000,4.000000,4.000000,4.000000,4.000000,4.000000,,,,,,,,,,,,,,,,,,,,,,,,,
1577422961.035190,28.000000,0.000000,4604.615234,4173.333496,4210.769043,4283.589844,4914.358887,0.000000,3.000000,,,,0.000000,4.000000,4.000000,4.000000,4.000000,4.000000,,,,,,,,,,,,,,,,,,,,,,,,,
1577422961.042987,29.000000,0.000000,4542.051270,4155.384766,4214.358887,4249.743652,4925.641113,0.000000,3.000000,,,,0.000000,4.000000,4.000000,4.000000,4.000000,4.000000,,,,,,,,,,,,,,,,,,,,,,,,,
1577422961.050683,30.000000,0.000000,4494.871582,4135.897461,4217.948730,4212.820313,4947.179688,0.000000,3.000000,,,,0.000000,4.000000,4.000000,4.000000,4.000000,4.000000,,,,,,,,,,,,,,,,,,,,,,,,,
1577422961.058479,31.000000,0.000000,4450.769043,4131.794922,4230.769043,4187.692383,4987.179688,0.000000,3.000000,,,,0.000000,4.000000,4.000000,4.000000,4.000000,4.000000,,,,,,,,,,,,,,,,,,,,,,,,,
1577422961.066176,32.000000,0.000000,4394.871582,4141.538574,4237.948730,4181.025879,5009.230957,0.000000,3.000000,,,,0.000000,4.000000,4.000000,4.000000,4.000000,4.000000,,,,,,,,,,,,,,,,,,,,,,,,,
1577422961.073872,33.000000,0.000000,4350.769043,4147.692383,4233.333496,4187.179688,5023.077148,0.000000,3.000000,,,,0.000000,4.000000,4.000000,4.000000,4.000000,4.000000,,,,,,,,,,,,,,,,,,,,,,,,,
1577422961.081669,34.000000,0.000000,4319.487305,4137.948730,4231.794922,4217.948730,5061.025879,0.000000,3.000000,,,,0.000000,4.000000,4.000000,4.000000,4.000000,4.000000,10.580613,1.971960,2.985108,4.207943,6.659063,6.417291,1.644136,2.177173,1.436060,5.118944,16.732773,4.279222,2.994213,2.143392,4.193982,4.968091,5.293279,3.571211,3.886966,9.062682,9.732953,6.109279,3.901381,2.763610,6.543450
1577422961.089366,35.000000,0.000000,4285.128418,4140.512695,4230.256348,4257.948730,5095.897461,0.000000,3.000000,,,,0.000000,4.000000,4.000000,4.000000,4.000000,4.000000,,,,,,,,,,,,,,,,,,,,,,,,,
1577422961.097162,36.000000,0.000000,4244.102539,4146.666504,4191.282227,4260.512695,5112.820313,0.000000,3.000000,,,,0.000000,4.000000,4.000000,4.000000,4.000000,4.000000,,,,,,,,,,,,,,,,,,,,,,,,,
1577422961.104858,37.000000,0.000000,4212.307617,4142.563965,4156.410156,4252.307617,5115.384766,0.000000,3.000000,,,,0.000000,4.000000,4.000000,4.000000,4.000000,4.000000,,,,,,,,,,,,,,,,,,,,,,,,,
1577422961.112655,38.000000,0.000000,4208.717773,4147.179688,4153.333496,4269.230957,5117.948730,0.000000,3.000000,,,,0.000000,4.000000,4.000000,4.000000,4.000000,4.000000,,,,,,,,,,,,,,,,,,,,,,,,,
1577422961.120351,39.000000,0.000000,4224.102539,4161.025879,4130.769043,4294.871582,5132.307617,0.000000,3.000000,,,,0.000000,4.000000,4.000000,4.000000,4.000000,4.000000,,,,,,,,,,,,,,,,,,,,,,,,,
1577422961.128147,40.000000,0.000000,4241.025879,4186.666504,4100.512695,4323.589844,5142.051270,0.000000,3.000000,,,,0.000000,4.000000,4.000000,4.000000,4.000000,4.000000,,,,,,,,,,,,,,,,,,,,,,,,,
1577422961.135844,41.000000,0.000000,4251.282227,4207.179688,4077.435791,4333.846191,5128.205078,0.000000,3.000000,,,,0.000000,4.000000,4.000000,4.000000,4.000000,4.000000,,,,,,,,,,,,,,,,,,,,,,,,,
1577422961.143640,42.000000,0.000000,4263.077148,4208.205078,4047.179443,4336.410156,5118.461426,0.000000,3.000000,,,,0.000000,4.000000,4.000000,4.000000,4.000000,4.000000,,,,,,,,,,,,,,,,,,,,,,,,,
1577422961.151336,43.000000,0.000000,4257.436035,4200.512695,4002.564209,4333.846191,5108.205078,0.000000,3.000000,,,,0.000000,4.000000,4.000000,4.000000,4.000000,4.000000,,,,,,,,,,,,,,,,,,,,,,,,,
1577422961.159133,44.000000,0.000000,4218.974121,4189.230957,3941.538574,4296.410156,5068.205078,0.000000,3.000000,,,,0.000000,4.000000,4.000000,4.000000,4.000000,4.000000,,,,,,,,,,,,,,,,,,,,,,,,,
1577422961.166829,45.000000,0.000000,4203.589844,4183.589844,3903.076904,4266.666504,5038.974121,0.000000,3.000000,,,,0.000000,4.000000,4.000000,4.000000,4.000000,4.000000,,,,,,,,,,,,,,,,,,,,,,,,,
1577422961.174625,46.000000,0.000000,4215.897461,4180.512695,3889.743652,4273.846191,5024.615234,0.000000,3.000000,,,,0.000000,4.000000,4.000000,4.000000,4.000000,4.000000,,,,,,,,,,,,,,,,,,,,,,,,,
1577422961.182322,47.000000,0.000000,4214.358887,4173.333496,3869.230713,4295.897461,5004.615234,0.000000,3.000000,,,,0.000000,4.000000,4.000000,4.000000,4.000000,4.000000,,,,,,,,,,,,,,,,,,,,,,,,,
1577422961.190218,48.000000,0.000000,4206.666504,4174.358887,3850.256348,4301.025879,4971.794922,0.000000,3.000000,,,,0.000000,4.000000,4.000000,4.000000,4.000000,4.000000,,,,,,,,,,,,,,,,,,,,,,,,,
1577422961.198015,49.000000,0.000000,4201.025879,4185.641113,3848.205078,4280.512695,4918.461426,0.000000,3.000000,,,,0.000000,4.000000,4.000000,4.000000,4.000000,4.000000,,,,,,,,,,,,,,,,,,,,,,,,,
1577422961.205811,50.000000,0.000000,4198.974121,4189.230957,3852.820557,4278.974121,4878.461426,0.000000,3.000000,,,,0.000000,4.000000,4.000000,4.000000,4.000000,4.000000,12.256953,2.347176,2.748044,3.715898,11.429588,7.139044,1.854813,2.261656,1.339150,8.786338,15.002705,5.215910,2.985151,1.786865,7.557477,5.826764,6.290525,4.047977,3.854573,15.279578,9.734049,6.094931,3.452651,2.573229,11.428926
1577422961.213508,51.000000,0.000000,4189.230957,4175.384766,3843.589844,4286.153809,4848.205078,0.000000,3.000000,,,,0.000000,4.000000,4.000000,4.000000,4.000000,4.000000,,,,,,,,,,,,,,,,,,,,,,,,,
1577422961.221204,52.000000,0.000000,4182.563965,4174.358887,3830.769287,4278.461426,4818.461426,0.000000,3.000000,,,,0.000000,4.000000,4.000000,4.000000,4.000000,4.000000,,,,,,,,,,,,,,,,,,,,,,,,,
1577422961.229001,53.000000,0.000000,4196.922852,4197.436035,3841.538574,4276.922852,4799.487305,0.000000,3.000000,,,,0.000000,4.000000,4.000000,4.000000,4.000000,4.000000,,,,,,,,,,,,,,,,,,,,,,,,,
1577422961.236697,54.000000,0.000000,4200.000000,4206.153809,3856.923096,4287.692383,4773.846191,0.000000,3.000000,,,,0.000000,4.000000,4.000000,4.000000,4.000000,4.000000,,,,,,,,,,,,,,,,,,,,,,,,,
1577422961.244494,55.000000,0.000000,4207.179688,4218.461426,3869.230713,4316.922852,4775.897461,0.000000,3.000000,,,,0.000000,4.000000,4.000000,4.000000,4.000000,4.000000,,,,,,,,,,,,,,,,,,,,,,,,,
1577422961.252191,56.000000,0.000000,4231.794922,4245.641113,3885.641113,4347.179688,4787.692383,0.000000,3.000000,,,,0.000000,4.000000,4.000000,4.000000,4.000000,4.000000,,,,,,,,,,,,,,,,,,,,,,,,,
1577422961.259987,57.000000,0.000000,4242.051270,4246.666504,3898.974365,4364.102539,4763.077148,0.000000,3.000000,,,,0.000000,4.000000,4.000000,4.000000,4.000000,4.000000,,,,,,,,,,,,,,,,,,,,,,,,,
1577422961.267684,58.000000,0.000000,4237.436035,4231.794922,3901.538574,4371.794922,4746.666504,0.000000,3.000000,,,,0.000000,4.000000,4.000000,4.000000,4.000000,4.000000,,,,,,,,,,,,,,,,,,,,,,,,,
1577422961.275480,59.000000,0.000000,4221.025879,4226.666504,3889.230713,4362.563965,4741.025879,0.000000,3.000000,,,,0.000000,4.000000,4.000000,4.000000,4.000000,4.000000,,,,,,,,,,,,,,,,,,,,,,,,,
1577422961.283177,60.000000,0.000000,4209.230957,4229.743652,3883.076904,4348.205078,4726.666504,0.000000,3.000000,,,,0.000000,4.000000,4.000000,4.000000,4.000000,4.000000,,,,,,,,,,,,,,,,,,,,,,,,,
1577422961.290973,61.000000,0.000000,4213.333496,4232.820313,3889.230713,4344.615234,4717.948730,0.000000,3.000000,,,,0.000000,4.000000,4.000000,4.000000,4.000000,4.000000,,,,,,,,,,,,,,,,,,,,,,,,,
1577422961.298770,62.000000,0.000000,4215.897461,4229.230957,3896.410156,4342.563965,4720.000000,0.000000,3.000000,,,,0.000000,4.000000,4.000000,4.000000,4.000000,4.000000,,,,,,,,,,,,,,,,,,,,,,,,,
1577422961.306466,63.000000,0.000000,4218.974121,4228.717773,3907.692383,4335.897461,4725.128418,0.000000,3.000000,,,,0.000000,4.000000,4.000000,4.000000,4.000000,4.000000,,,,,,,,,,,,,,,,,,,,,,,,,
1577422961.314163,64.000000,0.000000,4218.461426,4229.743652,3898.974365,4316.410156,4704.102539,450.000000,3.000000,,,,0.000000,4.000000,4.000000,4.000000,4.000000,4.000000,,,,,,,,,,,,,,,,,,,,,,,,,
1577422961.321959,65.000000,0.000000,4209.743652,4235.384766,3876.410156,4301.538574,4672.307617,450.000000,3.000000,,,,0.000000,4.000000,4.000000,4.000000,4.000000,4.000000,,,,,,,,,,,,,,,,,,,,,,,,,
1577422961.329655,66.000000,0.000000,4195.897461,4237.948730,3871.794922,4304.615234,4648.205078,16218.000000,3.000000,,,,0.000000,4.000000,4.000000,4.000000,4.000000,4.000000,21.925930,3.950721,2.477184,3.077451,16.749405,7.796321,2.203761,2.228833,1.278317,12.871642,14.103996,6.585983,2.981012,1.432587,11.301661,7.630206,6.975216,4.730521,4.000565,22.284084,11.736727,6.694331,3.155548,2.278584,16.899090
1577422961.337452,67.000000,0.000000,4177.436035,4221.025879,3861.025635,4304.102539,4617.948730,450.000000,3.000000,,,,0.000000,4.000000,4.000000,4.000000,4.000000,4.000000,,,,,,,,,,,,,,,,,,,,,,,,,
1577422961.345148,68.000000,0.000000,4175.384766,4211.282227,3838.974365,4295.384766,4597.436035,16189.000000,3.000000,,,,0.000000,4.000000,4.000000,4.000000,4.000000,4.000000,,,,,,,,,,,,,,,,,,,,,,,,,
1577422961.352944,69.000000,0.000000,4186.666504,4226.666504,3840.512939,4302.563965,4586.666504,450.000000,3.000000,,,,0.000000,4.000000,4.000000,4.000000,4.000000,4.000000,,,,,,,,,,,,,,,,,,,,,,,,,
1577422961.360641,70.000000,0.000000,4195.384766,4249.230957,3855.384521,4318.974121,4570.769043,16171.000000,3.000000,,,,0.000000,4.000000,4.000000,4.000000,4.000000,4.000000,,,,,,,,,,,,,,,,,,,,,,,,,
1577422961.368537,71.000000,0.000000,4195.384766,4266.666504,3861.538574,4315.384766,4552.820313,450.000000,3.000000,,,,0.000000,4.000000,4.000000,4.000000,4.000000,4.000000,,,,,,,,,,,,,,,,,,,,,,,,,
1577422961.376334,72.000000,0.000000,4194.358887,4280.512695,3872.820557,4320.000000,4550.769043,450.000000,3.000000,,,,0.000000,4.000000,4.000000,4.000000,4.000000,4.000000,,,,,,,,,,,,,,,,,,,,,,,,,
1577422961.384130,73.000000,0.000000,4226.666504,4293.333496,3896.410156,4364.102539,4581.538574,16166.000000,3.000000,,,,0.000000,4.000000,4.000000,4.000000,4.000000,4.000000,,,,,,,,,,,,,,,,,,,,,,,,,
1577422961.391827,74.000000,0.000000,4243.077148,4289.230957,3903.589844,4386.666504,4579.487305,450.000000,3.000000,,,,0.000000,4.000000,4.000000,4.000000,4.000000,4.000000,,,,,,,,,,,,,,,,,,,,,,,,,
1577422961.399623,75.000000,0.000000,4200.512695,4261.538574,3888.718018,4366.666504,4506.666504,16209.000000,3.000000,,,,0.000000,4.000000,4.000000,4.000000,4.000000,4.000000,,,,,,,,,,,,,,,,,,,,,,,,,
1577422961.407319,76.000000,0.000000,4162.563965,4236.922852,3871.794922,4369.743652,4427.179688,450.000000,3.000000,,,,0.000000,4.000000,4.000000,4.000000,4.000000,4.000000,,,,,,,,,,,,,,,,,,,,,,,,,
1577422961.415116,77.000000,0.000000,4156.410156,4230.769043,3856.410156,4390.769043,4383.077148,450.000000,3.000000,,,,0.000000,4.000000,4.000000,4.000000,4.000000,4.000000,,,,,,,,,,,,,,,,,,,,,,,,,
1577422961.422812,78.000000,0.000000,4166.666504,4245.128418,3883.076904,4402.051270,4375.897461,450.000000,3.000000,,,,0.000000,4.000000,4.000000,4.000000,4.000000,4.000000,,,,,,,,,,,,,,,,,,,,,,,,,
1577422961.430608,79.000000,0.000000,4167.179688,4251.282227,3944.102539,4406.666504,4363.589844,16209.000000,3.000000,,,,0.000000,4.000000,4.000000,4.000000,4.000000,4.000000,,,,,,,,,,,,,,,,,,,,,,,,,
1577422961.438305,80.000000,0.000000,4149.230957,4245.128418,3964.102539,4404.615234,4318.974121,450.000000,3.000000,,,,0.000000,4.000000,4.000000,4.000000,4.000000,4.000000,,,,,,,,,,,,,,,,,,,,,,,,,
1577422961.446001,81.000000,0.000000,4151.794922,4260.000000,3956.410156,4416.922852,4278.461426,450.000000,3.000000,,,,0.000000,4.000000,4.000000,4.000000,4.000000,4.000000,,,,,,,,,,,,,,,,,,,,,,,,,
1577422961.453798,82.000000,0.000000,4157.948730,4262.563965,3954.871826,4415.384766,4238.461426,450.000000,3.000000,,,,0.000000,4.000000,4.000000,4.000000,4.000000,4.000000,48.494892,7.517152,2.221331,2.467701,20.932476,8.367691,2.708993,2.152311,1.267869,16.089142,16.499077,7.955147,2.968614,1.151090,14.260829,10.085450,7.610602,5.340957,4.273394,27.862638,18.230560,8.045713,2.992091,1.950403,21.223881
1577422961.461494,83.000000,0.000000,4149.230957,4249.743652,3952.307617,4397.948730,4197.436035,16209.000000,3.000000,,,,0.000000,4.000000,4.000000,4.000000,4.000000,4.000000,,,,,,,,,,,,,,,,,,,,,,,,,
1577422961.469291,84.000000,0.000000,4144.102539,4251.282227,3942.051270,4394.871582,4165.641113,450.000000,3.000000,,,,0.000000,4.000000,4.000000,4.000000,4.000000,4.000000,,,,,,,,,,,,,,,,,,,,,,,,,
1577422961.476987,85.000000,0.000000,4142.563965,4248.717773,3922.564209,4393.846191,4128.717773,450.000000,3.000000,,,,0.000000,4.000000,4.000000,4.000000,4.000000,4.000000,,,,,,,,,,,,,,,,,,,,,,,,,
1577422961.484784,86.000000,0.000000,4136.922852,4238.461426,3909.743652,4382.563965,4098.461426,450.000000,3.000000,,,,0.000000,4.000000,4.000000,4.000000,4.000000,4.000000,,,,,,,,,,,,,,,,,,,,,,,,,
1577422961.492480,87.000000,0.000000,4114.358887,4215.897461,3888.718018,4353.333496,4067.179443,16209.000000,3.000000,,,,0.000000,4.000000,4.000000,4.000000,4.000000,4.000000,,,,,,,,,,,,,,,,,,,,,,,,,
1577422961.500276,88.000000,0.000000,4103.077148,4207.179688,3863.076904,4346.666504,4032.820557,450.000000,3.000000,,,,0.000000,4.000000,4.000000,4.000000,4.000000,4.000000,,,,,,,,,,,,,,,,,,,,,,,,,
1577422961.507973,89.000000,0.000000,4112.307617,4226.666504,3846.153809,4368.205078,4012.307617,450.000000,3.000000,,,,0.000000,4.000000,4.000000,4.000000,4.000000,4.000000,,,,,,,,,,,,,,,,,,,,,,,,,
1577422961.515769,90.000000,0.000000,4104.615234,4228.205078,3816.923096,4359.487305,3986.666748,450.000000,3.000000,,,,0.000000,4.000000,4.000000,4.000000,4.000000,4.000000,,,,,,,,,,,,,,,,,,,,,,,,,
1577422961.523465,91.000000,0.000000,4097.436035,4213.846191,3795.384521,4345.641113,3963.589844,16209.000000,3.000000,,,,0.000000,4.000000,4.000000,4.000000,4.000000,4.000000,,,,,,,,,,,,,,,,,,,,,,,,,
1577422961.531262,92.000000,0.000000,4109.743652,4218.461426,3795.384521,4350.769043,3949.743652,450.000000,3.000000,,,,0.000000,4.000000,4.000000,4.000000,4.000000,4.000000,,,,,,,,,,,,,,,,,,,,,,,,,
1577422961.538958,93.000000,0.000000,4118.974121,4238.461426,3809.230713,4363.077148,3936.410156,450.000000,3.000000,,,,0.000000,4.000000,4.000000,4.000000,4.000000,4.000000,,,,,,,,,,,,,,,,,,,,,,,,,
1577422961.546754,94.000000,0.000000,4129.743652,4245.128418,3825.128174,4374.871582,3937.948730,450.000000,3.000000,,,,0.000000,4.000000,4.000000,4.000000,4.000000,4.000000,,,,,,,,,,,,,,,,,,,,,,,,,
1577422961.554451,95.000000,0.000000,4151.282227,4243.077148,3841.025635,4381.538574,3948.718018,16209.000000,3.000000,,,,0.000000,4.000000,4.000000,4.000000,4.000000,4.000000,,,,,,,,,,,,,,,,,,,,,,,,,
1577422961.562247,96.000000,0.000000,4158.974121,4255.384766,3864.615479,4385.128418,3935.897461,450.000000,3.000000,,,,0.000000,4.000000,4.000000,4.000000,4.000000,4.000000,,,,,,,,,,,,,,,,,,,,,,,,,
1577422961.569943,97.000000,0.000000,4128.717773,4244.102539,3861.538574,4359.487305,3887.179443,450.000000,3.000000,,,,0.000000,4.000000,4.000000,4.000000,4.000000,4.000000,,,,,,,,,,,,,,,,,,,,,,,,,
1577422961.577740,98.000000,0.000000,4092.307617,4213.333496,3836.410156,4328.205078,3847.692383,450.000000,3.000000,,,,0.000000,4.000000,4.000000,4.000000,4.000000,4.000000,95.693687,13.595669,2.065472,2.064010,22.504753,8.999164,3.405704,2.134584,1.321963,17.317329,26.066298,9.045574,3.006094,1.001619,15.422358,14.231310,8.684108,5.665653,4.594362,30.052395,32.457024,10.227312,2.958673,1.678192,22.885910
1577422961.585436,99.000000,0.000000,4080.512939,4213.333496,3840.512939,4330.769043,3842.564209,16209.000000,3.000000,,,,0.000000,4.000000,4.000000,4.000000,4.000000,4.000000,,,,,,,,,,,,,,,,,,,,,,,,,
1577422961.593232,100.000000,0.000000,4072.307617,4216.410156,3853.333252,4325.641113,3830.256348,450.000000,3.000000,,,,0.000000,4.000000,4.000000,4.000000,4.000000,4.000000,,,,,,,,,,,,,,,,,,,,,,,,,
1577422961.600929,101.000000,0.000000,4069.230713,4209.743652,3850.256348,4311.794922,3815.384521,450.000000,3.000000,,,,0.000000,4.000000,4.000000,4.000000,4.000000,4.000000,,,,,,,,,,,,,,,,,,,,,,,,,
1577422961.608825,102.000000,0.000000,4068.718018,4214.358887,3838.974365,4308.205078,3810.769287,450.000000,3.000000,,,,0.000000,4.000000,4.000000,4.000000,4.000000,4.000000,,,,,,,,,,,,,,,,,,,,,,,,,
1577422961.616622,103.000000,0.000000,4063.589844,4221.025879,3834.871826,4308.205078,3808.718018,16209.000000,3.000000,,,,0.000000,4.000000,4.000000,4.000000,4.000000,4.000000,,,,,,,,,,,,,,,,,,,,,,,,,
1577422961.624518,104.000000,0.000000,4076.923096,4229.743652,3851.794922,4325.128418,3823.589844,450.000000,3.000000,,,,0.000000,4.000000,4.000000,4.000000,4.000000,4.000000,,,,,,,,,,,,,,,,,,,,,,,,,
1577422961.632315,105.000000,0.000000,4082.051270,4232.820313,3855.384521,4326.153809,3829.743652,450.000000,3.000000,,,,0.000000,4.000000,4.000000,4.000000,4.000000,4.000000,,,,,,,,,,,,,,,,,,,,,,,,,
1577422961.640011,106.000000,0.000000,4072.307617,4232.307617,3840.512939,4312.307617,3831.281982,450.000000,3.000000,,,,0.000000,4.000000,4.000000,4.000000,4.000000,4.000000,,,,,,,,,,,,,,,,,,,,,,,,,
1577422961.647808,107.000000,0.000000,4072.307617,4234.358887,3836.410156,4309.230957,3838.974365,16209.000000,3.000000,,,,0.000000,4.000000,4.000000,4.000000,4.000000,4.000000,,,,,,,,,,,,,,,,,,,,,,,,,
1577422961.655505,108.000000,0.000000,4072.820557,4229.743652,3836.410156,4308.717773,3830.769287,450.000000,3.000000,,,,0.000000,4.000000,4.000000,4.000000,4.000000,4.000000,,,,,,,,,,,,,,,,,,,,,,,,,
1577422961.663301,109.000000,0.000000,4073.846191,4229.230957,3845.128174,4317.948730,3828.205078,450.000000,3.000000,,,,0.000000,4.000000,4.000000,4.000000,4.000000,4.000000,,,,,,,,,,,,,,,,,,,,,,,,,
1577422961.670998,110.000000,0.000000,4069.230713,4229.743652,3852.307617,4309.743652,3817.948730,450.000000,3.000000,,,,0.000000,4.000000,4.000000,4.000000,4.000000,4.000000,,,,,,,,,,,,,,,,,,,,,,,,,
1577422961.678794,111.000000,0.000000,4066.666748,4230.769043,3853.846191,4291.282227,3794.358887,16209.000000,3.000000,,,,0.000000,4.000000,4.000000,4.000000,4.000000,4.000000,,,,,,,,,,,,,,,,,,,,,,,,,
1577422961.686491,112.000000,0.000000,4074.871826,4233.333496,3865.128174,4297.948730,3782.051270,450.000000,3.000000,,,,0.000000,4.000000,4.000000,4.000000,4.000000,4.000000,,,,,,,,,,,,,,,,,,,,,,,,,
1577422961.694287,113.000000,0.000000,4068.205078,4220.512695,3867.179443,4294.358887,3773.333252,450.000000,3.000000,,,,0.000000,4.000000,4.000000,4.000000,4.000000,4.000000,,,,,,,,,,,,,,,,,,,,,,,,,
1577422961.701983,114.000000,0.000000,4058.461426,4212.307617,3862.051270,4276.410156,3770.769287,450.000000,3.000000,,,,0.000000,4.000000,4.000000,4.000000,4.000000,4.000000,155.961136,21.540106,2.132935,1.973162,20.866831,9.755600,4.300168,2.299107,1.448834,16.094547,43.568310,9.765080,3.227100,1.043511,14.374260,20.195261,10.421556,5.622743,4.859485,28.007250,53.192764,12.903924,3.121896,1.583438,21.267769
1577422961.709780,115.000000,0.000000,4066.153809,4220.000000,3872.307617,4272.820313,3764.615479,16209.000000,3.000000,,,,0.000000,4.000000,4.000000,4.000000,4.000000,4.000000,,,,,,,,,,,,,,,,,,,,,,,,,
1577422961.717476,116.000000,0.000000,4081.538574,4225.128418,3887.179443,4287.692383,3764.102539,450.000000,3.000000,,,,0.000000,4.000000,4.000000,4.000000,4.000000,4.000000,,,,,,,,,,,,,,,,,,,,,,,,,
1577422961.725272,117.000000,0.000000,4085.128174,4231.282227,3896.923096,4287.179688,3775.384521,450.000000,3.000000,,,,0.000000,4.000000,4.000000,4.000000,4.000000,4.000000,,,,,,,,,,,,,,,,,,,,,,,,,
1577422961.732969,118.000000,0.000000,4083.076904,4240.512695,3916.923096,4278.461426,3780.000000,450.000000,3.000000,,,,0.000000,4.000000,4.000000,4.000000,4.000000,4.000000,,,,,,,,,,,,,,,,,,,,,,,,,
1577422961.740765,119.000000,0.000000,4109.230957,4248.205078,3944.615479,4303.589844,3798.461426,16209.000000,3.000000,,,,0.000000,4.000000,4.000000,4.000000,4.000000,4.000000,,,,,,,,,,,,,,,,,,,,,,,,,
1577422961.748461,120.000000,0.000000,4137.436035,4249.743652,3947.692383,4332.820313,3815.897461,450.000000,3.000000,,,,0.000000,4.000000,4.000000,4.000000,4.000000,4.000000,,,,,,,,,,,,,,,,,,,,,,,,,
1577422961.756358,121.000000,0.000000,4149.743652,4243.589844,3944.615479,4330.769043,3814.871826,450.000000,3.000000,,,,0.000000,4.000000,4.000000,4.000000,4.000000,4.000000,,,,,,,,,,,,,,,,,,,,,,,,,
1577422961.764154,122.000000,0.000000,4148.717773,4227.692383,3946.153809,4310.256348,3810.256348,450.000000,3.000000,,,,0.000000,4.000000,4.000000,4.000000,4.000000,4.000000,,,,,,,,,,,,,,,,,,,,,,,,,
1577422961.771951,123.000000,0.000000,4107.692383,4195.897461,3914.358887,4277.948730,3773.846191,16209.000000,3.000000,,,,0.000000,4.000000,4.000000,4.000000,4.000000,4.000000,,,,,,,,,,,,,,,,,,,,,,,,,
1577422961.779647,124.000000,0.000000,4079.487061,4184.102539,3889.230713,4263.077148,3747.179443,450.000000,3.000000,,,,0.000000,4.000000,4.000000,4.000000,4.000000,4.000000,,,,,,,,,,,,,,,,,,,,,,,,,
1577422961.787544,125.000000,0.000000,4098.461426,4201.025879,3910.256348,4268.717773,3756.410156,450.000000,3.000000,,,,0.000000,4.000000,4.000000,4.000000,4.000000,4.000000,,,,,,,,,,,,,,,,,,,,,,,,,
1577422961.795340,126.000000,0.000000,4102.051270,4205.128418,3936.410156,4257.948730,3750.769287,450.000000,3.000000,,,,0.000000,4.000000,4.000000,4.000000,4.000000,4.000000,,,,,,,,,,,,,,,,,,,,,,,,,
1577422961.803237,127.000000,0.000000,4088.205078,4196.922852,3967.179443,4243.077148,3745.641113,233.000000,3.000000,,,,0.000000,4.000000,4.000000,4.000000,4.000000,4.000000,,,,,,,,,,,,,,,,,,,,,,,,,
1577422961.811033,0.000000,0.000000,4077.948730,4184.615234,3993.846191,4235.897461,3743.076904,450.000000,3.000000,,,,0.000000,4.000000,4.000000,4.000000,4.000000,4.000000,,,,,,,,,,,,,,,,,,,,,,,,,
1577422961.818929,1.000000,0.000000,4077.435791,4187.692383,3983.589844,4226.153809,3736.923096,450.000000,3.000000,,,,0.000000,4.000000,4.000000,4.000000,4.000000,4.000000,,,,,,,,,,,,,,,,,,,,,,,,,
1577422961.826726,2.000000,0.000000,4090.769287,4202.051270,3954.871826,4213.333496,3746.666748,16208.000000,3.000000,,,,0.000000,4.000000,4.000000,4.000000,4.000000,4.000000,214.904541,29.525816,2.496641,2.178522,16.587948,10.573068,5.342848,2.700329,1.632097,12.847609,66.871811,10.213885,3.681726,1.319265,11.503667,27.424698,12.516907,5.247509,4.969890,22.413357,76.071777,15.462396,3.558421,1.764834,16.946383
1577422961.834622,3.000000,0.000000,4103.589844,4201.538574,3940.000000,4208.717773,3759.487061,450.000000,3.000000,,,,0.000000,4.000000,4.000000,4.000000,4.000000,4.000000,,,,,,,,,,,,,,,,,,,,,,,,,
1577422961.842419,4.000000,0.000000,4120.512695,4211.794922,3945.128174,4226.666504,3777.435791,16164.000000,3.000000,,,,0.000000,4.000000,4.000000,4.000000,4.000000,4.000000,,,,,,,,,,,,,,,,,,,,,,,,,
1577422961.850215,5.000000,0.000000,4120.512695,4223.589844,3940.512939,4230.769043,3785.641113,450.000000,3.000000,,,,0.000000,4.000000,4.000000,4.000000,4.000000,4.000000,,,,,,,,,,,,,,,,,,,,,,,,,
1577422961.857912,6.000000,0.000000,4108.205078,4209.743652,3922.051270,4203.077148,3771.281982,16160.000000,3.000000,,,,0.000000,4.000000,4.000000,4.000000,4.000000,4.000000,,,,,,,,,,,,,,,,,,,,,,,,,
1577422961.865609,7.000000,0.000000,4112.307617,4198.461426,3914.358887,4174.358887,3760.512939,450.000000,3.000000,,,,0.000000,4.000000,4.000000,4.000000,4.000000,4.000000,,,,,,,,,,,,,,,,,,,,,,,,,
1577422961.873405,8.000000,0.000000,4105.641113,4198.974121,3905.128174,4149.230957,3759.487061,450.000000,3.000000,,,,0.000000,4.000000,4.000000,4.000000,4.000000,4.000000,,,,,,,,,,,,,,,,,,,,,,,,,
1577422961.881102,9.000000,0.000000,4092.820557,4199.487305,3900.000000,4136.410156,3762.051270,16180.000000,3.000000,,,,0.000000,4.000000,4.000000,4.000000,4.000000,4.000000,,,,,,,,,,,,,,,,,,,,,,,,,
1577422961.888898,10.000000,0.000000,4085.128174,4198.974121,3912.820557,4137.436035,3765.641113,450.000000,3.000000,,,,0.000000,4.000000,4.000000,4.000000,4.000000,4.000000,,,,,,,,,,,,,,,,,,,,,,,,,
1577422961.896595,11.000000,0.000000,4081.025635,4197.948730,3921.538574,4134.871582,3774.871826,16228.000000,3.000000,,,,0.000000,4.000000,4.000000,4.000000,4.000000,4.000000,,,,,,,,,,,,,,,,,,,,,,,,,
1577422961.904391,12.000000,0.000000,4114.358887,4215.897461,3932.307617,4149.743652,3799.487061,450.000000,3.000000,,,,0.000000,4.000000,4.000000,4.000000,4.000000,4.000000,,,,,,,,,,,,,,,,,,,,,,,,,
1577422961.912087,13.000000,0.000000,4167.179688,4236.922852,3948.718018,4176.922852,3831.794922,450.000000,3.000000,,,,0.000000,4.000000,4.000000,4.000000,4.000000,4.000000,,,,,,,,,,,,,,,,,,,,,,,,,
1577422961.919984,14.000000,0.000000,4200.512695,4240.000000,3956.410156,4191.282227,3856.410156,450.000000,3.000000,,,,0.000000,4.000000,4.000000,4.000000,4.000000,4.000000,,,,,,,,,,,,,,,,,,,,,,,,,
1577422961.927780,15.000000,0.000000,4202.051270,4233.333496,3943.589844,4194.871582,3856.410156,16228.000000,3.000000,,,,0.000000,4.000000,4.000000,4.000000,4.000000,4.000000,,,,,,,,,,,,,,,,,,,,,,,,,
1577422961.935577,16.000000,0.000000,4165.128418,4218.461426,3914.358887,4179.487305,3824.615479,0.000000,3.000000,,,,0.000000,4.000000,4.000000,4.000000,4.000000,4.000000,,,,,,,,,,,,,,,,,,,,,,,,,
1577422961.943273,17.000000,0.000000,4130.769043,4208.717773,3903.076904,4166.666504,3801.538574,0.000000,3.000000,,,,0.000000,4.000000,4.000000,4.000000,4.000000,4.000000,,,,,,,,,,,,,,,,,,,,,,,,,
1577422961.951069,18.000000,0.000000,4121.025879,4202.051270,3896.923096,4167.179688,3806.153809,0.000000,3.000000,,,,0.000000,4.000000,4.000000,4.000000,4.000000,4.000000,252.390030,35.542049,3.119874,2.556495,11.128154,11.308528,6.476367,3.261290,1.834029,8.684985,90.684021,10.522656,4.256225,1.835880,7.805197,34.730659,14.430935,4.658425,4.867378,15.160295,96.845428,17.525177,4.257243,2.232448,11.405028
1577422961.958766,19.000000,0.000000,4127.692383,4201.538574,3881.025635,4171.794922,3814.871826,0.000000,3.000000,,,,0.000000,4.000000,4.000000,4.000000,4.000000,4.000000,,,,,,,,,,,,,,,,,,,,,,,,,
1577422961.966562,20.000000,0.000000,4136.410156,4206.666504,3869.743652,4170.769043,3819.487061,0.000000,3.000000,,,,0.000000,4.000000,4.000000,4.000000,4.000000,4.000000,,,,,,,,,,,,,,,,,,,,,,,,,
1577422961.974258,21.000000,0.000000,4132.307617,4195.897461,3861.538574,4157.948730,3818.461426,0.000000,3.000000,,,,0.000000,4.000000,4.000000,4.000000,4.000000,4.000000,,,,,,,,,,,,,,,,,,,,,,,,,
1577422961.982055,22.000000,0.000000,4137.436035,4195.384766,3866.666748,4165.641113,3821.025635,0.000000,3.000000,,,,0.000000,4.000000,4.000000,4.000000,4.000000,4.000000,,,,,,,,,,,,,,,,,,,,,,,,,
1577422961.989751,23.000000,0.000000,4149.230957,4198.974121,3869.230713,4182.051270,3825.128174,0.000000,3.000000,,,,0.000000,4.000000,4.000000,4.000000,4.000000,4.000000,,,,,,,,,,,,,,,,,,,,,,,,,
1577422961.997547,24.000000,0.000000,4145.641113,4193.333496,3860.512939,4180.000000,3815.897461,0.000000,3.000000,,,,0.000000,4.000000,4.000000,4.000000,4.000000,4.000000,,,,,,,,,,,,,,,,,,,,,,,,,
1577422962.005244,25.000000,0.000000,4134.871582,4197.948730,3865.128174,4173.333496,3802.564209,0.000000,3.000000,,,,0.000000,4.000000,4.000000,4.000000,4.000000,4.000000,,,,,,,,,,,,,,,,,,,,,,,,,
1577422962.013040,26.000000,0.000000,4120.000000,4192.820313,3865.128174,4164.615234,3792.307617,0.000000,3.000000,,,,0.000000,4.000000,4.000000,4.000000,4.000000,4.000000,,,,,,,,,,,,,,,,,,,,,,,,,
1577422962.020737,27.000000,0.000000,4120.512695,4183.077148,3868.205078,4161.538574,3796.923096,0.000000,3.000000,,,,0.000000,4.000000,4.000000,4.000000,4.000000,4.000000,,,,,,,,,,,,,,,,,,,,,,,,,
1577422962.028533,28.000000,0.000000,4132.820313,4186.666504,3881.025635,4164.102539,3801.538574,0.000000,3.000000,,,,0.000000,4.000000,4.000000,4.000000,4.000000,4.000000,,,,,,,,,,,,,,,,,,,,,,,,,
1577422962.036229,29.000000,0.000000,4130.256348,4189.743652,3889.230713,4166.666504,3787.179443,0.000000,3.000000,,,,0.000000,4.000000,4.000000,4.000000,4.000000,4.000000,,,,,,,,,,,,,,,,,,,,,,,,,
1577422962.044126,30.000000,0.000000,4125.128418,4193.333496,3898.461426,4164.615234,3775.897461,0.000000,3.000000,,,,0.000000,4.000000,4.000000,4.000000,4.000000,4.000000,,,,,,,,,,,,,,,,,,,,,,,,,
1577422962.051922,31.000000,0.000000,4130.256348,4195.384766,3908.718018,4160.512695,3774.871826,0.000000,3.000000,,,,0.000000,4.000000,4.000000,4.000000,4.000000,4.000000,,,,,,,,,,,,,,,,,,,,,,,,,
1577422962.059819,32.000000,0.000000,4151.282227,4206.666504,3931.794922,4194.871582,3797.435791,0.000000,3.000000,,,,0.000000,4.000000,4.000000,4.000000,4.000000,4.000000,,,,,,,,,,,,,,,,,,,,,,,,,
1577422962.067615,33.000000,0.000000,4182.051270,4219.487305,3961.538574,4241.025879,3830.256348,0.000000,3.000000,,,,0.000000,4.000000,4.000000,4.000000,4.000000,4.000000,,,,,,,,,,,,,,,,,,,,,,,,,
1577422962.075411,34.000000,0.000000,4192.307617,4202.563965,3965.128174,4245.128418,3833.333252,0.000000,3.000000,,,,0.000000,4.000000,4.000000,4.000000,4.000000,4.000000,256.755188,37.873360,3.766999,2.947559,6.142476,11.643795,7.563301,3.769711,2.004708,4.862597,106.901123,10.906294,4.763288,2.529633,4.407903,40.042034,15.463223,3.971611,4.552748,8.441759,104.343987,18.909531,4.975821,2.882761,6.326260
1577422962.083208,35.000000,0.000000,4183.589844,4182.563965,3952.307617,4240.512695,3824.102539,0.000000,3.000000,,,,0.000000,4.000000,4.000000,4.000000,4.000000,4.000000,,,,,,,,,,,,,,,,,,,,,,,,,
1577422962.090904,36.000000,0.000000,4164.615234,4176.922852,3925.128174,4234.871582,3813.333252,0.000000,3.000000,,,,0.000000,4.000000,4.000000,4.000000,4.000000,4.000000,,,,,,,,,,,,,,,,,,,,,,,,,
1577422962.098700,37.000000,0.000000,4154.871582,4183.077148,3900.000000,4231.282227,3806.666748,0.000000,3.000000,,,,0.000000,4.000000,4.000000,4.000000,4.000000,4.000000,,,,,,,,,,,,,,,,,,,,,,,,,
1577422962.106397,38.000000,0.000000,4170.256348,4193.846191,3907.179443,4249.743652,3818.461426,0.000000,3.000000,,,,0.000000,4.000000,4.000000,4.000000,4.000000,4.000000,,,,,,,,,,,,,,,,,,,,,,,,,
1577422962.114193,39.000000,0.000000,4175.384766,4189.230957,3915.897461,4251.794922,3820.512939,0.000000,3.000000,,,,0.000000,4.000000,4.000000,4.000000,4.000000,4.000000,,,,,,,,,,,,,,,,,,,,,,,,,
1577422962.121889,40.000000,0.000000,4166.153809,4185.128418,3912.307617,4231.282227,3808.205078,0.000000,3.000000,,,,0.000000,4.000000,4.000000,4.000000,4.000000,4.000000,,,,,,,,,,,,,,,,,,,,,,,,,
1577422962.129686,41.000000,0.000000,4160.512695,4188.717773,3912.820557,4209.743652,3797.435791,0.000000,3.000000,,,,0.000000,4.000000,4.000000,4.000000,4.000000,4.000000,,,,,,,,,,,,,,,,,,,,,,,,,
1577422962.137382,42.000000,0.000000,4160.512695,4188.717773,3923.076904,4212.820313,3796.923096,0.000000,3.000000,,,,0.000000,4.000000,4.000000,4.000000,4.000000,4.000000,,,,,,,,,,,,,,,,,,,,,,,,,
1577422962.145179,43.000000,0.000000,4164.615234,4179.487305,3936.923096,4227.692383,3798.461426,0.000000,3.000000,,,,0.000000,4.000000,4.000000,4.000000,4.000000,4.000000,,,,,,,,,,,,,,,,,,,,,,,,,
1577422962.153075,44.000000,0.000000,4158.461426,4166.153809,3936.410156,4219.487305,3785.641113,0.000000,3.000000,,,,0.000000,4.000000,4.000000,4.000000,4.000000,4.000000,,,,,,,,,,,,,,,,,,,,,,,,,
1577422962.160871,45.000000,0.000000,4152.820313,4171.282227,3931.281982,4220.512695,3784.615479,0.000000,3.000000,,,,0.000000,4.000000,4.000000,4.000000,4.000000,4.000000,,,,,,,,,,,,,,,,,,,,,,,,,
1577422962.168568,46.000000,0.000000,4150.769043,4182.563965,3928.718018,4224.102539,3786.153809,0.000000,3.000000,,,,0.000000,4.000000,4.000000,4.000000,4.000000,4.000000,,,,,,,,,,,,,,,,,,,,,,,,,
1577422962.176464,47.000000,0.000000,4144.615234,4170.256348,3926.153809,4210.256348,3775.384521,0.000000,3.000000,,,,0.000000,4.000000,4.000000,4.000000,4.000000,4.000000,,,,,,,,,,,,,,,,,,,,,,,,,
1577422962.184261,48.000000,0.000000,4142.563965,4157.948730,3933.333252,4197.948730,3771.281982,0.000000,3.000000,,,,0.000000,4.000000,4.000000,4.000000,4.000000,4.000000,,,,,,,,,,,,,,,,,,,,,,,,,
1577422962.192157,49.000000,0.000000,4143.077148,4164.102539,3930.256348,4186.666504,3770.256348,0.000000,3.000000,,,,0.000000,4.000000,4.000000,4.000000,4.000000,4.000000,,,,,,,,,,,,,,,,,,,,,,,,,
1577422962.199954,50.000000,0.000000,4148.717773,4166.666504,3918.974365,4184.102539,3777.435791,0.000000,3.000000,,,,0.000000,4.000000,4.000000,4.000000,4.000000,4.000000,224.788193,35.979179,4.313753,3.269012,2.743544,11.353236,8.415650,4.017399,2.110377,2.225168,111.900452,11.677318,5.072623,3.279738,2.071980,41.759827,15.198547,3.305306,4.079677,3.775310,102.399826,19.631374,5.460647,3.546518,2.841093
1577422962.207850,51.000000,0.000000,4147.179688,4157.948730,3921.025635,4188.717773,3782.564209,0.000000,3.000000,,,,0.000000,4.000000,4.000000,4.000000,4.000000,4.000000,,,,,,,,,,,,,,,,,,,,,,,,,
1577422962.215647,52.000000,0.000000,4137.436035,4154.871582,3929.743652,4192.820313,3778.974365,0.000000,3.000000,,,,0.000000,4.000000,4.000000,4.000000,4.000000,4.000000,,,,,,,,,,,,,,,,,,,,,,,,,
1577422962.223543,53.000000,0.000000,4141.538574,4163.589844,3945.128174,4206.153809,3782.564209,0.000000,3.000000,,,,0.000000,4.000000,4.000000,4.000000,4.000000,4.000000,,,,,,,,,,,,,,,,,,,,,,,,,
1577422962.231340,54.000000,0.000000,4134.871582,4163.589844,3958.974365,4206.666504,3774.871826,0.000000,3.000000,,,,0.000000,4.000000,4.000000,4.000000,4.000000,4.000000,,,,,,,,,,,,,,,,,,,,,,,,,
1577422962.239236,55.000000,0.000000,4120.000000,4155.384766,3964.615479,4196.410156,3765.641113,0.000000,3.000000,,,,0.000000,4.000000,4.000000,4.000000,4.000000,4.000000,,,,,,,,,,,,,,,,,,,,,,,,,
1577422962.247032,56.000000,0.000000,4116.922852,4150.769043,3967.179443,4190.769043,3767.179443,0.000000,3.000000,,,,0.000000,4.000000,4.000000,4.000000,4.000000,4.000000,,,,,,,,,,,,,,,,,,,,,,,,,
1577422962.254929,57.000000,0.000000,4109.743652,4148.717773,3974.358887,4178.974121,3762.564209,0.000000,3.000000,,,,0.000000,4.000000,4.000000,4.000000,4.000000,4.000000,,,,,,,,,,,,,,,,,,,,,,,,,
1577422962.262725,58.000000,0.000000,4113.333496,4164.102539,3996.923096,4177.436035,3770.769287,0.000000,3.000000,,,,0.000000,4.000000,4.000000,4.000000,4.000000,4.000000,,,,,,,,,,,,,,,,,,,,,,,,,
1577422962.270522,59.000000,0.000000,4125.128418,4176.410156,4015.384521,4189.743652,3784.102539,0.000000,3.000000,,,,0.000000,4.000000,4.000000,4.000000,4.000000,4.000000,,,,,,,,,,,,,,,,,,,,,,,,,
1577422962.278218,60.000000,0.000000,4135.897461,4185.641113,4038.461426,4210.769043,3801.538574,0.000000,3.000000,,,,0.000000,4.000000,4.000000,4.000000,4.000000,4.000000,,,,,,,,,,,,,,,,,,,,,,,,,
1577422962.285915,61.000000,0.000000,4160.000000,4206.153809,4072.307617,4239.487305,3832.820557,0.000000,3.000000,,,,0.000000,4.000000,4.000000,4.000000,4.000000,4.000000,,,,,,,,,,,,,,,,,,,,,,,,,
1577422962.293711,62.000000,0.000000,4170.256348,4200.512695,4074.358887,4245.128418,3840.512939,0.000000,3.000000,,,,0.000000,4.000000,4.000000,4.000000,4.000000,4.000000,,,,,,,,,,,,,,,,,,,,,,,,,
1577422962.301407,63.000000,0.000000,4153.333496,4180.000000,4055.384521,4231.282227,3824.615479,0.000000,3.000000,,,,0.000000,4.000000,4.000000,4.000000,4.000000,4.000000,,,,,,,,,,,,,,,,,,,,,,,,,
1577422962.309204,64.000000,0.000000,4123.589844,4168.717773,4039.487061,4225.128418,3805.641113,450.000000,3.000000,,,,0.000000,4.000000,4.000000,4.000000,4.000000,4.000000,,,,,,,,,,,,,,,,,,,,,,,,,
1577422962.316900,65.000000,0.000000,4113.333496,4169.743652,4024.615479,4229.743652,3804.615479,450.000000,3.000000,,,,0.000000,4.000000,4.000000,4.000000,4.000000,4.000000,,,,,,,,,,,,,,,,,,,,,,,,,
1577422962.324696,66.000000,0.000000,4125.641113,4178.974121,4023.589844,4235.897461,3825.641113,16220.000000,3.000000,,,,0.000000,4.000000,4.000000,4.000000,4.000000,4.000000,168.850372,30.787874,4.886550,3.508480,1.123344,10.298928,8.861406,3.940032,2.127569,0.920356,102.913361,13.009248,5.290530,3.912153,0.931441,39.201591,13.814540,2.853768,3.534336,1.470681,84.919525,19.846714,5.601075,4.027700,1.144825
1577422962.332393,67.000000,0.000000,4131.282227,4175.384766,4029.743652,4243.077148,3835.897461,450.000000,3.000000,,,,0.000000,4.000000,4.000000,4.000000,4.000000,4.000000,,,,,,,,,,,,,,,,,,,,,,,,,
1577422962.340189,68.000000,0.000000,4131.282227,4169.230957,4029.743652,4246.153809,3837.435791,16212.000000,3.000000,,,,0.000000,4.000000,4.000000,4.000000,4.000000,4.000000,,,,,,,,,,,,,,,,,,,,,,,,,
1577422962.347885,69.000000,0.000000,4115.897461,4158.461426,4020.000000,4226.153809,3828.718018,450.000000,3.000000,,,,0.000000,4.000000,4.000000,4.000000,4.000000,4.000000,,,,,,,,,,,,,,,,,,,,,,,,,
1577422962.355682,70.000000,0.000000,4098.974121,4143.077148,4010.769287,4207.692383,3821.538574,16170.000000,3.000000,,,,0.000000,4.000000,4.000000,4.000000,4.000000,4.000000,,,,,,,,,,,,,,,,,,,,,,,,,
1577422962.363378,71.000000,0.000000,4112.307617,4148.205078,4014.358887,4214.871582,3842.564209,450.000000,3.000000,,,,0.000000,4.000000,4.000000,4.000000,4.000000,4.000000,,,,,,,,,,,,,,,,,,,,,,,,,
1577422962.371275,72.000000,0.000000,4112.307617,4150.769043,4016.923096,4202.051270,3850.256348,450.000000,3.000000,,,,0.000000,4.000000,4.000000,4.000000,4.000000,4.000000,,,,,,,,,,,,,,,,,,,,,,,,,
1577422962.379071,73.000000,0.000000,4092.307617,4150.256348,4019.487061,4169.743652,3843.589844,16133.000000,3.000000,,,,0.000000,4.000000,4.000000,4.000000,4.000000,4.000000,,,,,,,,,,,,,,,,,,,,,,,,,
1577422962.386868,74.000000,0.000000,4088.718018,4163.077148,4024.615479,4157.948730,3855.897461,450.000000,3.000000,,,,0.000000,4.000000,4.000000,4.000000,4.000000,4.000000,,,,,,,,,,,,,,,,,,,,,,,,,
1577422962.394564,75.000000,0.000000,4104.615234,4174.358887,4037.948730,4175.384766,3876.923096,16220.000000,3.000000,,,,0.000000,4.000000,4.000000,4.000000,4.000000,4.000000,,,,,,,,,,,,,,,,,,,,,,,,,
1577422962.402360,76.000000,0.000000,4149.230957,4189.743652,4075.384521,4214.358887,3909.743652,450.000000,3.000000,,,,0.000000,4.000000,4.000000,4.000000,4.000000,4.000000,,,,,,,,,,,,,,,,,,,,,,,,,
1577422962.410057,77.000000,0.000000,4169.230957,4200.512695,4091.794922,4219.487305,3927.179443,450.000000,3.000000,,,,0.000000,4.000000,4.000000,4.000000,4.000000,4.000000,,,,,,,,,,,,,,,,,,,,,,,,,
1577422962.417853,78.000000,0.000000,4141.538574,4198.461426,4074.871826,4178.974121,3910.769287,450.000000,3.000000,,,,0.000000,4.000000,4.000000,4.000000,4.000000,4.000000,,,,,,,,,,,,,,,,,,,,,,,,,
1577422962.425549,79.000000,0.000000,4125.641113,4186.153809,4066.666748,4154.358887,3897.948730,16220.000000,3.000000,,,,0.000000,4.000000,4.000000,4.000000,4.000000,4.000000,,,,,,,,,,,,,,,,,,,,,,,,,
1577422962.433446,80.000000,0.000000,4124.102539,4171.282227,4055.897461,4145.641113,3892.307617,450.000000,3.000000,,,,0.000000,4.000000,4.000000,4.000000,4.000000,4.000000,,,,,,,,,,,,,,,,,,,,,,,,,
1577422962.441242,81.000000,0.000000,4123.589844,4179.487305,4042.564209,4129.230957,3884.102539,450.000000,3.000000,,,,0.000000,4.000000,4.000000,4.000000,4.000000,4.000000,,,,,,,,,,,,,,,,,,,,,,,,,
1577422962.449139,82.000000,0.000000,4120.000000,4184.102539,4032.820557,4114.871582,3876.923096,450.000000,3.000000,,,,0.000000,4.000000,4.000000,4.000000,4.000000,4.000000,107.153366,24.287073,5.655247,3.684408,0.703803,8.680000,8.777072,3.572256,2.042588,0.521425,84.907471,14.754476,5.532608,4.257224,0.599210,33.530636,12.010630,2.817002,3.018323,0.807986,66.921555,19.694677,5.436167,4.190017,0.655367
1577422962.456935,83.000000,0.000000,4122.563965,4169.743652,4030.769287,4127.692383,3878.461426,16220.000000,3.000000,,,,0.000000,4.000000,4.000000,4.000000,4.000000,4.000000,,,,,,,,,,,,,,,,,,,,,,,,,
1577422962.464732,84.000000,0.000000,4135.384766,4172.820313,4045.128174,4160.512695,3893.846191,450.000000,3.000000,,,,0.000000,4.000000,4.000000,4.000000,4.000000,4.000000,,,,,,,,,,,,,,,,,,,,,,,,,
1577422962.472428,85.000000,0.000000,4126.666504,4176.410156,4043.589844,4169.743652,3901.538574,450.000000,3.000000,,,,0.000000,4.000000,4.000000,4.000000,4.000000,4.000000,,,,,,,,,,,,,,,,,,,,,,,,,
1577422962.480125,86.000000,0.000000,4111.282227,4164.615234,4027.692383,4163.589844,3897.435791,450.000000,3.000000,,,,0.000000,4.000000,4.000000,4.000000,4.000000,4.000000,,,,,,,,,,,,,,,,,,,,,,,,,
1577422962.487921,87.000000,0.000000,4109.230957,4154.871582,4012.820557,4151.282227,3888.718018,16220.000000,3.000000,,,,0.000000,4.000000,4.000000,4.000000,4.000000,4.000000,,,,,,,,,,,,,,,,,,,,,,,,,
1577422962.495617,88.000000,0.000000,4110.256348,4157.948730,4010.256348,4147.692383,3890.256348,450.000000,3.000000,,,,0.000000,4.000000,4.000000,4.000000,4.000000,4.000000,,,,,,,,,,,,,,,,,,,,,,,,,
1577422962.503413,89.000000,0.000000,4130.769043,4187.692383,4044.102539,4183.077148,3922.051270,450.000000,3.000000,,,,0.000000,4.000000,4.000000,4.000000,4.000000,4.000000,,,,,,,,,,,,,,,,,,,,,,,,,
1577422962.511110,90.000000,0.000000,4166.666504,4208.717773,4076.923096,4210.256348,3955.897461,450.000000,3.000000,,,,0.000000,4.000000,4.000000,4.000000,4.000000,4.000000,,,,,,,,,,,,,,,,,,,,,,,,,
1577422962.518906,91.000000,0.000000,4180.512695,4198.461426,4084.102539,4205.128418,3966.666748,16220.000000,3.000000,,,,0.000000,4.000000,4.000000,4.000000,4.000000,4.000000,,,,,,,,,,,,,,,,,,,,,,,,,
1577422962.526603,92.000000,0.000000,4158.461426,4183.589844,4076.410156,4178.974121,3955.384521,450.000000,3.000000,,,,0.000000,4.000000,4.000000,4.000000,4.000000,4.000000,,,,,,,,,,,,,,,,,,,,,,,,,
1577422962.534399,93.000000,0.000000,4134.871582,4181.025879,4074.358887,4137.436035,3942.051270,450.000000,3.000000,,,,0.000000,4.000000,4.000000,4.000000,4.000000,4.000000,,,,,,,,,,,,,,,,,,,,,,,,,
1577422962.542095,94.000000,0.000000,4140.000000,4190.256348,4089.230713,4107.692383,3951.794922,450.000000,3.000000,,,,0.000000,4.000000,4.000000,4.000000,4.000000,4.000000,,,,,,,,,,,,,,,,,,,,,,,,,
1577422962.549892,95.000000,0.000000,4140.512695,4182.563965,4082.051270,4084.615479,3961.538574,16220.000000,3.000000,,,,0.000000,4.000000,4.000000,4.000000,4.000000,4.000000,,,,,,,,,,,,,,,,,,,,,,,,,
1577422962.557588,96.000000,0.000000,4126.153809,4168.205078,4068.205078,4075.897461,3963.589844,450.000000,3.000000,,,,0.000000,4.000000,4.000000,4.000000,4.000000,4.000000,,,,,,,,,,,,,,,,,,,,,,,,,
1577422962.565384,97.000000,0.000000,4118.974121,4177.436035,4080.512939,4086.666748,3976.923096,450.000000,3.000000,,,,0.000000,4.000000,4.000000,4.000000,4.000000,4.000000,,,,,,,,,,,,,,,,,,,,,,,,,
1577422962.573081,98.000000,0.000000,4117.948730,4183.077148,4087.692383,4091.281982,4001.538574,450.000000,3.000000,,,,0.000000,4.000000,4.000000,4.000000,4.000000,4.000000,57.293247,18.440485,6.695901,3.812318,0.702270,7.019382,8.148157,3.057332,1.878347,0.452169,62.838486,16.610699,5.886559,4.242111,0.550790,26.629677,10.462393,3.289785,2.627791,0.753308,45.406818,19.088593,5.166522,4.020312,0.586884
1577422962.580877,99.000000,0.000000,4130.256348,4178.461426,4092.307617,4096.410156,4039.487061,16220.000000,3.000000,,,,0.000000,4.000000,4.000000,4.000000,4.000000,4.000000,,,,,,,,,,,,,,,,,,,,,,,,,
1577422962.588573,100.000000,0.000000,4136.922852,4169.230957,4097.948730,4093.333252,4066.666748,450.000000,3.000000,,,,0.000000,4.000000,4.000000,4.000000,4.000000,4.000000,,,,,,,,,,,,,,,,,,,,,,,,,
1577422962.596370,101.000000,0.000000,4126.153809,4165.128418,4093.846191,4088.205078,4082.051270,450.000000,3.000000,,,,0.000000,4.000000,4.000000,4.000000,4.000000,4.000000,,,,,,,,,,,,,,,,,,,,,,,,,
1577422962.604066,102.000000,0.000000,4127.692383,4175.897461,4099.487305,4102.051270,4112.820313,450.000000,3.000000,,,,0.000000,4.000000,4.000000,4.000000,4.000000,4.000000,,,,,,,,,,,,,,,,,,,,,,,,,
1577422962.611862,103.000000,0.000000,4135.897461,4182.051270,4109.230957,4124.615234,4146.153809,16220.000000,3.000000,,,,0.000000,4.000000,4.000000,4.000000,4.000000,4.000000,,,,,,,,,,,,,,,,,,,,,,,,,
1577422962.619559,104.000000,0.000000,4137.948730,4175.897461,4117.948730,4155.384766,4180.000000,450.000000,3.000000,,,,0.000000,4.000000,4.000000,4.000000,4.000000,4.000000,,,,,,,,,,,,,,,,,,,,,,,,,
1577422962.627455,105.000000,0.000000,4140.000000,4169.743652,4128.717773,4155.897461,4210.256348,450.000000,3.000000,,,,0.000000,4.000000,4.000000,4.000000,4.000000,4.000000,,,,,,,,,,,,,,,,,,,,,,,,,
1577422962.635252,106.000000,0.000000,4142.051270,4178.974121,4140.000000,4113.846191,4225.128418,450.000000,3.000000,,,,0.000000,4.000000,4.000000,4.000000,4.000000,4.000000,,,,,,,,,,,,,,,,,,,,,,,,,
1577422962.643148,107.000000,0.000000,4158.974121,4198.974121,4160.000000,4100.000000,4242.563965,16220.000000,3.000000,,,,0.000000,4.000000,4.000000,4.000000,4.000000,4.000000,,,,,,,,,,,,,,,,,,,,,,,,,
1577422962.650945,108.000000,0.000000,4188.717773,4203.077148,4172.820313,4118.974121,4265.641113,450.000000,3.000000,,,,0.000000,4.000000,4.000000,4.000000,4.000000,4.000000,,,,,,,,,,,,,,,,,,,,,,,,,
1577422962.658841,109.000000,0.000000,4201.025879,4201.538574,4166.153809,4121.025879,4276.410156,450.000000,3.000000,,,,0.000000,4.000000,4.000000,4.000000,4.000000,4.000000,,,,,,,,,,,,,,,,,,,,,,,,,
1577422962.666637,110.000000,0.000000,4173.333496,4194.871582,4145.641113,4083.589844,4260.512695,450.000000,3.000000,,,,0.000000,4.000000,4.000000,4.000000,4.000000,4.000000,,,,,,,,,,,,,,,,,,,,,,,,,
1577422962.674534,111.000000,0.000000,4145.641113,4169.743652,4125.128418,4030.769287,4252.307617,16220.000000,3.000000,,,,0.000000,4.000000,4.000000,4.000000,4.000000,4.000000,,,,,,,,,,,,,,,,,,,,,,,,,
1577422962.682330,112.000000,0.000000,4155.897461,4165.641113,4125.128418,3987.179443,4286.666504,450.000000,3.000000,,,,0.000000,4.000000,4.000000,4.000000,4.000000,4.000000,,,,,,,,,,,,,,,,,,,,,,,,,
1577422962.690226,113.000000,0.000000,4160.000000,4181.538574,4129.743652,3943.589844,4307.692383,450.000000,3.000000,,,,0.000000,4.000000,4.000000,4.000000,4.000000,4.000000,,,,,,,,,,,,,,,,,,,,,,,,,
1577422962.698022,114.000000,0.000000,4148.205078,4178.974121,4140.000000,3920.000000,4298.974121,450.000000,3.000000,,,,0.000000,4.000000,4.000000,4.000000,4.000000,4.000000,27.575695,14.374039,7.840366,3.908933,0.723306,5.797709,7.171088,2.567391,1.693525,0.419576,44.386719,18.162418,6.228468,3.924938,0.522726,20.984985,9.531715,4.188935,2.462944,0.755256,32.048344,17.778696,4.955019,3.638705,0.548419
1577422962.705719,115.000000,0.000000,4151.282227,4169.230957,4167.692383,3917.948730,4295.897461,16220.000000,3.000000,,,,0.000000,4.000000,4.000000,4.000000,4.000000,4.000000,,,,,,,,,,,,,,,,,,,,,,,,,
1577422962.713515,116.000000,0.000000,4151.282227,4175.384766,4187.179688,3917.948730,4293.846191,450.000000,3.000000,,,,0.000000,4.000000,4.000000,4.000000,4.000000,4.000000,,,,,,,,,,,,,,,,,,,,,,,,,
1577422962.721311,117.000000,0.000000,4154.871582,4197.948730,4199.487305,3940.512939,4299.487305,450.000000,3.000000,,,,0.000000,4.000000,4.000000,4.000000,4.000000,4.000000,,,,,,,,,,,,,,,,,,,,,,,,,
1577422962.729008,118.000000,0.000000,4148.717773,4204.102539,4201.538574,3953.333252,4292.820313,450.000000,3.000000,,,,0.000000,4.000000,4.000000,4.000000,4.000000,4.000000,,,,,,,,,,,,,,,,,,,,,,,,,
1577422962.736704,119.000000,0.000000,4132.820313,4192.307617,4193.333496,3947.692383,4286.666504,16220.000000,3.000000,,,,0.000000,4.000000,4.000000,4.000000,4.000000,4.000000,,,,,,,,,,,,,,,,,,,,,,,,,
1577422962.744500,120.000000,0.000000,4147.692383,4202.051270,4207.692383,3971.794922,4321.538574,450.000000,3.000000,,,,0.000000,4.000000,4.000000,4.000000,4.000000,4.000000,,,,,,,,,,,,,,,,,,,,,,,,,
1577422962.752197,121.000000,0.000000,4168.717773,4221.538574,4225.641113,4007.179443,4349.230957,450.000000,3.000000,,,,0.000000,4.000000,4.000000,4.000000,4.000000,4.000000,,,,,,,,,,,,,,,,,,,,,,,,,
1577422962.760093,122.000000,0.000000,4168.717773,4227.692383,4223.589844,4027.179443,4348.205078,450.000000,3.000000,,,,0.000000,4.000000,4.000000,4.000000,4.000000,4.000000,,,,,,,,,,,,,,,,,,,,,,,,,
1577422962.767890,123.000000,0.000000,4155.384766,4209.230957,4205.128418,4044.102539,4335.897461,16220.000000,3.000000,,,,0.000000,4.000000,4.000000,4.000000,4.000000,4.000000,,,,,,,,,,,,,,,,,,,,,,,,,
1577422962.775786,124.000000,0.000000,4153.333496,4196.410156,4187.692383,4070.769287,4330.256348,450.000000,3.000000,,,,0.000000,4.000000,4.000000,4.000000,4.000000,4.000000,,,,,,,,,,,,,,,,,,,,,,,,,
1577422962.783583,125.000000,0.000000,4165.641113,4212.307617,4184.615234,4100.000000,4331.794922,450.000000,3.000000,,,,0.000000,4.000000,4.000000,4.000000,4.000000,4.000000,,,,,,,,,,,,,,,,,,,,,,,,,
1577422962.791479,126.000000,0.000000,4163.077148,4214.358887,4174.358887,4108.205078,4310.769043,450.000000,3.000000,,,,0.000000,4.000000,4.000000,4.000000,4.000000,4.000000,,,,,,,,,,,,,,,,,,,,,,,,,
1577422962.799276,127.000000,0.000000,4166.666504,4202.563965,4148.205078,4107.179688,4280.512695,233.000000,3.000000,,,,0.000000,4.000000,4.000000,4.000000,4.000000,4.000000,,,,,,,,,,,,,,,,,,,,,,,,,
1577422962.807172,0.000000,0.000000,4174.358887,4202.051270,4124.102539,4109.230957,4249.743652,450.000000,3.000000,,,,0.000000,4.000000,4.000000,4.000000,4.000000,4.000000,,,,,,,,,,,,,,,,,,,,,,,,,
1577422962.814969,1.000000,0.000000,4170.256348,4203.077148,4105.128418,4105.641113,4216.922852,450.000000,3.000000,,,,0.000000,4.000000,4.000000,4.000000,4.000000,4.000000,,,,,,,,,,,,,,,,,,,,,,,,,
1577422962.822865,2.000000,0.000000,4177.948730,4205.641113,4089.230713,4096.410156,4196.922852,16221.000000,3.000000,,,,0.000000,4.000000,4.000000,4.000000,4.000000,4.000000,15.551005,12.049541,8.770699,3.972480,0.733523,5.341709,6.177509,2.224170,1.540331,0.394705,32.200516,19.155308,6.440353,3.458517,0.494115,18.143579,9.206569,5.256093,2.611082,0.763184,23.858482,15.831334,4.855262,3.226295,0.518380
1577422962.830662,3.000000,0.000000,4178.974121,4194.871582,4067.692383,4063.076904,4171.282227,450.000000,3.000000,,,,0.000000,4.000000,4.000000,4.000000,4.000000,4.000000,,,,,,,,,,,,,,,,,,,,,,,,,
1577422962.838558,4.000000,0.000000,4167.692383,4180.512695,4051.281982,4022.564209,4136.410156,16166.000000,3.000000,,,,0.000000,4.000000,4.000000,4.000000,4.000000,4.000000,,,,,,,,,,,,,,,,,,,,,,,,,
1577422962.846355,5.000000,0.000000,4161.025879,4197.436035,4047.692383,4015.897461,4107.179688,450.000000,3.000000,,,,0.000000,4.000000,4.000000,4.000000,4.000000,4.000000,,,,,,,,,,,,,,,,,,,,,,,,,
1577422962.854151,6.000000,0.000000,4152.820313,4216.410156,4036.923096,4029.230713,4091.281982,16137.000000,3.000000,,,,0.000000,4.000000,4.000000,4.000000,4.000000,4.000000,,,,,,,,,,,,,,,,,,,,,,,,,
1577422962.861847,7.000000,0.000000,4181.025879,4217.948730,4041.025635,4065.128174,4112.820313,450.000000,3.000000,,,,0.000000,4.000000,4.000000,4.000000,4.000000,4.000000,,,,,,,,,,,,,,,,,,,,,,,,,
1577422962.869644,8.000000,0.000000,4216.922852,4208.717773,4049.230713,4106.666504,4126.666504,450.000000,3.000000,,,,0.000000,4.000000,4.000000,4.000000,4.000000,4.000000,,,,,,,,,,,,,,,,,,,,,,,,,
1577422962.877340,9.000000,0.000000,4205.641113,4201.538574,4035.384521,4117.948730,4103.589844,16182.000000,3.000000,,,,0.000000,4.000000,4.000000,4.000000,4.000000,4.000000,,,,,,,,,,,,,,,,,,,,,,,,,
1577422962.885136,10.000000,0.000000,4187.692383,4201.025879,4022.564209,4114.871582,4094.871826,450.000000,3.000000,,,,0.000000,4.000000,4.000000,4.000000,4.000000,4.000000,,,,,,,,,,,,,,,,,,,,,,,,,
1577422962.892933,11.000000,0.000000,4193.333496,4192.820313,4017.948730,4115.384766,4105.641113,16220.000000,3.000000,,,,0.000000,4.000000,4.000000,4.000000,4.000000,4.000000,,,,,,,,,,,,,,,,,,,,,,,,,
1577422962.900629,12.000000,0.000000,4212.307617,4196.410156,4031.281982,4132.820313,4120.512695,450.000000,3.000000,,,,0.000000,4.000000,4.000000,4.000000,4.000000,4.000000,,,,,,,,,,,,,,,,,,,,,,,,,
1577422962.908425,13.000000,0.000000,4212.307617,4200.512695,4040.512939,4148.717773,4124.102539,450.000000,3.000000,,,,0.000000,4.000000,4.000000,4.000000,4.000000,4.000000,,,,,,,,,,,,,,,,,,,,,,,,,
1577422962.916122,14.000000,0.000000,4195.897461,4185.641113,4022.564209,4142.563965,4108.205078,450.000000,3.000000,,,,0.000000,4.000000,4.000000,4.000000,4.000000,4.000000,,,,,,,,,,,,,,,,,,,,,,,,,
1577422962.923918,15.000000,0.000000,4191.282227,4175.384766,4018.461426,4129.743652,4099.487305,16220.000000,3.000000,,,,0.000000,4.000000,4.000000,4.000000,4.000000,4.000000,,,,,,,,,,,,,,,,,,,,,,,,,
1577422962.931614,16.000000,0.000000,4184.102539,4166.666504,4017.435791,4110.256348,4090.256348,0.000000,3.000000,,,,0.000000,4.000000,4.000000,4.000000,4.000000,4.000000,,,,,,,,,,,,,,,,,,,,,,,,,
1577422962.939411,17.000000,0.000000,4177.948730,4157.948730,4003.589844,4094.871826,4069.743652,0.000000,3.000000,,,,0.000000,4.000000,4.000000,4.000000,4.000000,4.000000,,,,,,,,,,,,,,,,,,,,,,,,,
1577422962.947107,18.000000,0.000000,4166.666504,4147.692383,4003.589844,4081.025635,4043.076904,0.000000,3.000000,,,,0.000000,4.000000,4.000000,4.000000,4.000000,4.000000,12.697215,10.657943,9.133428,3.991430,0.745617,5.336131,5.451695,2.026925,1.448294,0.383580,26.245302,19.595371,6.338323,3.028889,0.471892,19.601757,9.404369,6.168742,3.087338,0.787815,20.158323,13.674059,4.752796,2.932110,0.514535
1577422962.954903,19.000000,0.000000,4150.256348,4145.641113,4034.358887,4074.871826,4011.794922,0.000000,3.000000,,,,0.000000,4.000000,4.000000,4.000000,4.000000,4.000000,,,,,,,,,,,,,,,,,,,,,,,,,
1577422962.962600,20.000000,0.000000,4149.230957,4159.487305,4078.461426,4081.025635,3989.743652,0.000000,3.000000,,,,0.000000,4.000000,4.000000,4.000000,4.000000,4.000000,,,,,,,,,,,,,,,,,,,,,,,,,
1577422962.970396,21.000000,0.000000,4147.692383,4153.846191,4115.384766,4071.794922,3976.923096,0.000000,3.000000,,,,0.000000,4.000000,4.000000,4.000000,4.000000,4.000000,,,,,,,,,,,,,,,,,,,,,,,,,
1577422962.978092,22.000000,0.000000,4144.615234,4149.230957,4166.153809,4067.692383,3969.743652,0.000000,3.000000,,,,0.000000,4.000000,4.000000,4.000000,4.000000,4.000000,,,,,,,,,,,,,,,,,,,,,,,,,
1577422962.985889,23.000000,0.000000,4151.282227,4164.615234,4212.307617,4080.512939,3961.025635,0.000000,3.000000,,,,0.000000,4.000000,4.000000,4.000000,4.000000,4.000000,,,,,,,,,,,,,,,,,,,,,,,,,
1577422962.993585,24.000000,0.000000,4153.846191,4167.179688,4221.538574,4086.153809,3944.615479,0.000000,3.000000,,,,0.000000,4.000000,4.000000,4.000000,4.000000,4.000000,,,,,,,,,,,,,,,,,,,,,,,,,
1577422963.001381,25.000000,0.000000,4163.589844,4171.282227,4207.179688,4097.948730,3935.384521,0.000000,3.000000,,,,0.000000,4.000000,4.000000,4.000000,4.000000,4.000000,,,,,,,,,,,,,,,,,,,,,,,,,
1577422963.009078,26.000000,0.000000,4178.461426,4176.410156,4169.743652,4106.153809,3924.615479,0.000000,3.000000,,,,0.000000,4.000000,4.000000,4.000000,4.000000,4.000000,,,,,,,,,,,,,,,,,,,,,,,,,
1577422963.016874,27.000000,0.000000,4179.487305,4161.538574,4114.358887,4108.205078,3906.666748,0.000000,3.000000,,,,0.000000,4.000000,4.000000,4.000000,4.000000,4.000000,,,,,,,,,,,,,,,,,,,,,,,,,
1577422963.024571,28.000000,0.000000,4156.410156,4148.717773,4045.128174,4109.230957,3886.666748,0.000000,3.000000,,,,0.000000,4.000000,4.000000,4.000000,4.000000,4.000000,,,,,,,,,,,,,,,,,,,,,,,,,
1577422963.032467,29.000000,0.000000,4123.077148,4148.205078,3968.718018,4093.333252,3862.051270,0.000000,3.000000,,,,0.000000,4.000000,4.000000,4.000000,4.000000,4.000000,,,,,,,,,,,,,,,,,,,,,,,,,
1577422963.040263,30.000000,0.000000,4118.461426,4154.871582,3925.128174,4084.102539,3860.000000,0.000000,3.000000,,,,0.000000,4.000000,4.000000,4.000000,4.000000,4.000000,,,,,,,,,,,,,,,,,,,,,,,,,
1577422963.048160,31.000000,0.000000,4130.256348,4150.769043,3918.461426,4093.333252,3869.743652,0.000000,3.000000,,,,0.000000,4.000000,4.000000,4.000000,4.000000,4.000000,,,,,,,,,,,,,,,,,,,,,,,,,
1577422963.055956,32.000000,0.000000,4122.563965,4147.179688,3931.794922,4110.256348,3857.948730,0.000000,3.000000,,,,0.000000,4.000000,4.000000,4.000000,4.000000,4.000000,,,,,,,,,,,,,,,,,,,,,,,,,
1577422963.063853,33.000000,0.000000,4112.820313,4154.358887,3947.692383,4122.051270,3842.051270,0.000000,3.000000,,,,0.000000,4.000000,4.000000,4.000000,4.000000,4.000000,,,,,,,,,,,,,,,,,,,,,,,,,
1577422963.071649,34.000000,0.000000,4114.358887,4145.128418,3946.153809,4116.922852,3841.538574,0.000000,3.000000,,,,0.000000,4.000000,4.000000,4.000000,4.000000,4.000000,11.328135,9.709439,8.710033,3.950203,0.773770,5.406551,5.176441,1.921071,1.414813,0.396336,24.604380,19.706930,5.996887,2.760422,0.461320,27.526567,10.200788,6.708150,3.800913,0.833287,17.993053,12.013675,4.491613,2.807347,0.547252
1577422963.079546,35.000000,0.000000,4113.846191,4130.769043,3960.000000,4125.128418,3855.384521,0.000000,3.000000,,,,0.000000,4.000000,4.000000,4.000000,4.000000,4.000000,,,,,,,,,,,,,,,,,,,,,,,,,
1577422963.087342,36.000000,0.000000,4092.307617,4128.717773,3982.564209,4131.794922,3848.205078,0.000000,3.000000,,,,0.000000,4.000000,4.000000,4.000000,4.000000,4.000000,,,,,,,,,,,,,,,,,,,,,,,,,
1577422963.095238,37.000000,0.000000,4064.102539,4122.051270,3983.589844,4118.974121,3826.666748,0.000000,3.000000,,,,0.000000,4.000000,4.000000,4.000000,4.000000,4.000000,,,,,,,,,,,,,,,,,,,,,,,,,
1577422963.103034,38.000000,0.000000,4068.205078,4119.487305,3996.923096,4115.384766,3841.025635,0.000000,3.000000,,,,0.000000,4.000000,4.000000,4.000000,4.000000,4.000000,,,,,,,,,,,,,,,,,,,,,,,,,
1577422963.110731,39.000000,0.000000,4074.358887,4117.436035,4019.487061,4110.769043,3851.794922,0.000000,3.000000,,,,0.000000,4.000000,4.000000,4.000000,4.000000,4.000000,,,,,,,,,,,,,,,,,,,,,,,,,
1577422963.118527,40.000000,0.000000,4070.769287,4109.230957,4036.410156,4106.666504,3855.897461,0.000000,3.000000,,,,0.000000,4.000000,4.000000,4.000000,4.000000,4.000000,,,,,,,,,,,,,,,,,,,,,,,,,
1577422963.126223,41.000000,0.000000,4073.333252,4111.794922,4052.307617,4106.666504,3880.512939,0.000000,3.000000,,,,0.000000,4.000000,4.000000,4.000000,4.000000,4.000000,,,,,,,,,,,,,,,,,,,,,,,,,
1577422963.134020,42.000000,0.000000,4061.025635,4118.461426,4054.871826,4092.820557,3894.358887,0.000000,3.000000,,,,0.000000,4.000000,4.000000,4.000000,4.000000,4.000000,,,,,,,,,,,,,,,,,,,,,,,,,
1577422963.141716,43.000000,0.000000,4061.538574,4128.205078,4064.615479,4096.922852,3913.333252,0.000000,3.000000,,,,0.000000,4.000000,4.000000,4.000000,4.000000,4.000000,,,,,,,,,,,,,,,,,,,,,,,,,
1577422963.149512,44.000000,0.000000,4096.922852,4143.077148,4087.179443,4128.205078,3953.846191,0.000000,3.000000,,,,0.000000,4.000000,4.000000,4.000000,4.000000,4.000000,,,,,,,,,,,,,,,,,,,,,,,,,
1577422963.157209,45.000000,0.000000,4133.333496,4151.282227,4098.461426,4141.025879,3989.743652,0.000000,3.000000,,,,0.000000,4.000000,4.000000,4.000000,4.000000,4.000000,,,,,,,,,,,,,,,,,,,,,,,,,
1577422963.165005,46.000000,0.000000,4132.820313,4146.153809,4094.871826,4117.948730,3981.025635,0.000000,3.000000,,,,0.000000,4.000000,4.000000,4.000000,4.000000,4.000000,,,,,,,,,,,,,,,,,,,,,,,,,
1577422963.172701,47.000000,0.000000,4102.563965,4134.871582,4075.897461,4092.820557,3942.051270,0.000000,3.000000,,,,0.000000,4.000000,4.000000,4.000000,4.000000,4.000000,,,,,,,,,,,,,,,,,,,,,,,,,
1577422963.180598,48.000000,0.000000,4092.820557,4140.000000,4065.128174,4092.307617,3941.025635,0.000000,3.000000,,,,0.000000,4.000000,4.000000,4.000000,4.000000,4.000000,,,,,,,,,,,,,,,,,,,,,,,,,
1577422963.188394,49.000000,0.000000,4096.410156,4147.179688,4063.076904,4075.897461,3945.128174,0.000000,3.000000,,,,0.000000,4.000000,4.000000,4.000000,4.000000,4.000000,,,,,,,,,,,,,,,,,,,,,,,,,
1577422963.196291,50.000000,0.000000,4091.281982,4141.025879,4054.358887,4048.205078,3930.769287,0.000000,3.000000,,,,0.000000,4.000000,4.000000,4.000000,4.000000,4.000000,9.787038,9.132643,7.534960,3.830721,0.820866,5.235867,5.392866,1.827229,1.408796,0.437024,25.113626,20.150511,5.595126,2.662136,0.462299,42.751427,12.149474,6.862220,4.581465,0.885677,19.305912,11.357031,3.952910,2.793847,0.613127
1577422963.204087,51.000000,0.000000,4100.512695,4145.128418,4047.179443,4044.102539,3937.435791,0.000000,3.000000,,,,0.000000,4.000000,4.000000,4.000000,4.000000,4.000000,,,,,,,,,,,,,,,,,,,,,,,,,
1577422963.211984,52.000000,0.000000,4102.563965,4153.846191,4027.179443,4026.153809,3936.410156,0.000000,3.000000,,,,0.000000,4.000000,4.000000,4.000000,4.000000,4.000000,,,,,,,,,,,,,,,,,,,,,,,,,
1577422963.219780,53.000000,0.000000,4096.410156,4156.410156,3995.897461,4013.333252,3922.564209,0.000000,3.000000,,,,0.000000,4.000000,4.000000,4.000000,4.000000,4.000000,,,,,,,,,,,,,,,,,,,,,,,,,
1577422963.227677,54.000000,0.000000,4104.102539,4159.487305,3980.000000,4041.025635,3925.128174,0.000000,3.000000,,,,0.000000,4.000000,4.000000,4.000000,4.000000,4.000000,,,,,,,,,,,,,,,,,,,,,,,,,
1577422963.235473,55.000000,0.000000,4103.589844,4152.820313,3966.153809,4058.461426,3921.538574,0.000000,3.000000,,,,0.000000,4.000000,4.000000,4.000000,4.000000,4.000000,,,,,,,,,,,,,,,,,,,,,,,,,
1577422963.243370,56.000000,0.000000,4097.436035,4156.410156,3942.051270,4049.743652,3903.076904,0.000000,3.000000,,,,0.000000,4.000000,4.000000,4.000000,4.000000,4.000000,,,,,,,,,,,,,,,,,,,,,,,,,
1577422963.251166,57.000000,0.000000,4097.436035,4174.871582,3912.307617,4041.538574,3882.051270,0.000000,3.000000,,,,0.000000,4.000000,4.000000,4.000000,4.000000,4.000000,,,,,,,,,,,,,,,,,,,,,,,,,
1577422963.259062,58.000000,0.000000,4107.692383,4190.256348,3900.000000,4042.051270,3880.512939,0.000000,3.000000,,,,0.000000,4.000000,4.000000,4.000000,4.000000,4.000000,,,,,,,,,,,,,,,,,,,,,,,,,
1577422963.266859,59.000000,0.000000,4127.179688,4200.512695,3910.769287,4048.718018,3896.923096,0.000000,3.000000,,,,0.000000,4.000000,4.000000,4.000000,4.000000,4.000000,,,,,,,,,,,,,,,,,,,,,,,,,
1577422963.274755,60.000000,0.000000,4147.692383,4205.641113,3900.512939,4050.256348,3903.589844,0.000000,3.000000,,,,0.000000,4.000000,4.000000,4.000000,4.000000,4.000000,,,,,,,,,,,,,,,,,,,,,,,,,
1577422963.282551,61.000000,0.000000,4173.333496,4217.948730,3874.358887,4054.358887,3907.692383,0.000000,3.000000,,,,0.000000,4.000000,4.000000,4.000000,4.000000,4.000000,,,,,,,,,,,,,,,,,,,,,,,,,
1577422963.290247,62.000000,0.000000,4164.615234,4210.769043,3837.948730,4048.718018,3897.435791,0.000000,3.000000,,,,0.000000,4.000000,4.000000,4.000000,4.000000,4.000000,,,,,,,,,,,,,,,,,,,,,,,,,
1577422963.298044,63.000000,0.000000,4128.717773,4185.128418,3795.384521,4023.076904,3873.333252,0.000000,3.000000,,,,0.000000,4.000000,4.000000,4.000000,4.000000,4.000000,,,,,,,,,,,,,,,,,,,,,,,,,
1577422963.305840,64.000000,0.000000,4134.871582,4190.256348,3793.846191,4020.512939,3880.000000,450.000000,3.000000,,,,0.000000,4.000000,4.000000,4.000000,4.000000,4.000000,,,,,,,,,,,,,,,,,,,,,,,,,
1577422963.313536,65.000000,0.000000,4145.128418,4198.461426,3786.666748,4023.589844,3881.025635,450.000000,3.000000,,,,0.000000,4.000000,4.000000,4.000000,4.000000,4.000000,,,,,,,,,,,,,,,,,,,,,,,,,
1577422963.321233,66.000000,0.000000,4142.051270,4197.436035,3756.410156,4017.948730,3877.948730,16216.000000,3.000000,,,,0.000000,4.000000,4.000000,4.000000,4.000000,4.000000,8.480983,8.912092,5.994050,3.636686,0.882808,4.938329,5.884008,1.699237,1.388577,0.496846,30.188948,22.731180,5.367888,2.626531,0.471567,63.504074,15.570233,6.807550,5.237652,0.922841,24.198626,11.817062,3.178771,2.780141,0.700200
1577422963.329029,67.000000,0.000000,4147.692383,4194.871582,3734.871826,4020.000000,3890.769287,450.000000,3.000000,,,,0.000000,4.000000,4.000000,4.000000,4.000000,4.000000,,,,,,,,,,,,,,,,,,,,,,,,,
1577422963.336726,68.000000,0.000000,4141.538574,4172.307617,3692.307617,4015.384521,3881.025635,16213.000000,3.000000,,,,0.000000,4.000000,4.000000,4.000000,4.000000,4.000000,,,,,,,,,,,,,,,,,,,,,,,,,
1577422963.344522,69.000000,0.000000,4146.666504,4173.846191,3656.923096,4025.641113,3871.281982,450.000000,3.000000,,,,0.000000,4.000000,4.000000,4.000000,4.000000,4.000000,,,,,,,,,,,,,,,,,,,,,,,,,
1577422963.352218,70.000000,0.000000,4146.666504,4180.512695,3647.692383,4031.281982,3866.666748,16149.000000,3.000000,,,,0.000000,4.000000,4.000000,4.000000,4.000000,4.000000,,,,,,,,,,,,,,,,,,,,,,,,,
1577422963.360115,71.000000,0.000000,4142.051270,4168.717773,3641.538574,4023.076904,3856.410156,450.000000,3.000000,,,,0.000000,4.000000,4.000000,4.000000,4.000000,4.000000,,,,,,,,,,,,,,,,,,,,,,,,,
1577422963.367911,72.000000,0.000000,4159.487305,4169.743652,3638.461426,4037.435791,3853.846191,450.000000,3.000000,,,,0.000000,4.000000,4.000000,4.000000,4.000000,4.000000,,,,,,,,,,,,,,,,,,,,,,,,,
1577422963.375708,73.000000,0.000000,4170.769043,4167.179688,3630.256348,4051.281982,3840.512939,16126.000000,3.000000,,,,0.000000,4.000000,4.000000,4.000000,4.000000,4.000000,,,,,,,,,,,,,,,,,,,,,,,,,
1577422963.383404,74.000000,0.000000,4176.410156,4168.205078,3633.333252,4057.435791,3835.897461,450.000000,3.000000,,,,0.000000,4.000000,4.000000,4.000000,4.000000,4.000000,,,,,,,,,,,,,,,,,,,,,,,,,
1577422963.391200,75.000000,0.000000,4189.743652,4180.000000,3648.718018,4072.820557,3843.589844,16202.000000,3.000000,,,,0.000000,4.000000,4.000000,4.000000,4.000000,4.000000,,,,,,,,,,,,,,,,,,,,,,,,,
1577422963.398897,76.000000,0.000000,4213.333496,4188.205078,3662.051270,4098.974121,3847.179443,450.000000,3.000000,,,,0.000000,4.000000,4.000000,4.000000,4.000000,4.000000,,,,,,,,,,,,,,,,,,,,,,,,,
1577422963.406693,77.000000,0.000000,4211.282227,4176.922852,3657.948730,4105.128418,3829.230713,450.000000,3.000000,,,,0.000000,4.000000,4.000000,4.000000,4.000000,4.000000,,,,,,,,,,,,,,,,,,,,,,,,,
1577422963.414389,78.000000,0.000000,4162.051270,4151.794922,3636.410156,4076.923096,3774.871826,450.000000,3.000000,,,,0.000000,4.000000,4.000000,4.000000,4.000000,4.000000,,,,,,,,,,,,,,,,,,,,,,,,,
1577422963.422186,79.000000,0.000000,4133.846191,4149.230957,3645.128174,4068.718018,3736.923096,16202.000000,3.000000,,,,0.000000,4.000000,4.000000,4.000000,4.000000,4.000000,,,,,,,,,,,,,,,,,,,,,,,,,
1577422963.429882,80.000000,0.000000,4142.051270,4154.358887,3675.384521,4078.974365,3735.384521,450.000000,3.000000,,,,0.000000,4.000000,4.000000,4.000000,4.000000,4.000000,,,,,,,,,,,,,,,,,,,,,,,,,
1577422963.437678,81.000000,0.000000,4156.410156,4162.563965,3700.000000,4088.718018,3744.615479,450.000000,3.000000,,,,0.000000,4.000000,4.000000,4.000000,4.000000,4.000000,,,,,,,,,,,,,,,,,,,,,,,,,
1577422963.445375,82.000000,0.000000,4162.563965,4168.717773,3710.256348,4096.922852,3748.718018,450.000000,3.000000,,,,0.000000,4.000000,4.000000,4.000000,4.000000,4.000000,7.902219,8.861574,4.535756,3.391477,0.945605,4.743244,6.308441,1.541071,1.324748,0.555820,45.960632,28.751719,5.624338,2.541209,0.483047,85.709190,20.021393,6.673254,5.585922,0.922640,32.872768,12.891286,2.461726,2.680237,0.791798
1577422963.453171,83.000000,0.000000,4142.563965,4150.769043,3697.948730,4091.281982,3729.230713,16202.000000,3.000000,,,,0.000000,4.000000,4.000000,4.000000,4.000000,4.000000,,,,,,,,,,,,,,,,,,,,,,,,,
1577422963.460867,84.000000,0.000000,4127.692383,4137.948730,3695.384521,4086.666748,3715.384521,450.000000,3.000000,,,,0.000000,4.000000,4.000000,4.000000,4.000000,4.000000,,,,,,,,,,,,,,,,,,,,,,,,,
1577422963.468764,85.000000,0.000000,4123.077148,4135.384766,3698.461426,4074.358887,3715.897461,450.000000,3.000000,,,,0.000000,4.000000,4.000000,4.000000,4.000000,4.000000,,,,,,,,,,,,,,,,,,,,,,,,,
1577422963.476560,86.000000,0.000000,4111.794922,4132.820313,3704.615479,4063.076904,3709.743652,450.000000,3.000000,,,,0.000000,4.000000,4.000000,4.000000,4.000000,4.000000,,,,,,,,,,,,,,,,,,,,,,,,,
1577422963.484456,87.000000,0.000000,4109.743652,4130.256348,3738.974365,4068.718018,3697.948730,16202.000000,3.000000,,,,0.000000,4.000000,4.000000,4.000000,4.000000,4.000000,,,,,,,,,,,,,,,,,,,,,,,,,
1577422963.492252,88.000000,0.000000,4109.743652,4116.922852,3774.871826,4062.564209,3681.538574,450.000000,3.000000,,,,0.000000,4.000000,4.000000,4.000000,4.000000,4.000000,,,,,,,,,,,,,,,,,,,,,,,,,
1577422963.500149,89.000000,0.000000,4107.179688,4116.410156,3796.923096,4058.461426,3671.794922,450.000000,3.000000,,,,0.000000,4.000000,4.000000,4.000000,4.000000,4.000000,,,,,,,,,,,,,,,,,,,,,,,,,
1577422963.507945,90.000000,0.000000,4094.871826,4131.794922,3816.923096,4057.435791,3660.512939,450.000000,3.000000,,,,0.000000,4.000000,4.000000,4.000000,4.000000,4.000000,,,,,,,,,,,,,,,,,,,,,,,,,
1577422963.515641,91.000000,0.000000,4095.897461,4144.615234,3859.487061,4066.153809,3665.128174,16202.000000,3.000000,,,,0.000000,4.000000,4.000000,4.000000,4.000000,4.000000,,,,,,,,,,,,,,,,,,,,,,,,,
1577422963.523438,92.000000,0.000000,4136.410156,4157.948730,3920.512939,4096.922852,3701.025635,450.000000,3.000000,,,,0.000000,4.000000,4.000000,4.000000,4.000000,4.000000,,,,,,,,,,,,,,,,,,,,,,,,,
1577422963.531134,93.000000,0.000000,4160.512695,4160.000000,3952.307617,4107.692383,3719.487061,450.000000,3.000000,,,,0.000000,4.000000,4.000000,4.000000,4.000000,4.000000,,,,,,,,,,,,,,,,,,,,,,,,,
1577422963.538930,94.000000,0.000000,4144.615234,4153.846191,3968.718018,4098.974121,3718.461426,450.000000,3.000000,,,,0.000000,4.000000,4.000000,4.000000,4.000000,4.000000,,,,,,,,,,,,,,,,,,,,,,,,,
1577422963.546627,95.000000,0.000000,4132.307617,4146.153809,3990.256348,4086.666748,3721.538574,16202.000000,3.000000,,,,0.000000,4.000000,4.000000,4.000000,4.000000,4.000000,,,,,,,,,,,,,,,,,,,,,,,,,
1577422963.554423,96.000000,0.000000,4138.974121,4138.461426,4012.307617,4085.128174,3729.743652,450.000000,3.000000,,,,0.000000,4.000000,4.000000,4.000000,4.000000,4.000000,,,,,,,,,,,,,,,,,,,,,,,,,
1577422963.562119,97.000000,0.000000,4146.153809,4149.230957,4036.410156,4097.436035,3742.564209,450.000000,3.000000,,,,0.000000,4.000000,4.000000,4.000000,4.000000,4.000000,,,,,,,,,,,,,,,,,,,,,,,,,
1577422963.569916,98.000000,0.000000,4141.025879,4156.410156,4041.538574,4093.333252,3740.512939,450.000000,3.000000,,,,0.000000,4.000000,4.000000,4.000000,4.000000,4.000000,8.230394,8.806790,3.538317,3.138078,0.992261,4.951804,6.367673,1.417437,1.217606,0.592192,76.697647,37.891781,6.595332,2.357925,0.490521,101.737732,24.471186,6.498391,5.509470,0.875011,45.924774,13.864442,2.110768,2.491447,0.870873
1577422963.577612,99.000000,0.000000,4144.615234,4144.615234,4044.615479,4090.769287,3740.000000,16202.000000,3.000000,,,,0.000000,4.000000,4.000000,4.000000,4.000000,4.000000,,,,,,,,,,,,,,,,,,,,,,,,,
1577422963.585408,100.000000,0.000000,4154.358887,4141.538574,4054.358887,4090.256348,3748.205078,450.000000,3.000000,,,,0.000000,4.000000,4.000000,4.000000,4.000000,4.000000,,,,,,,,,,,,,,,,,,,,,,,,,
1577422963.593105,101.000000,0.000000,4150.256348,4147.179688,4049.743652,4075.897461,3743.076904,450.000000,3.000000,,,,0.000000,4.000000,4.000000,4.000000,4.000000,4.000000,,,,,,,,,,,,,,,,,,,,,,,,,
1577422963.601001,102.000000,0.000000,4145.641113,4144.615234,4044.102539,4075.897461,3740.000000,450.000000,3.000000,,,,0.000000,4.000000,4.000000,4.000000,4.000000,4.000000,,,,,,,,,,,,,,,,,,,,,,,,,
1577422963.608798,103.000000,0.000000,4137.436035,4132.307617,4033.333252,4073.846191,3732.820557,16202.000000,3.000000,,,,0.000000,4.000000,4.000000,4.000000,4.000000,4.000000,,,,,,,,,,,,,,,,,,,,,,,,,
1577422963.616694,104.000000,0.000000,4123.589844,4129.230957,4017.435791,4064.102539,3721.538574,450.000000,3.000000,,,,0.000000,4.000000,4.000000,4.000000,4.000000,4.000000,,,,,,,,,,,,,,,,,,,,,,,,,
1577422963.624491,105.000000,0.000000,4112.307617,4139.487305,4009.230713,4052.307617,3716.923096,450.000000,3.000000,,,,0.000000,4.000000,4.000000,4.000000,4.000000,4.000000,,,,,,,,,,,,,,,,,,,,,,,,,
1577422963.632387,106.000000,0.000000,4106.153809,4140.000000,4002.051270,4029.743652,3715.384521,450.000000,3.000000,,,,0.000000,4.000000,4.000000,4.000000,4.000000,4.000000,,,,,,,,,,,,,,,,,,,,,,,,,
1577422963.640183,107.000000,0.000000,4122.051270,4140.000000,4005.641113,4014.871826,3733.846191,16202.000000,3.000000,,,,0.000000,4.000000,4.000000,4.000000,4.000000,4.000000,,,,,,,,,,,,,,,,,,,,,,,,,
1577422963.648080,108.000000,0.000000,4127.692383,4138.974121,4009.743652,3988.205078,3743.589844,450.000000,3.000000,,,,0.000000,4.000000,4.000000,4.000000,4.000000,4.000000,,,,,,,,,,,,,,,,,,,,,,,,,
1577422963.655876,109.000000,0.000000,4107.179688,4141.025879,4004.102539,3951.794922,3734.871826,450.000000,3.000000,,,,0.000000,4.000000,4.000000,4.000000,4.000000,4.000000,,,,,,,,,,,,,,,,,,,,,,,,,
1577422963.663772,110.000000,0.000000,4106.153809,4161.538574,4008.718018,3938.461426,3742.051270,450.000000,3.000000,,,,0.000000,4.000000,4.000000,4.000000,4.000000,4.000000,,,,,,,,,,,,,,,,,,,,,,,,,
1577422963.671568,111.000000,0.000000,4117.436035,4170.769043,4010.256348,3931.794922,3757.948730,16202.000000,3.000000,,,,0.000000,4.000000,4.000000,4.000000,4.000000,4.000000,,,,,,,,,,,,,,,,,,,,,,,,,
1577422963.679465,112.000000,0.000000,4126.666504,4177.436035,4012.307617,3938.974365,3780.000000,450.000000,3.000000,,,,0.000000,4.000000,4.000000,4.000000,4.000000,4.000000,,,,,,,,,,,,,,,,,,,,,,,,,
1577422963.687261,113.000000,0.000000,4153.846191,4197.436035,4030.769287,3961.025635,3804.102539,450.000000,3.000000,,,,0.000000,4.000000,4.000000,4.000000,4.000000,4.000000,,,,,,,,,,,,,,,,,,,,,,,,,
1577422963.695057,114.000000,0.000000,4183.589844,4201.025879,4037.948730,3964.615479,3813.333252,450.000000,3.000000,,,,0.000000,4.000000,4.000000,4.000000,4.000000,4.000000,9.250112,8.647803,3.120061,2.942006,1.007502,5.561804,5.953820,1.347545,1.097353,0.591691,118.117104,47.806847,8.072985,2.120857,0.490648,107.848640,27.647881,6.245759,5.019297,0.786714,59.322144,14.135305,2.273575,2.279886,0.919295
1577422963.702853,115.000000,0.000000,4185.641113,4188.205078,4032.307617,3952.307617,3814.358887,16202.000000,3.000000,,,,0.000000,4.000000,4.000000,4.000000,4.000000,4.000000,,,,,,,,,,,,,,,,,,,,,,,,,
1577422963.710550,116.000000,0.000000,4156.410156,4171.794922,4024.615479,3928.718018,3794.358887,450.000000,3.000000,,,,0.000000,4.000000,4.000000,4.000000,4.000000,4.000000,,,,,,,,,,,,,,,,,,,,,,,,,
1577422963.718346,117.000000,0.000000,4130.256348,4165.128418,4009.743652,3904.102539,3770.769287,450.000000,3.000000,,,,0.000000,4.000000,4.000000,4.000000,4.000000,4.000000,,,,,,,,,,,,,,,,,,,,,,,,,
1577422963.726043,118.000000,0.000000,4122.563965,4162.051270,3990.256348,3891.281982,3766.153809,450.000000,3.000000,,,,0.000000,4.000000,4.000000,4.000000,4.000000,4.000000,,,,,,,,,,,,,,,,,,,,,,,,,
1577422963.733839,119.000000,0.000000,4122.563965,4150.256348,3985.641113,3888.718018,3770.769287,16202.000000,3.000000,,,,0.000000,4.000000,4.000000,4.000000,4.000000,4.000000,,,,,,,,,,,,,,,,,,,,,,,,,
1577422963.741535,120.000000,0.000000,4127.179688,4146.153809,3996.410156,3902.564209,3778.974365,450.000000,3.000000,,,,0.000000,4.000000,4.000000,4.000000,4.000000,4.000000,,,,,,,,,,,,,,,,,,,,,,,,,
1577422963.749432,121.000000,0.000000,4116.410156,4149.230957,3989.230713,3905.128174,3775.897461,450.000000,3.000000,,,,0.000000,4.000000,4.000000,4.000000,4.000000,4.000000,,,,,,,,,,,,,,,,,,,,,,,,,
1577422963.757228,122.000000,0.000000,4100.000000,4144.102539,3971.281982,3885.128174,3772.820557,450.000000,3.000000,,,,0.000000,4.000000,4.000000,4.000000,4.000000,4.000000,,,,,,,,,,,,,,,,,,,,,,,,,
1577422963.765025,123.000000,0.000000,4100.512695,4131.794922,3969.743652,3875.384521,3776.410156,16202.000000,3.000000,,,,0.000000,4.000000,4.000000,4.000000,4.000000,4.000000,,,,,,,,,,,,,,,,,,,,,,,,,
1577422963.772721,124.000000,0.000000,4109.230957,4137.436035,3973.333252,3887.692383,3778.974365,450.000000,3.000000,,,,0.000000,4.000000,4.000000,4.000000,4.000000,4.000000,,,,,,,,,,,,,,,,,,,,,,,,,
1577422963.780618,125.000000,0.000000,4117.436035,4158.461426,3971.281982,3893.846191,3790.769287,450.000000,3.000000,,,,0.000000,4.000000,4.000000,4.000000,4.000000,4.000000,,,,,,,,,,,,,,,,,,,,,,,,,
1577422963.788414,126.000000,0.000000,4115.897461,4156.922852,3962.564209,3880.512939,3795.897461,450.000000,3.000000,,,,0.000000,4.000000,4.000000,4.000000,4.000000,4.000000,,,,,,,,,,,,,,,,,,,,,,,,,
1577422963.796310,127.000000,0.000000,4122.563965,4144.615234,3954.358887,3885.641113,3795.897461,233.000000,3.000000,,,,0.000000,4.000000,4.000000,4.000000,4.000000,4.000000,,,,,,,,,,,,,,,,,,,,,,,,,
1577422963.804107,0.000000,0.000000,4124.102539,4138.974121,3938.974365,3897.435791,3791.281982,450.000000,3.000000,,,,0.000000,4.000000,4.000000,4.000000,4.000000,4.000000,,,,,,,,,,,,,,,,,,,,,,,,,
1577422963.811904,1.000000,0.000000,4107.179688,4131.794922,3914.871826,3886.666748,3784.615479,450.000000,3.000000,,,,0.000000,4.000000,4.000000,4.000000,4.000000,4.000000,,,,,,,,,,,,,,,,,,,,,,,,,
1577422963.819600,2.000000,0.000000,4115.897461,4132.307617,3913.333252,3896.410156,3806.153809,16204.000000,3.000000,,,,0.000000,4.000000,4.000000,4.000000,4.000000,4.000000,10.611428,8.314491,3.127967,2.872003,0.988768,6.379552,5.133735,1.310203,1.007141,0.553405,157.736908,54.903931,9.532914,1.936019,0.484703,100.528198,28.352312,5.774195,4.257490,0.678310,70.114548,13.323887,2.861928,2.136732,0.925133
1577422963.827396,3.000000,0.000000,4124.102539,4130.769043,3917.948730,3910.769287,3822.564209,450.000000,3.000000,,,,0.000000,4.000000,4.000000,4.000000,4.000000,4.000000,,,,,,,,,,,,,,,,,,,,,,,,,
1577422963.835093,4.000000,0.000000,4109.230957,4129.743652,3906.666748,3893.846191,3815.897461,16194.000000,3.000000,,,,0.000000,4.000000,4.000000,4.000000,4.000000,4.000000,,,,,,,,,,,,,,,,,,,,,,,,,
1577422963.842989,5.000000,0.000000,4105.128418,4140.512695,3902.564209,3875.384521,3822.564209,450.000000,3.000000,,,,0.000000,4.000000,4.000000,4.000000,4.000000,4.000000,,,,,,,,,,,,,,,,,,,,,,,,,
1577422963.850786,6.000000,0.000000,4097.436035,4138.461426,3903.589844,3866.666748,3824.102539,16148.000000,3.000000,,,,0.000000,4.000000,4.000000,4.000000,4.000000,4.000000,,,,,,,,,,,,,,,,,,,,,,,,,
1577422963.858682,7.000000,0.000000,4095.384521,4142.563965,3914.871826,3868.205078,3825.128174,450.000000,3.000000,,,,0.000000,4.000000,4.000000,4.000000,4.000000,4.000000,,,,,,,,,,,,,,,,,,,,,,,,,
1577422963.866478,8.000000,0.000000,4127.179688,4163.589844,3939.487061,3886.666748,3860.512939,450.000000,3.000000,,,,0.000000,4.000000,4.000000,4.000000,4.000000,4.000000,,,,,,,,,,,,,,,,,,,,,,,,,
1577422963.874374,9.000000,0.000000,4162.051270,4169.230957,3946.153809,3901.538574,3892.307617,16160.000000,3.000000,,,,0.000000,4.000000,4.000000,4.000000,4.000000,4.000000,,,,,,,,,,,,,,,,,,,,,,,,,
1577422963.882170,10.000000,0.000000,4177.436035,4166.666504,3932.307617,3905.128174,3888.718018,450.000000,3.000000,,,,0.000000,4.000000,4.000000,4.000000,4.000000,4.000000,,,,,,,,,,,,,,,,,,,,,,,,,
1577422963.889967,11.000000,0.000000,4178.974121,4166.153809,3918.461426,3918.974365,3886.153809,16212.000000,3.000000,,,,0.000000,4.000000,4.000000,4.000000,4.000000,4.000000,,,,,,,,,,,,,,,,,,,,,,,,,
1577422963.897663,12.000000,0.000000,4180.000000,4170.256348,3913.333252,3937.435791,3900.512939,450.000000,3.000000,,,,0.000000,4.000000,4.000000,4.000000,4.000000,4.000000,,,,,,,,,,,,,,,,,,,,,,,,,
1577422963.905360,13.000000,0.000000,4174.871582,4172.307617,3902.051270,3930.256348,3897.435791,450.000000,3.000000,,,,0.000000,4.000000,4.000000,4.000000,4.000000,4.000000,,,,,,,,,,,,,,,,,,,,,,,,,
1577422963.913256,14.000000,0.000000,4158.461426,4160.512695,3883.076904,3907.179443,3876.410156,450.000000,3.000000,,,,0.000000,4.000000,4.000000,4.000000,4.000000,4.000000,,,,,,,,,,,,,,,,,,,,,,,,,
1577422963.921053,15.000000,0.000000,4148.717773,4154.871582,3870.769287,3897.948730,3864.615479,16212.000000,3.000000,,,,0.000000,4.000000,4.000000,4.000000,4.000000,4.000000,,,,,,,,,,,,,,,,,,,,,,,,,
1577422963.928849,16.000000,0.000000,4139.487305,4145.128418,3855.384521,3900.512939,3854.358887,0.000000,3.000000,,,,0.000000,4.000000,4.000000,4.000000,4.000000,4.000000,,,,,,,,,,,,,,,,,,,,,,,,,
1577422963.936545,17.000000,0.000000,4140.512695,4141.025879,3849.743652,3914.358887,3851.281982,0.000000,3.000000,,,,0.000000,4.000000,4.000000,4.000000,4.000000,4.000000,,,,,,,,,,,,,,,,,,,,,,,,,
1577422963.944342,18.000000,0.000000,4156.410156,4158.974121,3860.000000,3928.718018,3867.692383,0.000000,3.000000,,,,0.000000,4.000000,4.000000,4.000000,4.000000,4.000000,12.133133,7.789367,3.305354,2.974538,0.944500,7.183058,4.141196,1.282886,0.980491,0.490553,182.575546,56.130188,10.330224,1.899785,0.476820,84.178925,26.146793,5.082218,3.453627,0.573959,75.089592,11.620898,3.643324,2.139144,0.886639
1577422963.952038,19.000000,0.000000,4154.358887,4152.820313,3856.410156,3926.666748,3876.410156,0.000000,3.000000,,,,0.000000,4.000000,4.000000,4.000000,4.000000,4.000000,,,,,,,,,,,,,,,,,,,,,,,,,
1577422963.959834,20.000000,0.000000,4147.179688,4129.230957,3848.718018,3928.205078,3870.256348,0.000000,3.000000,,,,0.000000,4.000000,4.000000,4.000000,4.000000,4.000000,,,,,,,,,,,,,,,,,,,,,,,,,
1577422963.967531,21.000000,0.000000,4141.025879,4123.589844,3832.820557,3917.435791,3857.435791,0.000000,3.000000,,,,0.000000,4.000000,4.000000,4.000000,4.000000,4.000000,,,,,,,,,,,,,,,,,,,,,,,,,
1577422963.975327,22.000000,0.000000,4150.769043,4144.615234,3834.871826,3918.461426,3868.205078,0.000000,3.000000,,,,0.000000,4.000000,4.000000,4.000000,4.000000,4.000000,,,,,,,,,,,,,,,,,,,,,,,,,
1577422963.983023,23.000000,0.000000,4173.333496,4153.333496,3858.461426,3942.564209,3897.948730,0.000000,3.000000,,,,0.000000,4.000000,4.000000,4.000000,4.000000,4.000000,,,,,,,,,,,,,,,,,,,,,,,,,
1577422963.990820,24.000000,0.000000,4170.256348,4134.871582,3845.128174,3942.564209,3892.820557,0.000000,3.000000,,,,0.000000,4.000000,4.000000,4.000000,4.000000,4.000000,,,,,,,,,,,,,,,,,,,,,,,,,
1577422963.998516,25.000000,0.000000,4163.077148,4148.717773,3846.666748,3954.358887,3889.743652,0.000000,3.000000,,,,0.000000,4.000000,4.000000,4.000000,4.000000,4.000000,,,,,,,,,,,,,,,,,,,,,,,,,
1577422964.006312,26.000000,0.000000,4189.230957,4187.692383,3902.051270,4002.051270,3931.794922,0.000000,3.000000,,,,0.000000,4.000000,4.000000,4.000000,4.000000,4.000000,,,,,,,,,,,,,,,,,,,,,,,,,
1577422964.014009,27.000000,0.000000,4238.974121,4201.025879,3941.538574,4030.256348,3970.769287,0.000000,3.000000,,,,0.000000,4.000000,4.000000,4.000000,4.000000,4.000000,,,,,,,,,,,,,,,,,,,,,,,,,
1577422964.021905,28.000000,0.000000,4256.922852,4199.487305,3935.897461,4019.487061,3963.589844,0.000000,3.000000,,,,0.000000,4.000000,4.000000,4.000000,4.000000,4.000000,,,,,,,,,,,,,,,,,,,,,,,,,
1577422964.029702,29.000000,0.000000,4218.974121,4187.692383,3916.410156,3991.281982,3933.846191,0.000000,3.000000,,,,0.000000,4.000000,4.000000,4.000000,4.000000,4.000000,,,,,,,,,,,,,,,,,,,,,,,,,
1577422964.037598,30.000000,0.000000,4180.512695,4165.641113,3907.692383,3975.384521,3922.564209,0.000000,3.000000,,,,0.000000,4.000000,4.000000,4.000000,4.000000,4.000000,,,,,,,,,,,,,,,,,,,,,,,,,
1577422964.045395,31.000000,0.000000,4176.410156,4154.358887,3902.051270,3962.051270,3924.102539,0.000000,3.000000,,,,0.000000,4.000000,4.000000,4.000000,4.000000,4.000000,,,,,,,,,,,,,,,,,,,,,,,,,
1577422964.053291,32.000000,0.000000,4182.563965,4162.563965,3898.974365,3951.794922,3930.769287,0.000000,3.000000,,,,0.000000,4.000000,4.000000,4.000000,4.000000,4.000000,,,,,,,,,,,,,,,,,,,,,,,,,
1577422964.061087,33.000000,0.000000,4188.717773,4173.333496,3903.589844,3956.923096,3944.615479,0.000000,3.000000,,,,0.000000,4.000000,4.000000,4.000000,4.000000,4.000000,,,,,,,,,,,,,,,,,,,,,,,,,
1577422964.068983,34.000000,0.000000,4193.846191,4165.128418,3894.871826,3948.205078,3944.102539,0.000000,3.000000,,,,0.000000,4.000000,4.000000,4.000000,4.000000,4.000000,13.700922,7.265205,3.494198,3.255644,0.885426,7.857971,3.324907,1.266213,1.015968,0.423663,184.368820,50.750439,10.020515,2.018704,0.469483,62.889683,21.796085,4.349401,2.818158,0.491340,73.005058,9.596369,4.382848,2.303980,0.812554
1577422964.076780,35.000000,0.000000,4196.410156,4161.025879,3886.153809,3940.000000,3935.897461,0.000000,3.000000,,,,0.000000,4.000000,4.000000,4.000000,4.000000,4.000000,,,,,,,,,,,,,,,,,,,,,,,,,
1577422964.084676,36.000000,0.000000,4195.384766,4173.846191,3891.281982,3951.794922,3934.871826,0.000000,3.000000,,,,0.000000,4.000000,4.000000,4.000000,4.000000,4.000000,,,,,,,,,,,,,,,,,,,,,,,,,
1577422964.092472,37.000000,0.000000,4198.974121,4186.153809,3899.487061,3971.281982,3951.794922,0.000000,3.000000,,,,0.000000,4.000000,4.000000,4.000000,4.000000,4.000000,,,,,,,,,,,,,,,,,,,,,,,,,
1577422964.100169,38.000000,0.000000,4221.538574,4189.743652,3904.102539,3997.435791,3969.743652,0.000000,3.000000,,,,0.000000,4.000000,4.000000,4.000000,4.000000,4.000000,,,,,,,,,,,,,,,,,,,,,,,,,
1577422964.107965,39.000000,0.000000,4224.615234,4176.922852,3888.718018,4004.615479,3942.564209,0.000000,3.000000,,,,0.000000,4.000000,4.000000,4.000000,4.000000,4.000000,,,,,,,,,,,,,,,,,,,,,,,,,
1577422964.115661,40.000000,0.000000,4210.769043,4173.846191,3887.179443,4012.307617,3924.102539,0.000000,3.000000,,,,0.000000,4.000000,4.000000,4.000000,4.000000,4.000000,,,,,,,,,,,,,,,,,,,,,,,,,
1577422964.123457,41.000000,0.000000,4203.077148,4182.051270,3900.000000,4025.128174,3937.948730,0.000000,3.000000,,,,0.000000,4.000000,4.000000,4.000000,4.000000,4.000000,,,,,,,,,,,,,,,,,,,,,,,,,
1577422964.131154,42.000000,0.000000,4188.717773,4173.846191,3889.230713,4012.820557,3927.692383,0.000000,3.000000,,,,0.000000,4.000000,4.000000,4.000000,4.000000,4.000000,,,,,,,,,,,,,,,,,,,,,,,,,
1577422964.138950,43.000000,0.000000,4187.692383,4177.436035,3888.205078,4018.974365,3924.615479,0.000000,3.000000,,,,0.000000,4.000000,4.000000,4.000000,4.000000,4.000000,,,,,,,,,,,,,,,,,,,,,,,,,
1577422964.146647,44.000000,0.000000,4182.563965,4178.974121,3886.153809,4030.769287,3923.589844,0.000000,3.000000,,,,0.000000,4.000000,4.000000,4.000000,4.000000,4.000000,,,,,,,,,,,,,,,,,,,,,,,,,
1577422964.154443,45.000000,0.000000,4164.102539,4154.358887,3855.897461,4022.051270,3905.128174,0.000000,3.000000,,,,0.000000,4.000000,4.000000,4.000000,4.000000,4.000000,,,,,,,,,,,,,,,,,,,,,,,,,
1577422964.162139,46.000000,0.000000,4166.153809,4145.128418,3843.076904,4023.076904,3903.589844,0.000000,3.000000,,,,0.000000,4.000000,4.000000,4.000000,4.000000,4.000000,,,,,,,,,,,,,,,,,,,,,,,,,
1577422964.170036,47.000000,0.000000,4169.743652,4158.461426,3849.743652,4016.410156,3905.641113,0.000000,3.000000,,,,0.000000,4.000000,4.000000,4.000000,4.000000,4.000000,,,,,,,,,,,,,,,,,,,,,,,,,
1577422964.177832,48.000000,0.000000,4163.077148,4161.538574,3843.076904,3996.410156,3900.000000,0.000000,3.000000,,,,0.000000,4.000000,4.000000,4.000000,4.000000,4.000000,,,,,,,,,,,,,,,,,,,,,,,,,
1577422964.185629,49.000000,0.000000,4161.538574,4156.922852,3833.846191,3996.410156,3903.076904,0.000000,3.000000,,,,0.000000,4.000000,4.000000,4.000000,4.000000,4.000000,,,,,,,,,,,,,,,,,,,,,,,,,
1577422964.193325,50.000000,0.000000,4172.820313,4164.102539,3835.897461,4010.256348,3912.307617,0.000000,3.000000,,,,0.000000,4.000000,4.000000,4.000000,4.000000,4.000000,15.182459,7.058529,3.646134,3.653282,0.818700,8.396063,2.989594,1.300866,1.082929,0.373245,163.661728,40.561832,8.641435,2.206721,0.461358,43.913456,16.718437,3.838589,2.463480,0.435954,64.893303,7.961823,4.869268,2.576586,0.720323
1577422964.201222,51.000000,0.000000,4175.897461,4162.563965,3830.256348,4006.153809,3908.718018,0.000000,3.000000,,,,0.000000,4.000000,4.000000,4.000000,4.000000,4.000000,,,,,,,,,,,,,,,,,,,,,,,,,
1577422964.209018,52.000000,0.000000,4148.205078,4148.717773,3817.435791,3994.358887,3884.615479,0.000000,3.000000,,,,0.000000,4.000000,4.000000,4.000000,4.000000,4.000000,,,,,,,,,,,,,,,,,,,,,,,,,
1577422964.216914,53.000000,0.000000,4135.897461,4165.641113,3825.128174,4011.281982,3886.666748,0.000000,3.000000,,,,0.000000,4.000000,4.000000,4.000000,4.000000,4.000000,,,,,,,,,,,,,,,,,,,,,,,,,
1577422964.224711,54.000000,0.000000,4163.589844,4193.846191,3845.128174,4028.718018,3915.897461,0.000000,3.000000,,,,0.000000,4.000000,4.000000,4.000000,4.000000,4.000000,,,,,,,,,,,,,,,,,,,,,,,,,
1577422964.232607,55.000000,0.000000,4191.282227,4188.717773,3854.871826,4024.615479,3925.641113,0.000000,3.000000,,,,0.000000,4.000000,4.000000,4.000000,4.000000,4.000000,,,,,,,,,,,,,,,,,,,,,,,,,
1577422964.240403,56.000000,0.000000,4176.410156,4164.102539,3838.461426,4011.794922,3904.102539,0.000000,3.000000,,,,0.000000,4.000000,4.000000,4.000000,4.000000,4.000000,,,,,,,,,,,,,,,,,,,,,,,,,
1577422964.248300,57.000000,0.000000,4134.871582,4145.128418,3807.179443,3998.461426,3873.333252,0.000000,3.000000,,,,0.000000,4.000000,4.000000,4.000000,4.000000,4.000000,,,,,,,,,,,,,,,,,,,,,,,,,
1577422964.256096,58.000000,0.000000,4136.410156,4151.794922,3805.128174,3998.974365,3879.487061,0.000000,3.000000,,,,0.000000,4.000000,4.000000,4.000000,4.000000,4.000000,,,,,,,,,,,,,,,,,,,,,,,,,
1577422964.263992,59.000000,0.000000,4163.077148,4162.563965,3821.538574,3995.384521,3894.358887,0.000000,3.000000,,,,0.000000,4.000000,4.000000,4.000000,4.000000,4.000000,,,,,,,,,,,,,,,,,,,,,,,,,
1577422964.271788,60.000000,0.000000,4143.077148,4136.410156,3805.641113,3970.769287,3867.692383,0.000000,3.000000,,,,0.000000,4.000000,4.000000,4.000000,4.000000,4.000000,,,,,,,,,,,,,,,,,,,,,,,,,
1577422964.279685,61.000000,0.000000,4119.487305,4127.179688,3802.564209,3973.333252,3858.974365,0.000000,3.000000,,,,0.000000,4.000000,4.000000,4.000000,4.000000,4.000000,,,,,,,,,,,,,,,,,,,,,,,,,
1577422964.287481,62.000000,0.000000,4117.948730,4145.128418,3822.051270,3980.000000,3869.230713,0.000000,3.000000,,,,0.000000,4.000000,4.000000,4.000000,4.000000,4.000000,,,,,,,,,,,,,,,,,,,,,,,,,
1577422964.295177,63.000000,0.000000,4112.307617,4143.077148,3816.410156,3961.025635,3861.025635,0.000000,3.000000,,,,0.000000,4.000000,4.000000,4.000000,4.000000,4.000000,,,,,,,,,,,,,,,,,,,,,,,,,
1577422964.302974,64.000000,0.000000,4122.563965,4138.974121,3801.538574,3967.179443,3867.179443,450.000000,3.000000,,,,0.000000,4.000000,4.000000,4.000000,4.000000,4.000000,,,,,,,,,,,,,,,,,,,,,,,,,
1577422964.310670,65.000000,0.000000,4129.743652,4138.461426,3784.615479,3978.461426,3875.897461,450.000000,3.000000,,,,0.000000,4.000000,4.000000,4.000000,4.000000,4.000000,,,,,,,,,,,,,,,,,,,,,,,,,
1577422964.318566,66.000000,0.000000,4113.846191,4137.948730,3769.230713,3968.205078,3863.589844,16228.000000,3.000000,,,,0.000000,4.000000,4.000000,4.000000,4.000000,4.000000,16.276554,7.392530,3.800089,4.024432,0.755088,8.765596,3.233376,1.423533,1.135955,0.355851,129.021240,28.924023,6.689805,2.331457,0.457610,29.856472,12.338875,3.765511,2.365415,0.406564,53.546082,7.067693,5.011005,2.834213,0.638230
1577422964.326363,67.000000,0.000000,4110.769043,4147.692383,3772.820557,3984.615479,3866.153809,450.000000,3.000000,,,,0.000000,4.000000,4.000000,4.000000,4.000000,4.000000,,,,,,,,,,,,,,,,,,,,,,,,,
1577422964.334159,68.000000,0.000000,4156.922852,4177.948730,3801.025635,4050.256348,3912.307617,16210.000000,3.000000,,,,0.000000,4.000000,4.000000,4.000000,4.000000,4.000000,,,,,,,,,,,,,,,,,,,,,,,,,
1577422964.341856,69.000000,0.000000,4194.871582,4188.717773,3810.769287,4089.230713,3947.179443,450.000000,3.000000,,,,0.000000,4.000000,4.000000,4.000000,4.000000,4.000000,,,,,,,,,,,,,,,,,,,,,,,,,
1577422964.349752,70.000000,0.000000,4145.641113,4151.794922,3764.102539,4050.256348,3907.692383,16156.000000,3.000000,,,,0.000000,4.000000,4.000000,4.000000,4.000000,4.000000,,,,,,,,,,,,,,,,,,,,,,,,,
1577422964.357549,71.000000,0.000000,4102.051270,4139.487305,3734.871826,4030.256348,3869.743652,450.000000,3.000000,,,,0.000000,4.000000,4.000000,4.000000,4.000000,4.000000,,,,,,,,,,,,,,,,,,,,,,,,,
1577422964.365345,72.000000,0.000000,4115.897461,4151.282227,3742.564209,4051.794922,3884.615479,450.000000,3.000000,,,,0.000000,4.000000,4.000000,4.000000,4.000000,4.000000,,,,,,,,,,,,,,,,,,,,,,,,,
1577422964.373042,73.000000,0.000000,4122.563965,4136.410156,3740.000000,4042.051270,3901.538574,16151.000000,3.000000,,,,0.000000,4.000000,4.000000,4.000000,4.000000,4.000000,,,,,,,,,,,,,,,,,,,,,,,,,
1577422964.380838,74.000000,0.000000,4121.025879,4136.410156,3746.666748,4025.128174,3906.153809,450.000000,3.000000,,,,0.000000,4.000000,4.000000,4.000000,4.000000,4.000000,,,,,,,,,,,,,,,,,,,,,,,,,
1577422964.388534,75.000000,0.000000,4105.641113,4143.077148,3753.333252,4025.641113,3893.333252,16195.000000,3.000000,,,,0.000000,4.000000,4.000000,4.000000,4.000000,4.000000,,,,,,,,,,,,,,,,,,,,,,,,,
1577422964.396331,76.000000,0.000000,4084.102539,4131.794922,3752.820557,4035.384521,3878.974365,450.000000,3.000000,,,,0.000000,4.000000,4.000000,4.000000,4.000000,4.000000,,,,,,,,,,,,,,,,,,,,,,,,,
1577422964.404027,77.000000,0.000000,4088.718018,4124.615234,3764.615479,4056.410156,3888.718018,450.000000,3.000000,,,,0.000000,4.000000,4.000000,4.000000,4.000000,4.000000,,,,,,,,,,,,,,,,,,,,,,,,,
1577422964.411823,78.000000,0.000000,4087.179443,4116.922852,3766.666748,4064.102539,3881.025635,450.000000,3.000000,,,,0.000000,4.000000,4.000000,4.000000,4.000000,4.000000,,,,,,,,,,,,,,,,,,,,,,,,,
1577422964.419520,79.000000,0.000000,4086.153809,4113.846191,3765.128174,4062.564209,3861.025635,16195.000000,3.000000,,,,0.000000,4.000000,4.000000,4.000000,4.000000,4.000000,,,,,,,,,,,,,,,,,,,,,,,,,
1577422964.427416,80.000000,0.000000,4090.256348,4115.897461,3760.000000,4060.000000,3861.025635,450.000000,3.000000,,,,0.000000,4.000000,4.000000,4.000000,4.000000,4.000000,,,,,,,,,,,,,,,,,,,,,,,,,
1577422964.435213,81.000000,0.000000,4072.307617,4109.743652,3742.564209,4049.230713,3855.897461,450.000000,3.000000,,,,0.000000,4.000000,4.000000,4.000000,4.000000,4.000000,,,,,,,,,,,,,,,,,,,,,,,,,
1577422964.443009,82.000000,0.000000,4050.769287,4097.948730,3730.256348,4032.307617,3842.564209,450.000000,3.000000,,,,0.000000,4.000000,4.000000,4.000000,4.000000,4.000000,16.590796,8.274515,4.030739,4.239485,0.709089,8.944764,3.903935,1.628898,1.146160,0.378864,91.767235,19.101473,4.888721,2.304366,0.468860,22.289778,9.493709,4.210291,2.410401,0.399650,42.387650,6.854025,4.845552,2.960737,0.597491
1577422964.450706,83.000000,0.000000,4051.281982,4098.461426,3720.512939,4028.205078,3852.820557,16195.000000,3.000000,,,,0.000000,4.000000,4.000000,4.000000,4.000000,4.000000,,,,,,,,,,,,,,,,,,,,,,,,,
1577422964.458602,84.000000,0.000000,4072.307617,4122.563965,3715.897461,4055.384521,3890.769287,450.000000,3.000000,,,,0.000000,4.000000,4.000000,4.000000,4.000000,4.000000,,,,,,,,,,,,,,,,,,,,,,,,,
1577422964.466398,85.000000,0.000000,4079.487061,4133.846191,3705.641113,4068.718018,3917.948730,450.000000,3.000000,,,,0.000000,4.000000,4.000000,4.000000,4.000000,4.000000,,,,,,,,,,,,,,,,,,,,,,,,,
1577422964.474294,86.000000,0.000000,4069.743652,4127.179688,3687.179443,4067.179443,3923.589844,450.000000,3.000000,,,,0.000000,4.000000,4.000000,4.000000,4.000000,4.000000,,,,,,,,,,,,,,,,,,,,,,,,,
1577422964.482191,87.000000,0.000000,4085.128174,4127.692383,3690.256348,4089.230713,3935.384521,16195.000000,3.000000,,,,0.000000,4.000000,4.000000,4.000000,4.000000,4.000000,,,,,,,,,,,,,,,,,,,,,,,,,
1577422964.489987,88.000000,0.000000,4088.718018,4116.410156,3691.281982,4091.794922,3934.871826,450.000000,3.000000,,,,0.000000,4.000000,4.000000,4.000000,4.000000,4.000000,,,,,,,,,,,,,,,,,,,,,,,,,
1577422964.497884,89.000000,0.000000,4036.410156,4093.846191,3660.512939,4045.128174,3892.820557,450.000000,3.000000,,,,0.000000,4.000000,4.000000,4.000000,4.000000,4.000000,,,,,,,,,,,,,,,,,,,,,,,,,
1577422964.505680,90.000000,0.000000,3997.435791,4092.820557,3640.000000,4015.897461,3854.358887,450.000000,3.000000,,,,0.000000,4.000000,4.000000,4.000000,4.000000,4.000000,,,,,,,,,,,,,,,,,,,,,,,,,
1577422964.513577,91.000000,0.000000,4027.692383,4105.128418,3673.333252,4053.333252,3874.358887,16195.000000,3.000000,,,,0.000000,4.000000,4.000000,4.000000,4.000000,4.000000,,,,,,,,,,,,,,,,,,,,,,,,,
1577422964.521373,92.000000,0.000000,4056.410156,4105.641113,3711.281982,4089.230713,3913.846191,450.000000,3.000000,,,,0.000000,4.000000,4.000000,4.000000,4.000000,4.000000,,,,,,,,,,,,,,,,,,,,,,,,,
1577422964.529270,93.000000,0.000000,4035.897461,4087.692383,3700.000000,4057.435791,3904.102539,450.000000,3.000000,,,,0.000000,4.000000,4.000000,4.000000,4.000000,4.000000,,,,,,,,,,,,,,,,,,,,,,,,,
1577422964.537066,94.000000,0.000000,4032.307617,4079.487061,3705.641113,4055.897461,3887.692383,450.000000,3.000000,,,,0.000000,4.000000,4.000000,4.000000,4.000000,4.000000,,,,,,,,,,,,,,,,,,,,,,,,,
1577422964.544962,95.000000,0.000000,4051.281982,4086.666748,3743.589844,4090.769287,3895.897461,16195.000000,3.000000,,,,0.000000,4.000000,4.000000,4.000000,4.000000,4.000000,,,,,,,,,,,,,,,,,,,,,,,,,
1577422964.552759,96.000000,0.000000,4036.923096,4077.435791,3743.589844,4068.205078,3891.794922,450.000000,3.000000,,,,0.000000,4.000000,4.000000,4.000000,4.000000,4.000000,,,,,,,,,,,,,,,,,,,,,,,,,
1577422964.560655,97.000000,0.000000,4023.589844,4075.384521,3729.743652,4050.769287,3896.410156,450.000000,3.000000,,,,0.000000,4.000000,4.000000,4.000000,4.000000,4.000000,,,,,,,,,,,,,,,,,,,,,,,,,
