title:s0, start timestamp:2019-12-27T08:07:56.232768+03:00, stop timestamp:2019-12-27T08:08:26.236902+03:00, headset type:INSIGHT, headset serial:A2D200FB, headset firmware:930, subject name:Qasim, channels:44, sampling rate:eeg_128;pow_8, samples:3648      , version:2.0
Timestamp,EEG.Counter,EEG.Interpolated,EEG.AF3,EEG.T7,EEG.Pz,EEG.T8,EEG.AF4,EEG.RawCq,EEG.Battery,MarkerIndex,MarkerType,MarkerValueInt,EEG.MarkerHardware,CQ.AF3,CQ.T7,CQ.Pz,CQ.T8,CQ.AF4,POW.AF3.Theta,POW.AF3.Alpha,POW.AF3.BetaL,POW.AF3.BetaH,POW.AF3.Gamma,POW.T7.Theta,POW.T7.Alpha,POW.T7.BetaL,POW.T7.BetaH,POW.T7.Gamma,POW.Pz.Theta,POW.Pz.Alpha,POW.Pz.BetaL,POW.Pz.BetaH,POW.Pz.Gamma,POW.T8.Theta,POW.T8.Alpha,POW.T8.BetaL,POW.T8.BetaH,POW.T8.Gamma,POW.AF4.Theta,POW.AF4.Alpha,POW.AF4.BetaL,POW.AF4.BetaH,POW.AF4.Gamma
1577423276.232768,116.000000,0.000000,4317.436035,3613.846191,4133.846191,4250.256348,4302.051270,450.000000,3.000000,,,,0.000000,4.000000,4.000000,4.000000,4.000000,4.000000,5.155508,4.651701,3.265826,3.048652,1.619733,3.907971,5.093273,1.656039,1.874500,1.212306,23.332169,2.928001,2.945154,2.553605,0.567761,9.775830,4.292956,1.518094,1.234437,1.118126,6.497793,1.876029,0.951718,0.964512,0.786307
1577423277.922440,70.000000,0.000000,4209.743652,3715.897461,4051.794922,4152.820313,4071.794922,16152.000000,3.000000,,,,0.000000,4.000000,4.000000,4.000000,4.000000,4.000000,,,,,,,,,,,,,,,,,,,,,,,,,
1577423277.930420,71.000000,0.000000,4246.666504,3766.153809,4016.923096,4139.487305,4081.025635,450.000000,3.000000,,,,0.000000,4.000000,4.000000,4.000000,4.000000,4.000000,,,,,,,,,,,,,,,,,,,,,,,,,
1577423277.938300,72.000000,0.000000,4260.000000,3771.281982,3986.153809,4135.897461,4096.922852,450.000000,3.000000,,,,0.000000,4.000000,4.000000,4.000000,4.000000,4.000000,,,,,,,,,,,,,,,,,,,,,,,,,
1577423277.946181,73.000000,0.000000,4227.179688,3708.205078,3962.564209,4115.384766,4037.948730,16227.000000,3.000000,,,,0.000000,4.000000,4.000000,4.000000,4.000000,4.000000,,,,,,,,,,,,,,,,,,,,,,,,,
1577423277.954061,74.000000,0.000000,4222.563965,3719.487061,4098.461426,4129.230957,4064.102539,450.000000,3.000000,,,,0.000000,4.000000,4.000000,4.000000,4.000000,4.000000,,,,,,,,,,,,,,,,,,,,,,,,,
1577423277.961941,75.000000,0.000000,4330.769043,3849.743652,4064.615479,4218.974121,4095.897461,16294.000000,3.000000,,,,0.000000,4.000000,4.000000,4.000000,4.000000,4.000000,,,,,,,,,,,,,,,,,,,,,,,,,
1577423277.969821,76.000000,0.000000,4063.589844,3609.743652,3852.307617,3923.589844,3806.153809,450.000000,3.000000,,,,0.000000,4.000000,4.000000,4.000000,4.000000,4.000000,,,,,,,,,,,,,,,,,,,,,,,,,
1577423277.977602,77.000000,1.000000,4083.247803,3629.629639,3875.213623,3942.222168,3828.375977,450.000000,3.000000,,,,0.000000,4.000000,4.000000,4.000000,4.000000,4.000000,,,,,,,,,,,,,,,,,,,,,,,,,
1577423277.985482,78.000000,1.000000,4102.905762,3649.515625,3898.119629,3960.854736,3850.598389,450.000000,3.000000,,,,0.000000,4.000000,4.000000,4.000000,4.000000,4.000000,,,,,,,,,,,,,,,,,,,,,,,,,
1577423277.993362,79.000000,1.000000,4122.563965,3669.401611,3921.025635,3979.487061,3872.820557,16086.000000,3.000000,,,,0.000000,4.000000,4.000000,4.000000,4.000000,4.000000,,,,,,,,,,,,,,,,,,,,,,,,,
1577423278.001242,80.000000,1.000000,4142.222168,3689.287842,3943.931641,3998.119629,3895.042725,450.000000,3.000000,,,,0.000000,4.000000,4.000000,4.000000,4.000000,4.000000,,,,,,,,,,,,,,,,,,,,,,,,,
1577423278.009122,81.000000,1.000000,4161.880371,3709.173828,3966.837646,4016.752197,3917.264893,450.000000,3.000000,,,,0.000000,4.000000,4.000000,4.000000,4.000000,4.000000,,,,,,,,,,,,,,,,,,,,,,,,,
1577423278.017003,82.000000,1.000000,4181.538574,3729.059814,3989.743652,4035.384521,3939.487061,450.000000,3.000000,,,,0.000000,4.000000,4.000000,4.000000,4.000000,4.000000,,,,,,,,,,,,,,,,,,,,,,,,,
1577423278.024883,83.000000,1.000000,4201.196777,3748.945801,4012.649658,4054.017090,3961.709473,450.000000,3.000000,,,,0.000000,4.000000,4.000000,4.000000,4.000000,4.000000,,,,,,,,,,,,,,,,,,,,,,,,,
1577423278.032763,84.000000,1.000000,4220.854492,3768.831787,4035.555664,4072.649658,3983.931641,450.000000,3.000000,,,,0.000000,4.000000,4.000000,4.000000,4.000000,4.000000,,,,,,,,,,,,,,,,,,,,,,,,,
1577423278.040643,85.000000,0.000000,4240.512695,3788.718018,4058.461426,4091.281982,4006.153809,450.000000,3.000000,,,,0.000000,4.000000,4.000000,4.000000,4.000000,4.000000,5.908495,4.813676,3.486022,3.188946,1.585487,3.455757,5.029818,1.522933,1.816639,1.169248,21.869667,3.106486,2.943287,2.116191,0.621731,6.832014,4.329882,1.673776,1.049155,1.001297,6.993997,1.703217,0.974611,0.917984,0.769048
1577423278.048523,86.000000,0.000000,4290.769043,3822.051270,4085.641113,4148.717773,4053.333252,450.000000,3.000000,,,,0.000000,4.000000,4.000000,4.000000,4.000000,4.000000,,,,,,,,,,,,,,,,,,,,,,,,,
1577423278.056304,87.000000,0.000000,4212.820313,3790.256348,4054.358887,4104.102539,3989.743652,16294.000000,3.000000,,,,0.000000,4.000000,4.000000,4.000000,4.000000,4.000000,,,,,,,,,,,,,,,,,,,,,,,,,
1577423278.064184,88.000000,0.000000,4197.436035,3794.358887,4055.384521,4087.179443,3994.358887,450.000000,3.000000,,,,0.000000,4.000000,4.000000,4.000000,4.000000,4.000000,,,,,,,,,,,,,,,,,,,,,,,,,
1577423278.072064,89.000000,0.000000,4221.538574,3781.538574,4050.769287,4091.794922,3993.846191,450.000000,3.000000,,,,0.000000,4.000000,4.000000,4.000000,4.000000,4.000000,,,,,,,,,,,,,,,,,,,,,,,,,
1577423278.079944,90.000000,0.000000,4227.179688,3758.974365,4069.743652,4090.256348,3990.256348,450.000000,3.000000,,,,0.000000,4.000000,4.000000,4.000000,4.000000,4.000000,,,,,,,,,,,,,,,,,,,,,,,,,
1577423278.087825,91.000000,0.000000,4232.307617,3786.153809,4076.410156,4108.205078,4008.718018,16294.000000,3.000000,,,,0.000000,4.000000,4.000000,4.000000,4.000000,4.000000,,,,,,,,,,,,,,,,,,,,,,,,,
1577423278.095605,92.000000,0.000000,4212.820313,3813.333252,4073.333252,4118.461426,3986.153809,450.000000,3.000000,,,,0.000000,4.000000,4.000000,4.000000,4.000000,4.000000,,,,,,,,,,,,,,,,,,,,,,,,,
1577423278.103485,93.000000,0.000000,4223.077148,3809.743652,4078.974365,4135.384766,3997.948730,450.000000,3.000000,,,,0.000000,4.000000,4.000000,4.000000,4.000000,4.000000,,,,,,,,,,,,,,,,,,,,,,,,,
1577423278.111265,94.000000,0.000000,4200.512695,3763.589844,4074.358887,4128.205078,3999.487061,450.000000,3.000000,,,,0.000000,4.000000,4.000000,4.000000,4.000000,4.000000,,,,,,,,,,,,,,,,,,,,,,,,,
1577423278.119146,95.000000,0.000000,4158.974121,3738.974365,4087.692383,4091.794922,3980.512939,16294.000000,3.000000,,,,0.000000,4.000000,4.000000,4.000000,4.000000,4.000000,,,,,,,,,,,,,,,,,,,,,,,,,
1577423278.126926,96.000000,0.000000,4182.563965,3770.256348,4093.333252,4085.128174,3994.871826,450.000000,3.000000,,,,0.000000,4.000000,4.000000,4.000000,4.000000,4.000000,,,,,,,,,,,,,,,,,,,,,,,,,
1577423278.134706,97.000000,0.000000,4199.487305,3783.076904,4089.743652,4110.256348,3991.794922,450.000000,3.000000,,,,0.000000,4.000000,4.000000,4.000000,4.000000,4.000000,,,,,,,,,,,,,,,,,,,,,,,,,
1577423278.142587,98.000000,0.000000,4238.461426,3792.820557,4115.384766,4151.794922,4018.974365,450.000000,3.000000,,,,0.000000,4.000000,4.000000,4.000000,4.000000,4.000000,,,,,,,,,,,,,,,,,,,,,,,,,
1577423278.150467,99.000000,0.000000,4249.230957,3777.435791,4113.846191,4165.128418,4038.974365,16294.000000,3.000000,,,,0.000000,4.000000,4.000000,4.000000,4.000000,4.000000,,,,,,,,,,,,,,,,,,,,,,,,,
1577423278.158347,100.000000,0.000000,4193.846191,3746.666748,4109.743652,4130.256348,4017.435791,450.000000,3.000000,,,,0.000000,4.000000,4.000000,4.000000,4.000000,4.000000,,,,,,,,,,,,,,,,,,,,,,,,,
1577423278.166127,101.000000,0.000000,4212.307617,3785.641113,4126.153809,4115.384766,4031.794922,450.000000,3.000000,,,,0.000000,4.000000,4.000000,4.000000,4.000000,4.000000,7.170336,4.673882,3.679044,3.606030,1.646820,2.971416,4.676367,1.415698,1.750928,1.204623,19.454357,3.407862,2.961630,1.910407,0.705234,5.077780,4.251506,1.919154,1.030026,0.943451,8.113292,1.651300,1.151910,1.194761,0.830687
1577423278.173908,102.000000,0.000000,4232.820313,3796.923096,4116.410156,4134.358887,4040.512939,450.000000,3.000000,,,,0.000000,4.000000,4.000000,4.000000,4.000000,4.000000,,,,,,,,,,,,,,,,,,,,,,,,,
1577423278.181688,103.000000,0.000000,4246.666504,3793.846191,4127.179688,4170.769043,4062.051270,16294.000000,3.000000,,,,0.000000,4.000000,4.000000,4.000000,4.000000,4.000000,,,,,,,,,,,,,,,,,,,,,,,,,
1577423278.189568,104.000000,0.000000,4255.897461,3793.846191,4118.974121,4163.077148,4069.743652,450.000000,3.000000,,,,0.000000,4.000000,4.000000,4.000000,4.000000,4.000000,,,,,,,,,,,,,,,,,,,,,,,,,
1577423278.197348,105.000000,0.000000,4184.102539,3735.384521,4082.051270,4095.384521,4020.512939,450.000000,3.000000,,,,0.000000,4.000000,4.000000,4.000000,4.000000,4.000000,,,,,,,,,,,,,,,,,,,,,,,,,
1577423278.205229,106.000000,0.000000,4181.025879,3738.461426,4096.922852,4096.922852,4030.256348,450.000000,3.000000,,,,0.000000,4.000000,4.000000,4.000000,4.000000,4.000000,,,,,,,,,,,,,,,,,,,,,,,,,
1577423278.213009,107.000000,0.000000,4232.307617,3770.256348,4124.102539,4135.897461,4072.307617,16294.000000,3.000000,,,,0.000000,4.000000,4.000000,4.000000,4.000000,4.000000,,,,,,,,,,,,,,,,,,,,,,,,,
1577423278.220889,108.000000,0.000000,4213.333496,3754.358887,4117.436035,4122.563965,4068.718018,450.000000,3.000000,,,,0.000000,4.000000,4.000000,4.000000,4.000000,4.000000,,,,,,,,,,,,,,,,,,,,,,,,,
1577423278.228669,109.000000,0.000000,4187.692383,3750.769287,4082.051270,4098.461426,4050.256348,450.000000,3.000000,,,,0.000000,4.000000,4.000000,4.000000,4.000000,4.000000,,,,,,,,,,,,,,,,,,,,,,,,,
1577423278.236550,110.000000,0.000000,4217.948730,3774.358887,4082.564209,4123.589844,4067.692383,450.000000,3.000000,,,,0.000000,4.000000,4.000000,4.000000,4.000000,4.000000,,,,,,,,,,,,,,,,,,,,,,,,,
1577423278.244330,111.000000,0.000000,4276.410156,3801.538574,4119.487305,4175.384766,4113.846191,16294.000000,3.000000,,,,0.000000,4.000000,4.000000,4.000000,4.000000,4.000000,,,,,,,,,,,,,,,,,,,,,,,,,
1577423278.252110,112.000000,0.000000,4248.717773,3759.487061,4084.102539,4126.153809,4095.897461,450.000000,3.000000,,,,0.000000,4.000000,4.000000,4.000000,4.000000,4.000000,,,,,,,,,,,,,,,,,,,,,,,,,
1577423278.259991,113.000000,0.000000,4168.717773,3709.230713,4056.410156,4053.333252,4049.230713,450.000000,3.000000,,,,0.000000,4.000000,4.000000,4.000000,4.000000,4.000000,,,,,,,,,,,,,,,,,,,,,,,,,
1577423278.267871,114.000000,0.000000,4174.871582,3743.076904,4082.564209,4083.076904,4070.256348,450.000000,3.000000,,,,0.000000,4.000000,4.000000,4.000000,4.000000,4.000000,,,,,,,,,,,,,,,,,,,,,,,,,
1577423278.275651,115.000000,0.000000,4218.974121,3772.307617,4080.000000,4118.461426,4109.743652,16294.000000,3.000000,,,,0.000000,4.000000,4.000000,4.000000,4.000000,4.000000,,,,,,,,,,,,,,,,,,,,,,,,,
1577423278.283531,116.000000,0.000000,4257.948730,3796.410156,4088.718018,4139.487305,4125.641113,450.000000,3.000000,,,,0.000000,4.000000,4.000000,4.000000,4.000000,4.000000,,,,,,,,,,,,,,,,,,,,,,,,,
1577423278.291312,117.000000,0.000000,4274.358887,3805.641113,4096.410156,4141.538574,4135.897461,450.000000,3.000000,,,,0.000000,4.000000,4.000000,4.000000,4.000000,4.000000,9.377054,4.397740,3.826710,4.385266,1.870493,3.720706,4.931887,1.592616,1.695391,1.467913,17.773525,4.010494,3.241236,2.229656,0.908870,6.314342,4.217443,2.295620,1.431393,1.051974,13.247695,1.901541,1.497826,2.209923,1.096783
1577423278.299092,118.000000,0.000000,4237.436035,3774.358887,4123.077148,4136.410156,4152.307617,450.000000,3.000000,,,,0.000000,4.000000,4.000000,4.000000,4.000000,4.000000,,,,,,,,,,,,,,,,,,,,,,,,,
1577423278.306972,119.000000,0.000000,4221.538574,3766.666748,4146.153809,4151.282227,4157.436035,16294.000000,3.000000,,,,0.000000,4.000000,4.000000,4.000000,4.000000,4.000000,,,,,,,,,,,,,,,,,,,,,,,,,
1577423278.314752,120.000000,0.000000,4230.769043,3767.179443,4092.307617,4104.102539,4137.436035,450.000000,3.000000,,,,0.000000,4.000000,4.000000,4.000000,4.000000,4.000000,,,,,,,,,,,,,,,,,,,,,,,,,
1577423278.322633,121.000000,0.000000,4249.230957,3784.615479,4078.461426,4092.307617,4134.871582,450.000000,3.000000,,,,0.000000,4.000000,4.000000,4.000000,4.000000,4.000000,,,,,,,,,,,,,,,,,,,,,,,,,
1577423278.330413,122.000000,0.000000,4256.410156,3787.179443,4071.794922,4111.282227,4115.384766,450.000000,3.000000,,,,0.000000,4.000000,4.000000,4.000000,4.000000,4.000000,,,,,,,,,,,,,,,,,,,,,,,,,
1577423278.338293,123.000000,0.000000,4211.794922,3755.897461,4056.923096,4067.179443,4082.564209,16294.000000,3.000000,,,,0.000000,4.000000,4.000000,4.000000,4.000000,4.000000,,,,,,,,,,,,,,,,,,,,,,,,,
1577423278.346173,124.000000,0.000000,4197.436035,3771.794922,4093.333252,4074.358887,4100.000000,450.000000,3.000000,,,,0.000000,4.000000,4.000000,4.000000,4.000000,4.000000,,,,,,,,,,,,,,,,,,,,,,,,,
1577423278.353954,125.000000,0.000000,4209.230957,3776.410156,4088.718018,4075.897461,4111.282227,450.000000,3.000000,,,,0.000000,4.000000,4.000000,4.000000,4.000000,4.000000,,,,,,,,,,,,,,,,,,,,,,,,,
1577423278.361834,126.000000,0.000000,4236.922852,3769.230713,4097.948730,4081.538574,4142.051270,450.000000,3.000000,,,,0.000000,4.000000,4.000000,4.000000,4.000000,4.000000,,,,,,,,,,,,,,,,,,,,,,,,,
1577423278.369614,127.000000,0.000000,4298.461426,3822.564209,4118.461426,4133.846191,4173.846191,233.000000,3.000000,,,,0.000000,4.000000,4.000000,4.000000,4.000000,4.000000,,,,,,,,,,,,,,,,,,,,,,,,,
1577423278.377394,0.000000,0.000000,4296.922852,3860.512939,4112.307617,4120.512695,4150.769043,450.000000,3.000000,,,,0.000000,4.000000,4.000000,4.000000,4.000000,4.000000,,,,,,,,,,,,,,,,,,,,,,,,,
1577423278.385275,1.000000,0.000000,4267.692383,3840.000000,4131.282227,4109.230957,4159.487305,450.000000,3.000000,,,,0.000000,4.000000,4.000000,4.000000,4.000000,4.000000,,,,,,,,,,,,,,,,,,,,,,,,,
1577423278.393155,2.000000,0.000000,4253.333496,3785.641113,4117.948730,4090.256348,4144.615234,16182.000000,3.000000,,,,0.000000,4.000000,4.000000,4.000000,4.000000,4.000000,,,,,,,,,,,,,,,,,,,,,,,,,
1577423278.400935,3.000000,0.000000,4235.897461,3770.769287,4108.717773,4053.846191,4121.025879,450.000000,3.000000,,,,0.000000,4.000000,4.000000,4.000000,4.000000,4.000000,,,,,,,,,,,,,,,,,,,,,,,,,
1577423278.408716,4.000000,0.000000,4245.641113,3815.897461,4129.230957,4077.435791,4141.025879,16187.000000,3.000000,,,,0.000000,4.000000,4.000000,4.000000,4.000000,4.000000,,,,,,,,,,,,,,,,,,,,,,,,,
1577423278.416596,5.000000,0.000000,4281.025879,3850.769287,4150.769043,4105.128418,4155.897461,450.000000,3.000000,,,,0.000000,4.000000,4.000000,4.000000,4.000000,4.000000,13.703546,4.565001,4.097358,5.618990,2.332783,5.726458,6.973913,2.349777,1.732778,2.086681,19.541788,5.054060,4.018528,3.271333,1.333065,12.119373,4.607728,2.936883,2.482626,1.441163,27.267227,2.867360,2.078506,4.291602,1.695336
1577423278.424376,6.000000,0.000000,4309.230957,3870.769287,4156.922852,4118.461426,4183.077148,16229.000000,3.000000,,,,0.000000,4.000000,4.000000,4.000000,4.000000,4.000000,,,,,,,,,,,,,,,,,,,,,,,,,
1577423278.432156,7.000000,0.000000,4260.000000,3835.897461,4111.794922,4086.666748,4138.461426,450.000000,3.000000,,,,0.000000,4.000000,4.000000,4.000000,4.000000,4.000000,,,,,,,,,,,,,,,,,,,,,,,,,
1577423278.440037,8.000000,0.000000,4198.461426,3780.512939,4110.256348,4046.153809,4093.846191,450.000000,3.000000,,,,0.000000,4.000000,4.000000,4.000000,4.000000,4.000000,,,,,,,,,,,,,,,,,,,,,,,,,
1577423278.447817,9.000000,0.000000,4216.922852,3804.615479,4144.615234,4065.128174,4138.461426,16206.000000,3.000000,,,,0.000000,4.000000,4.000000,4.000000,4.000000,4.000000,,,,,,,,,,,,,,,,,,,,,,,,,
1577423278.455597,10.000000,0.000000,4241.025879,3833.333252,4137.948730,4077.435791,4136.410156,450.000000,3.000000,,,,0.000000,4.000000,4.000000,4.000000,4.000000,4.000000,,,,,,,,,,,,,,,,,,,,,,,,,
1577423278.463477,11.000000,0.000000,4306.666504,3861.538574,4156.922852,4117.948730,4170.769043,16172.000000,3.000000,,,,0.000000,4.000000,4.000000,4.000000,4.000000,4.000000,,,,,,,,,,,,,,,,,,,,,,,,,
1577423278.471358,12.000000,0.000000,4353.333496,3885.128174,4187.692383,4164.615234,4218.974121,450.000000,3.000000,,,,0.000000,4.000000,4.000000,4.000000,4.000000,4.000000,,,,,,,,,,,,,,,,,,,,,,,,,
1577423278.479238,13.000000,0.000000,4265.641113,3832.820557,4171.794922,4111.794922,4157.948730,450.000000,3.000000,,,,0.000000,4.000000,4.000000,4.000000,4.000000,4.000000,,,,,,,,,,,,,,,,,,,,,,,,,
1577423278.487018,14.000000,0.000000,4212.307617,3797.948730,4151.282227,4069.230713,4130.769043,450.000000,3.000000,,,,0.000000,4.000000,4.000000,4.000000,4.000000,4.000000,,,,,,,,,,,,,,,,,,,,,,,,,
1577423278.494798,15.000000,0.000000,4244.615234,3822.564209,4170.256348,4097.436035,4149.230957,16172.000000,3.000000,,,,0.000000,4.000000,4.000000,4.000000,4.000000,4.000000,,,,,,,,,,,,,,,,,,,,,,,,,
1577423278.502679,16.000000,0.000000,4290.256348,3855.384521,4184.615234,4113.846191,4173.333496,0.000000,3.000000,,,,0.000000,4.000000,4.000000,4.000000,4.000000,4.000000,,,,,,,,,,,,,,,,,,,,,,,,,
1577423278.510559,17.000000,0.000000,4287.692383,3862.564209,4151.794922,4109.743652,4177.948730,0.000000,3.000000,,,,0.000000,4.000000,4.000000,4.000000,4.000000,4.000000,,,,,,,,,,,,,,,,,,,,,,,,,
1577423278.518339,18.000000,0.000000,4233.846191,3836.410156,4149.230957,4100.512695,4141.538574,0.000000,3.000000,,,,0.000000,4.000000,4.000000,4.000000,4.000000,4.000000,,,,,,,,,,,,,,,,,,,,,,,,,
1577423278.526219,19.000000,0.000000,4263.077148,3843.589844,4193.846191,4121.025879,4180.512695,0.000000,3.000000,,,,0.000000,4.000000,4.000000,4.000000,4.000000,4.000000,,,,,,,,,,,,,,,,,,,,,,,,,
1577423278.534000,20.000000,0.000000,4262.051270,3824.102539,4178.461426,4117.948730,4190.256348,0.000000,3.000000,,,,0.000000,4.000000,4.000000,4.000000,4.000000,4.000000,,,,,,,,,,,,,,,,,,,,,,,,,
1577423278.541880,21.000000,0.000000,4209.230957,3791.794922,4144.102539,4073.333252,4134.871582,0.000000,3.000000,,,,0.000000,4.000000,4.000000,4.000000,4.000000,4.000000,20.188389,5.719337,4.661038,7.301701,3.069026,8.948193,11.314949,3.778408,1.994628,3.067030,25.713003,6.560331,5.376531,4.967935,2.007229,22.398951,5.815497,3.996743,4.221028,2.166038,51.001724,4.905401,2.956521,7.357502,2.650744
1577423278.549660,22.000000,0.000000,4240.000000,3828.718018,4148.717773,4083.076904,4142.051270,0.000000,3.000000,,,,0.000000,4.000000,4.000000,4.000000,4.000000,4.000000,,,,,,,,,,,,,,,,,,,,,,,,,
1577423278.557441,23.000000,0.000000,4253.846191,3847.179443,4146.666504,4115.384766,4162.563965,0.000000,3.000000,,,,0.000000,4.000000,4.000000,4.000000,4.000000,4.000000,,,,,,,,,,,,,,,,,,,,,,,,,
1577423278.565321,24.000000,0.000000,4258.974121,3850.256348,4143.589844,4126.153809,4184.615234,0.000000,3.000000,,,,0.000000,4.000000,4.000000,4.000000,4.000000,4.000000,,,,,,,,,,,,,,,,,,,,,,,,,
1577423278.573101,25.000000,0.000000,4250.256348,3829.230713,4126.153809,4109.743652,4178.974121,0.000000,3.000000,,,,0.000000,4.000000,4.000000,4.000000,4.000000,4.000000,,,,,,,,,,,,,,,,,,,,,,,,,
1577423278.580981,26.000000,0.000000,4213.333496,3791.281982,4135.384766,4086.153809,4154.871582,0.000000,3.000000,,,,0.000000,4.000000,4.000000,4.000000,4.000000,4.000000,,,,,,,,,,,,,,,,,,,,,,,,,
1577423278.588762,27.000000,0.000000,4247.692383,3818.974365,4173.333496,4110.769043,4177.948730,0.000000,3.000000,,,,0.000000,4.000000,4.000000,4.000000,4.000000,4.000000,,,,,,,,,,,,,,,,,,,,,,,,,
1577423278.596642,28.000000,0.000000,4281.538574,3850.769287,4169.230957,4140.512695,4199.487305,0.000000,3.000000,,,,0.000000,4.000000,4.000000,4.000000,4.000000,4.000000,,,,,,,,,,,,,,,,,,,,,,,,,
1577423278.604422,29.000000,0.000000,4274.358887,3844.102539,4143.077148,4137.948730,4195.897461,0.000000,3.000000,,,,0.000000,4.000000,4.000000,4.000000,4.000000,4.000000,,,,,,,,,,,,,,,,,,,,,,,,,
1577423278.612302,30.000000,0.000000,4251.282227,3802.564209,4122.563965,4101.025879,4176.922852,0.000000,3.000000,,,,0.000000,4.000000,4.000000,4.000000,4.000000,4.000000,,,,,,,,,,,,,,,,,,,,,,,,,
1577423278.620083,31.000000,0.000000,4217.948730,3775.384521,4149.230957,4082.051270,4175.384766,0.000000,3.000000,,,,0.000000,4.000000,4.000000,4.000000,4.000000,4.000000,,,,,,,,,,,,,,,,,,,,,,,,,
1577423278.627963,32.000000,0.000000,4226.153809,3810.769287,4185.641113,4107.179688,4197.948730,0.000000,3.000000,,,,0.000000,4.000000,4.000000,4.000000,4.000000,4.000000,,,,,,,,,,,,,,,,,,,,,,,,,
1577423278.635743,33.000000,0.000000,4227.692383,3806.666748,4171.794922,4105.641113,4198.974121,0.000000,3.000000,,,,0.000000,4.000000,4.000000,4.000000,4.000000,4.000000,,,,,,,,,,,,,,,,,,,,,,,,,
1577423278.643623,34.000000,0.000000,4249.743652,3805.128174,4198.974121,4133.846191,4233.333496,0.000000,3.000000,,,,0.000000,4.000000,4.000000,4.000000,4.000000,4.000000,,,,,,,,,,,,,,,,,,,,,,,,,
1577423278.651404,35.000000,0.000000,4296.922852,3832.820557,4216.410156,4160.512695,4276.410156,0.000000,3.000000,,,,0.000000,4.000000,4.000000,4.000000,4.000000,4.000000,,,,,,,,,,,,,,,,,,,,,,,,,
1577423278.659284,36.000000,0.000000,4263.077148,3809.230713,4183.589844,4112.820313,4242.051270,0.000000,3.000000,,,,0.000000,4.000000,4.000000,4.000000,4.000000,4.000000,,,,,,,,,,,,,,,,,,,,,,,,,
1577423278.667064,37.000000,0.000000,4228.717773,3806.153809,4172.307617,4096.410156,4214.358887,0.000000,3.000000,,,,0.000000,4.000000,4.000000,4.000000,4.000000,4.000000,27.967424,8.013688,5.569030,9.349626,4.016554,12.900743,17.272249,5.644408,2.669398,4.238746,35.186245,8.417278,7.110421,6.954172,2.840442,35.651958,7.968621,5.491306,6.441326,3.161819,81.433464,8.059761,4.130001,10.828863,3.822031
1577423278.674845,38.000000,0.000000,4223.589844,3793.333252,4140.512695,4084.102539,4229.743652,0.000000,3.000000,,,,0.000000,4.000000,4.000000,4.000000,4.000000,4.000000,,,,,,,,,,,,,,,,,,,,,,,,,
1577423278.682725,39.000000,0.000000,4201.025879,3771.281982,4120.000000,4073.846191,4235.384766,0.000000,3.000000,,,,0.000000,4.000000,4.000000,4.000000,4.000000,4.000000,,,,,,,,,,,,,,,,,,,,,,,,,
1577423278.690605,40.000000,0.000000,4225.128418,3807.692383,4105.128418,4099.487305,4237.436035,0.000000,3.000000,,,,0.000000,4.000000,4.000000,4.000000,4.000000,4.000000,,,,,,,,,,,,,,,,,,,,,,,,,
1577423278.698385,41.000000,0.000000,4280.000000,3841.538574,4083.589844,4100.512695,4271.282227,0.000000,3.000000,,,,0.000000,4.000000,4.000000,4.000000,4.000000,4.000000,,,,,,,,,,,,,,,,,,,,,,,,,
1577423278.706166,42.000000,0.000000,4312.307617,3855.897461,4115.897461,4124.615234,4305.641113,0.000000,3.000000,,,,0.000000,4.000000,4.000000,4.000000,4.000000,4.000000,,,,,,,,,,,,,,,,,,,,,,,,,
1577423278.714046,43.000000,0.000000,4265.641113,3805.128174,4096.410156,4103.589844,4265.641113,0.000000,3.000000,,,,0.000000,4.000000,4.000000,4.000000,4.000000,4.000000,,,,,,,,,,,,,,,,,,,,,,,,,
1577423278.721826,44.000000,0.000000,4197.436035,3753.333252,4081.025635,4062.051270,4229.230957,0.000000,3.000000,,,,0.000000,4.000000,4.000000,4.000000,4.000000,4.000000,,,,,,,,,,,,,,,,,,,,,,,,,
1577423278.729706,45.000000,0.000000,4243.077148,3818.974365,4142.563965,4109.230957,4262.563965,0.000000,3.000000,,,,0.000000,4.000000,4.000000,4.000000,4.000000,4.000000,,,,,,,,,,,,,,,,,,,,,,,,,
1577423278.737487,46.000000,0.000000,4304.615234,3863.076904,4175.384766,4116.410156,4281.025879,0.000000,3.000000,,,,0.000000,4.000000,4.000000,4.000000,4.000000,4.000000,,,,,,,,,,,,,,,,,,,,,,,,,
1577423278.745367,47.000000,0.000000,4294.358887,3828.205078,4176.410156,4098.461426,4280.512695,0.000000,3.000000,,,,0.000000,4.000000,4.000000,4.000000,4.000000,4.000000,,,,,,,,,,,,,,,,,,,,,,,,,
1577423278.753147,48.000000,0.000000,4262.563965,3801.538574,4163.077148,4094.871826,4260.000000,0.000000,3.000000,,,,0.000000,4.000000,4.000000,4.000000,4.000000,4.000000,,,,,,,,,,,,,,,,,,,,,,,,,
1577423278.761027,49.000000,0.000000,4238.461426,3800.000000,4173.846191,4071.281982,4251.282227,0.000000,3.000000,,,,0.000000,4.000000,4.000000,4.000000,4.000000,4.000000,,,,,,,,,,,,,,,,,,,,,,,,,
1577423278.768808,50.000000,0.000000,4280.000000,3818.974365,4188.205078,4100.512695,4280.000000,0.000000,3.000000,,,,0.000000,4.000000,4.000000,4.000000,4.000000,4.000000,,,,,,,,,,,,,,,,,,,,,,,,,
1577423278.776688,51.000000,0.000000,4321.025879,3825.641113,4153.846191,4114.358887,4270.769043,0.000000,3.000000,,,,0.000000,4.000000,4.000000,4.000000,4.000000,4.000000,,,,,,,,,,,,,,,,,,,,,,,,,
1577423278.784468,52.000000,0.000000,4328.717773,3847.692383,4140.000000,4128.205078,4307.692383,0.000000,3.000000,,,,0.000000,4.000000,4.000000,4.000000,4.000000,4.000000,,,,,,,,,,,,,,,,,,,,,,,,,
1577423278.792348,53.000000,0.000000,4310.256348,3862.051270,4112.307617,4137.436035,4318.974121,0.000000,3.000000,,,,0.000000,4.000000,4.000000,4.000000,4.000000,4.000000,34.903721,10.988814,6.661225,11.633430,5.004701,16.346634,23.105009,7.443430,3.936602,5.299015,44.673130,10.407872,8.765567,8.679605,3.641526,47.551334,10.629118,7.149556,8.758895,4.230398,110.047928,11.812851,5.435003,13.824961,4.929996
1577423278.800229,54.000000,0.000000,4254.871582,3820.000000,4082.051270,4073.333252,4235.897461,0.000000,3.000000,,,,0.000000,4.000000,4.000000,4.000000,4.000000,4.000000,,,,,,,,,,,,,,,,,,,,,,,,,
1577423278.808009,55.000000,0.000000,4260.512695,3811.794922,4108.717773,4067.179443,4236.922852,0.000000,3.000000,,,,0.000000,4.000000,4.000000,4.000000,4.000000,4.000000,,,,,,,,,,,,,,,,,,,,,,,,,
1577423278.815789,56.000000,0.000000,4280.512695,3831.281982,4129.230957,4098.974121,4248.717773,0.000000,3.000000,,,,0.000000,4.000000,4.000000,4.000000,4.000000,4.000000,,,,,,,,,,,,,,,,,,,,,,,,,
1577423278.823669,57.000000,0.000000,4271.794922,3843.076904,4129.230957,4098.461426,4253.333496,0.000000,3.000000,,,,0.000000,4.000000,4.000000,4.000000,4.000000,4.000000,,,,,,,,,,,,,,,,,,,,,,,,,
1577423278.831550,58.000000,0.000000,4271.794922,3868.718018,4114.871582,4108.717773,4274.358887,0.000000,3.000000,,,,0.000000,4.000000,4.000000,4.000000,4.000000,4.000000,,,,,,,,,,,,,,,,,,,,,,,,,
1577423278.839330,59.000000,0.000000,4283.589844,3890.769287,4127.179688,4134.358887,4258.974121,0.000000,3.000000,,,,0.000000,4.000000,4.000000,4.000000,4.000000,4.000000,,,,,,,,,,,,,,,,,,,,,,,,,
1577423278.847110,60.000000,0.000000,4316.922852,3899.487061,4151.282227,4160.512695,4275.897461,0.000000,3.000000,,,,0.000000,4.000000,4.000000,4.000000,4.000000,4.000000,,,,,,,,,,,,,,,,,,,,,,,,,
1577423278.854991,61.000000,0.000000,4288.205078,3858.461426,4141.025879,4142.563965,4251.794922,0.000000,3.000000,,,,0.000000,4.000000,4.000000,4.000000,4.000000,4.000000,,,,,,,,,,,,,,,,,,,,,,,,,
1577423278.862771,62.000000,0.000000,4238.974121,3821.538574,4146.153809,4102.563965,4204.615234,0.000000,3.000000,,,,0.000000,4.000000,4.000000,4.000000,4.000000,4.000000,,,,,,,,,,,,,,,,,,,,,,,,,
1577423278.870651,63.000000,0.000000,4246.666504,3849.230713,4144.615234,4104.615234,4214.871582,0.000000,3.000000,,,,0.000000,4.000000,4.000000,4.000000,4.000000,4.000000,,,,,,,,,,,,,,,,,,,,,,,,,
1577423278.878531,64.000000,0.000000,4265.128418,3869.743652,4143.077148,4145.128418,4226.153809,450.000000,3.000000,,,,0.000000,4.000000,4.000000,4.000000,4.000000,4.000000,,,,,,,,,,,,,,,,,,,,,,,,,
1577423278.886312,65.000000,0.000000,4332.307617,3897.435791,4173.333496,4198.974121,4277.948730,450.000000,3.000000,,,,0.000000,4.000000,4.000000,4.000000,4.000000,4.000000,,,,,,,,,,,,,,,,,,,,,,,,,
1577423278.894192,66.000000,0.000000,4321.538574,3885.128174,4158.461426,4189.230957,4277.948730,16068.000000,3.000000,,,,0.000000,4.000000,4.000000,4.000000,4.000000,4.000000,,,,,,,,,,,,,,,,,,,,,,,,,
1577423278.901972,67.000000,0.000000,4232.820313,3831.794922,4145.641113,4124.102539,4209.743652,450.000000,3.000000,,,,0.000000,4.000000,4.000000,4.000000,4.000000,4.000000,,,,,,,,,,,,,,,,,,,,,,,,,
1577423278.909852,68.000000,0.000000,4258.461426,3852.820557,4168.205078,4114.358887,4209.230957,16102.000000,3.000000,,,,0.000000,4.000000,4.000000,4.000000,4.000000,4.000000,,,,,,,,,,,,,,,,,,,,,,,,,
1577423278.917633,69.000000,0.000000,4275.384766,3875.384521,4168.205078,4155.897461,4225.641113,450.000000,3.000000,,,,0.000000,4.000000,4.000000,4.000000,4.000000,4.000000,38.560024,13.735554,7.603603,13.996835,5.815008,18.125401,26.730429,8.591793,5.839159,5.945901,50.194752,12.280865,9.746576,9.616466,4.197617,54.611847,13.045856,8.527541,10.738698,5.094762,127.107620,15.205718,6.587331,15.541873,5.673808
1577423278.925413,70.000000,0.000000,4274.871582,3892.820557,4178.974121,4200.000000,4246.666504,16168.000000,3.000000,,,,0.000000,4.000000,4.000000,4.000000,4.000000,4.000000,,,,,,,,,,,,,,,,,,,,,,,,,
1577423278.933293,71.000000,0.000000,4298.461426,3880.512939,4171.282227,4175.897461,4254.358887,450.000000,3.000000,,,,0.000000,4.000000,4.000000,4.000000,4.000000,4.000000,,,,,,,,,,,,,,,,,,,,,,,,,
1577423278.941173,72.000000,0.000000,4261.025879,3850.769287,4170.769043,4112.820313,4221.025879,450.000000,3.000000,,,,0.000000,4.000000,4.000000,4.000000,4.000000,4.000000,,,,,,,,,,,,,,,,,,,,,,,,,
1577423278.949054,73.000000,0.000000,4240.512695,3897.948730,4193.333496,4114.358887,4208.717773,16126.000000,3.000000,,,,0.000000,4.000000,4.000000,4.000000,4.000000,4.000000,,,,,,,,,,,,,,,,,,,,,,,,,
1577423278.956834,74.000000,0.000000,4219.487305,3868.718018,4160.512695,4116.922852,4208.205078,450.000000,3.000000,,,,0.000000,4.000000,4.000000,4.000000,4.000000,4.000000,,,,,,,,,,,,,,,,,,,,,,,,,
1577423278.964714,75.000000,0.000000,4210.769043,3822.051270,4168.717773,4135.384766,4237.436035,16139.000000,3.000000,,,,0.000000,4.000000,4.000000,4.000000,4.000000,4.000000,,,,,,,,,,,,,,,,,,,,,,,,,
1577423278.972494,76.000000,0.000000,4241.538574,3867.179443,4174.358887,4169.743652,4265.641113,450.000000,3.000000,,,,0.000000,4.000000,4.000000,4.000000,4.000000,4.000000,,,,,,,,,,,,,,,,,,,,,,,,,
1577423278.980275,77.000000,0.000000,4232.307617,3885.641113,4135.897461,4144.615234,4244.102539,450.000000,3.000000,,,,0.000000,4.000000,4.000000,4.000000,4.000000,4.000000,,,,,,,,,,,,,,,,,,,,,,,,,
1577423278.988155,78.000000,0.000000,4264.615234,3904.102539,4183.077148,4156.922852,4265.641113,450.000000,3.000000,,,,0.000000,4.000000,4.000000,4.000000,4.000000,4.000000,,,,,,,,,,,,,,,,,,,,,,,,,
1577423278.996035,79.000000,0.000000,4280.512695,3891.794922,4208.717773,4156.922852,4294.358887,16139.000000,3.000000,,,,0.000000,4.000000,4.000000,4.000000,4.000000,4.000000,,,,,,,,,,,,,,,,,,,,,,,,,
1577423279.003815,80.000000,0.000000,4206.666504,3850.769287,4180.512695,4112.307617,4252.820313,450.000000,3.000000,,,,0.000000,4.000000,4.000000,4.000000,4.000000,4.000000,,,,,,,,,,,,,,,,,,,,,,,,,
1577423279.011696,81.000000,0.000000,4197.948730,3873.846191,4165.641113,4114.871582,4232.820313,450.000000,3.000000,,,,0.000000,4.000000,4.000000,4.000000,4.000000,4.000000,,,,,,,,,,,,,,,,,,,,,,,,,
1577423279.019476,82.000000,0.000000,4247.692383,3896.410156,4155.897461,4115.384766,4278.461426,450.000000,3.000000,,,,0.000000,4.000000,4.000000,4.000000,4.000000,4.000000,,,,,,,,,,,,,,,,,,,,,,,,,
1577423279.027356,83.000000,0.000000,4271.794922,3898.974365,4163.589844,4134.358887,4307.692383,16139.000000,3.000000,,,,0.000000,4.000000,4.000000,4.000000,4.000000,4.000000,,,,,,,,,,,,,,,,,,,,,,,,,
1577423279.035137,84.000000,0.000000,4247.179688,3883.076904,4135.384766,4116.410156,4271.794922,450.000000,3.000000,,,,0.000000,4.000000,4.000000,4.000000,4.000000,4.000000,,,,,,,,,,,,,,,,,,,,,,,,,
1577423279.043017,85.000000,0.000000,4211.794922,3855.897461,4144.615234,4074.871826,4265.128418,450.000000,3.000000,,,,0.000000,4.000000,4.000000,4.000000,4.000000,4.000000,37.391689,15.288021,8.073455,16.259583,6.285235,17.413992,26.733915,8.718669,8.191545,6.018043,49.391819,14.091004,9.666261,9.494535,4.369681,54.093700,14.350917,9.219105,12.058310,5.517982,126.053398,17.228394,7.299191,15.631535,5.866903
1577423279.050797,86.000000,0.000000,4240.000000,3892.307617,4191.282227,4115.384766,4292.307617,450.000000,3.000000,,,,0.000000,4.000000,4.000000,4.000000,4.000000,4.000000,,,,,,,,,,,,,,,,,,,,,,,,,
1577423279.058677,87.000000,0.000000,4292.307617,3950.256348,4198.974121,4137.948730,4309.230957,16139.000000,3.000000,,,,0.000000,4.000000,4.000000,4.000000,4.000000,4.000000,,,,,,,,,,,,,,,,,,,,,,,,,
1577423279.066458,88.000000,0.000000,4332.307617,3965.641113,4212.307617,4151.794922,4366.153809,450.000000,3.000000,,,,0.000000,4.000000,4.000000,4.000000,4.000000,4.000000,,,,,,,,,,,,,,,,,,,,,,,,,
1577423279.074338,89.000000,0.000000,4318.461426,3930.256348,4170.769043,4138.974121,4352.820313,450.000000,3.000000,,,,0.000000,4.000000,4.000000,4.000000,4.000000,4.000000,,,,,,,,,,,,,,,,,,,,,,,,,
1577423279.082118,90.000000,0.000000,4255.384766,3883.589844,4153.846191,4087.179443,4288.205078,450.000000,3.000000,,,,0.000000,4.000000,4.000000,4.000000,4.000000,4.000000,,,,,,,,,,,,,,,,,,,,,,,,,
1577423279.089998,91.000000,0.000000,4243.077148,3871.281982,4199.487305,4098.974121,4289.743652,16139.000000,3.000000,,,,0.000000,4.000000,4.000000,4.000000,4.000000,4.000000,,,,,,,,,,,,,,,,,,,,,,,,,
1577423279.097779,92.000000,0.000000,4283.077148,3873.333252,4197.948730,4115.384766,4290.769043,450.000000,3.000000,,,,0.000000,4.000000,4.000000,4.000000,4.000000,4.000000,,,,,,,,,,,,,,,,,,,,,,,,,
1577423279.105659,93.000000,0.000000,4325.128418,3885.128174,4194.871582,4130.769043,4321.025879,450.000000,3.000000,,,,0.000000,4.000000,4.000000,4.000000,4.000000,4.000000,,,,,,,,,,,,,,,,,,,,,,,,,
1577423279.113439,94.000000,0.000000,4314.358887,3880.512939,4176.410156,4140.512695,4327.179688,450.000000,3.000000,,,,0.000000,4.000000,4.000000,4.000000,4.000000,4.000000,,,,,,,,,,,,,,,,,,,,,,,,,
1577423279.121219,95.000000,0.000000,4274.358887,3859.487061,4160.512695,4105.128418,4289.743652,16139.000000,3.000000,,,,0.000000,4.000000,4.000000,4.000000,4.000000,4.000000,,,,,,,,,,,,,,,,,,,,,,,,,
1577423279.129100,96.000000,0.000000,4333.333496,3897.435791,4213.846191,4131.282227,4350.769043,450.000000,3.000000,,,,0.000000,4.000000,4.000000,4.000000,4.000000,4.000000,,,,,,,,,,,,,,,,,,,,,,,,,
1577423279.136880,97.000000,0.000000,4370.769043,3900.000000,4247.179688,4168.205078,4366.153809,450.000000,3.000000,,,,0.000000,4.000000,4.000000,4.000000,4.000000,4.000000,,,,,,,,,,,,,,,,,,,,,,,,,
1577423279.144760,98.000000,0.000000,4306.666504,3822.564209,4219.487305,4129.230957,4303.589844,450.000000,3.000000,,,,0.000000,4.000000,4.000000,4.000000,4.000000,4.000000,,,,,,,,,,,,,,,,,,,,,,,,,
1577423279.152540,99.000000,0.000000,4278.461426,3807.179443,4184.615234,4101.538574,4288.205078,16139.000000,3.000000,,,,0.000000,4.000000,4.000000,4.000000,4.000000,4.000000,,,,,,,,,,,,,,,,,,,,,,,,,
1577423279.160421,100.000000,0.000000,4300.512695,3847.179443,4184.615234,4111.794922,4288.205078,450.000000,3.000000,,,,0.000000,4.000000,4.000000,4.000000,4.000000,4.000000,,,,,,,,,,,,,,,,,,,,,,,,,
1577423279.168201,101.000000,0.000000,4341.538574,3863.589844,4193.846191,4134.358887,4320.512695,450.000000,3.000000,,,,0.000000,4.000000,4.000000,4.000000,4.000000,4.000000,31.625469,15.068011,7.898899,18.215319,6.391633,14.443708,23.121775,7.807801,10.627687,5.574569,42.717072,16.002005,8.528996,8.399785,4.153830,46.468166,14.026062,9.088606,12.634034,5.424880,106.861313,17.220751,7.420743,14.369066,5.525738
1577423279.176081,102.000000,0.000000,4298.461426,3824.615479,4172.820313,4120.000000,4292.820313,450.000000,3.000000,,,,0.000000,4.000000,4.000000,4.000000,4.000000,4.000000,,,,,,,,,,,,,,,,,,,,,,,,,
1577423279.183862,103.000000,0.000000,4225.128418,3792.820557,4184.102539,4075.384521,4231.794922,16139.000000,3.000000,,,,0.000000,4.000000,4.000000,4.000000,4.000000,4.000000,,,,,,,,,,,,,,,,,,,,,,,,,
1577423279.191642,104.000000,0.000000,4273.846191,3849.230713,4232.820313,4115.384766,4275.897461,450.000000,3.000000,,,,0.000000,4.000000,4.000000,4.000000,4.000000,4.000000,,,,,,,,,,,,,,,,,,,,,,,,,
1577423279.199522,105.000000,0.000000,4323.077148,3887.692383,4247.692383,4186.153809,4308.205078,450.000000,3.000000,,,,0.000000,4.000000,4.000000,4.000000,4.000000,4.000000,,,,,,,,,,,,,,,,,,,,,,,,,
1577423279.207402,106.000000,0.000000,4335.384766,3868.205078,4221.538574,4180.512695,4307.692383,450.000000,3.000000,,,,0.000000,4.000000,4.000000,4.000000,4.000000,4.000000,,,,,,,,,,,,,,,,,,,,,,,,,
1577423279.215282,107.000000,0.000000,4296.410156,3804.102539,4176.410156,4114.358887,4275.897461,16139.000000,3.000000,,,,0.000000,4.000000,4.000000,4.000000,4.000000,4.000000,,,,,,,,,,,,,,,,,,,,,,,,,
1577423279.223063,108.000000,0.000000,4237.948730,3786.666748,4207.692383,4090.256348,4237.948730,450.000000,3.000000,,,,0.000000,4.000000,4.000000,4.000000,4.000000,4.000000,,,,,,,,,,,,,,,,,,,,,,,,,
1577423279.230943,109.000000,0.000000,4286.153809,3874.358887,4265.128418,4140.000000,4282.051270,450.000000,3.000000,,,,0.000000,4.000000,4.000000,4.000000,4.000000,4.000000,,,,,,,,,,,,,,,,,,,,,,,,,
1577423279.238823,110.000000,0.000000,4297.948730,3871.794922,4227.179688,4160.512695,4303.589844,450.000000,3.000000,,,,0.000000,4.000000,4.000000,4.000000,4.000000,4.000000,,,,,,,,,,,,,,,,,,,,,,,,,
1577423279.246604,111.000000,0.000000,4264.615234,3812.820557,4193.846191,4155.384766,4290.256348,16139.000000,3.000000,,,,0.000000,4.000000,4.000000,4.000000,4.000000,4.000000,,,,,,,,,,,,,,,,,,,,,,,,,
1577423279.254384,112.000000,0.000000,4262.563965,3806.153809,4182.051270,4144.615234,4280.512695,450.000000,3.000000,,,,0.000000,4.000000,4.000000,4.000000,4.000000,4.000000,,,,,,,,,,,,,,,,,,,,,,,,,
1577423279.262164,113.000000,0.000000,4249.743652,3817.948730,4188.205078,4131.282227,4277.436035,450.000000,3.000000,,,,0.000000,4.000000,4.000000,4.000000,4.000000,4.000000,,,,,,,,,,,,,,,,,,,,,,,,,
1577423279.270044,114.000000,0.000000,4276.922852,3852.820557,4219.487305,4139.487305,4299.487305,450.000000,3.000000,,,,0.000000,4.000000,4.000000,4.000000,4.000000,4.000000,,,,,,,,,,,,,,,,,,,,,,,,,
1577423279.277825,115.000000,0.000000,4261.025879,3810.769287,4188.717773,4110.256348,4285.641113,16139.000000,3.000000,,,,0.000000,4.000000,4.000000,4.000000,4.000000,4.000000,,,,,,,,,,,,,,,,,,,,,,,,,
1577423279.285705,116.000000,0.000000,4206.153809,3764.615479,4185.128418,4118.461426,4269.230957,450.000000,3.000000,,,,0.000000,4.000000,4.000000,4.000000,4.000000,4.000000,,,,,,,,,,,,,,,,,,,,,,,,,
1577423279.293485,117.000000,0.000000,4221.538574,3798.461426,4195.897461,4157.948730,4281.538574,450.000000,3.000000,,,,0.000000,4.000000,4.000000,4.000000,4.000000,4.000000,23.115673,13.101392,7.171965,19.656145,6.257116,10.294641,17.178864,6.236519,12.693305,4.869556,32.993748,18.027967,6.765788,6.743362,3.683511,34.280464,12.131502,8.305850,12.617503,4.941788,76.442680,15.170968,7.008800,12.487216,4.864339
1577423279.301365,118.000000,0.000000,4257.948730,3811.794922,4168.205078,4125.641113,4292.820313,450.000000,3.000000,,,,0.000000,4.000000,4.000000,4.000000,4.000000,4.000000,,,,,,,,,,,,,,,,,,,,,,,,,
1577423279.309146,119.000000,0.000000,4294.871582,3830.256348,4185.128418,4121.025879,4318.461426,16139.000000,3.000000,,,,0.000000,4.000000,4.000000,4.000000,4.000000,4.000000,,,,,,,,,,,,,,,,,,,,,,,,,
1577423279.317026,120.000000,0.000000,4275.384766,3807.179443,4165.641113,4112.820313,4311.282227,450.000000,3.000000,,,,0.000000,4.000000,4.000000,4.000000,4.000000,4.000000,,,,,,,,,,,,,,,,,,,,,,,,,
1577423279.324906,121.000000,0.000000,4188.717773,3751.794922,4142.051270,4082.564209,4269.230957,450.000000,3.000000,,,,0.000000,4.000000,4.000000,4.000000,4.000000,4.000000,,,,,,,,,,,,,,,,,,,,,,,,,
1577423279.332686,122.000000,0.000000,4195.897461,3792.307617,4169.743652,4112.820313,4268.717773,450.000000,3.000000,,,,0.000000,4.000000,4.000000,4.000000,4.000000,4.000000,,,,,,,,,,,,,,,,,,,,,,,,,
1577423279.340467,123.000000,0.000000,4272.820313,3835.384521,4161.025879,4101.538574,4295.384766,16139.000000,3.000000,,,,0.000000,4.000000,4.000000,4.000000,4.000000,4.000000,,,,,,,,,,,,,,,,,,,,,,,,,
1577423279.348347,124.000000,0.000000,4287.692383,3825.641113,4140.000000,4077.948730,4302.051270,450.000000,3.000000,,,,0.000000,4.000000,4.000000,4.000000,4.000000,4.000000,,,,,,,,,,,,,,,,,,,,,,,,,
1577423279.356227,125.000000,0.000000,4259.487305,3815.897461,4123.077148,4076.923096,4281.538574,450.000000,3.000000,,,,0.000000,4.000000,4.000000,4.000000,4.000000,4.000000,,,,,,,,,,,,,,,,,,,,,,,,,
1577423279.364008,126.000000,0.000000,4239.487305,3803.589844,4152.307617,4060.000000,4276.922852,450.000000,3.000000,,,,0.000000,4.000000,4.000000,4.000000,4.000000,4.000000,,,,,,,,,,,,,,,,,,,,,,,,,
1577423279.371788,127.000000,0.000000,4246.153809,3820.000000,4196.922852,4074.358887,4281.538574,233.000000,3.000000,,,,0.000000,4.000000,4.000000,4.000000,4.000000,4.000000,,,,,,,,,,,,,,,,,,,,,,,,,
1577423279.379668,0.000000,0.000000,4238.461426,3837.435791,4158.461426,4052.307617,4251.794922,450.000000,3.000000,,,,0.000000,4.000000,4.000000,4.000000,4.000000,4.000000,,,,,,,,,,,,,,,,,,,,,,,,,
1577423279.387448,1.000000,0.000000,4248.717773,3840.512939,4124.615234,4052.307617,4270.256348,450.000000,3.000000,,,,0.000000,4.000000,4.000000,4.000000,4.000000,4.000000,,,,,,,,,,,,,,,,,,,,,,,,,
1577423279.395329,2.000000,0.000000,4275.384766,3835.384521,4122.563965,4080.000000,4284.102539,16111.000000,3.000000,,,,0.000000,4.000000,4.000000,4.000000,4.000000,4.000000,,,,,,,,,,,,,,,,,,,,,,,,,
1577423279.403109,3.000000,0.000000,4240.512695,3816.923096,4152.820313,4046.666748,4248.717773,450.000000,3.000000,,,,0.000000,4.000000,4.000000,4.000000,4.000000,4.000000,,,,,,,,,,,,,,,,,,,,,,,,,
1577423279.410889,4.000000,0.000000,4229.743652,3835.897461,4188.717773,4053.846191,4264.615234,16122.000000,3.000000,,,,0.000000,4.000000,4.000000,4.000000,4.000000,4.000000,,,,,,,,,,,,,,,,,,,,,,,,,
1577423279.418769,5.000000,0.000000,4244.615234,3829.230713,4153.333496,4069.743652,4251.794922,450.000000,3.000000,,,,0.000000,4.000000,4.000000,4.000000,4.000000,4.000000,14.573367,10.030804,6.256320,20.358528,6.104975,6.465731,10.833265,4.664423,13.981911,4.240565,23.656059,19.903013,5.059543,5.102631,3.168412,21.356684,9.289115,7.281288,12.255754,4.337496,44.719490,11.761950,6.324458,10.770901,4.199369
1577423279.426650,6.000000,0.000000,4251.794922,3794.871826,4142.563965,4068.205078,4256.410156,16173.000000,3.000000,,,,0.000000,4.000000,4.000000,4.000000,4.000000,4.000000,,,,,,,,,,,,,,,,,,,,,,,,,
1577423279.434430,7.000000,0.000000,4278.974121,3822.564209,4164.615234,4092.307617,4299.487305,450.000000,3.000000,,,,0.000000,4.000000,4.000000,4.000000,4.000000,4.000000,,,,,,,,,,,,,,,,,,,,,,,,,
1577423279.442310,8.000000,0.000000,4282.051270,3860.000000,4158.974121,4081.025635,4274.871582,450.000000,3.000000,,,,0.000000,4.000000,4.000000,4.000000,4.000000,4.000000,,,,,,,,,,,,,,,,,,,,,,,,,
1577423279.450090,9.000000,0.000000,4278.461426,3849.230713,4145.128418,4065.128174,4260.000000,16157.000000,3.000000,,,,0.000000,4.000000,4.000000,4.000000,4.000000,4.000000,,,,,,,,,,,,,,,,,,,,,,,,,
1577423279.457971,10.000000,0.000000,4230.256348,3802.051270,4128.717773,4044.102539,4216.410156,450.000000,3.000000,,,,0.000000,4.000000,4.000000,4.000000,4.000000,4.000000,,,,,,,,,,,,,,,,,,,,,,,,,
1577423279.465751,11.000000,0.000000,4206.153809,3809.743652,4169.743652,4036.923096,4213.846191,16145.000000,3.000000,,,,0.000000,4.000000,4.000000,4.000000,4.000000,4.000000,,,,,,,,,,,,,,,,,,,,,,,,,
1577423279.473631,12.000000,0.000000,4266.666504,3872.820557,4216.922852,4088.205078,4288.717773,450.000000,3.000000,,,,0.000000,4.000000,4.000000,4.000000,4.000000,4.000000,,,,,,,,,,,,,,,,,,,,,,,,,
1577423279.481412,13.000000,0.000000,4284.615234,3878.461426,4210.769043,4114.358887,4277.436035,450.000000,3.000000,,,,0.000000,4.000000,4.000000,4.000000,4.000000,4.000000,,,,,,,,,,,,,,,,,,,,,,,,,
1577423279.489192,14.000000,0.000000,4301.538574,3863.589844,4202.051270,4118.974121,4262.051270,450.000000,3.000000,,,,0.000000,4.000000,4.000000,4.000000,4.000000,4.000000,,,,,,,,,,,,,,,,,,,,,,,,,
1577423279.497072,15.000000,0.000000,4277.436035,3829.743652,4203.589844,4111.794922,4243.077148,16145.000000,3.000000,,,,0.000000,4.000000,4.000000,4.000000,4.000000,4.000000,,,,,,,,,,,,,,,,,,,,,,,,,
1577423279.504852,16.000000,0.000000,4202.563965,3791.794922,4228.205078,4080.000000,4190.769043,0.000000,3.000000,,,,0.000000,4.000000,4.000000,4.000000,4.000000,4.000000,,,,,,,,,,,,,,,,,,,,,,,,,
1577423279.512733,17.000000,0.000000,4217.948730,3827.692383,4245.641113,4085.128174,4205.128418,0.000000,3.000000,,,,0.000000,4.000000,4.000000,4.000000,4.000000,4.000000,,,,,,,,,,,,,,,,,,,,,,,,,
1577423279.520613,18.000000,0.000000,4226.153809,3840.512939,4228.717773,4112.820313,4213.333496,0.000000,3.000000,,,,0.000000,4.000000,4.000000,4.000000,4.000000,4.000000,,,,,,,,,,,,,,,,,,,,,,,,,
1577423279.528393,19.000000,0.000000,4253.846191,3837.948730,4229.743652,4155.384766,4244.615234,0.000000,3.000000,,,,0.000000,4.000000,4.000000,4.000000,4.000000,4.000000,,,,,,,,,,,,,,,,,,,,,,,,,
1577423279.536273,20.000000,0.000000,4292.820313,3841.538574,4225.641113,4176.922852,4288.717773,0.000000,3.000000,,,,0.000000,4.000000,4.000000,4.000000,4.000000,4.000000,,,,,,,,,,,,,,,,,,,,,,,,,
1577423279.544054,21.000000,0.000000,4243.077148,3810.769287,4219.487305,4135.384766,4253.333496,0.000000,3.000000,,,,0.000000,4.000000,4.000000,4.000000,4.000000,4.000000,8.274520,6.803597,5.545459,20.163431,6.156856,4.125207,5.724217,3.673768,14.281826,3.993885,17.043453,21.081739,3.996372,3.953638,2.803141,11.033375,6.419286,6.416883,11.759611,3.890297,20.352180,8.046754,5.693405,9.667772,3.799333
1577423279.551834,22.000000,0.000000,4227.179688,3814.358887,4210.769043,4118.974121,4217.948730,0.000000,3.000000,,,,0.000000,4.000000,4.000000,4.000000,4.000000,4.000000,,,,,,,,,,,,,,,,,,,,,,,,,
1577423279.559714,23.000000,0.000000,4224.615234,3794.358887,4171.282227,4138.461426,4217.436035,0.000000,3.000000,,,,0.000000,4.000000,4.000000,4.000000,4.000000,4.000000,,,,,,,,,,,,,,,,,,,,,,,,,
1577423279.567494,24.000000,0.000000,4212.820313,3781.025635,4169.230957,4156.410156,4242.563965,0.000000,3.000000,,,,0.000000,4.000000,4.000000,4.000000,4.000000,4.000000,,,,,,,,,,,,,,,,,,,,,,,,,
1577423279.575375,25.000000,0.000000,4234.871582,3821.025635,4162.563965,4157.948730,4262.051270,0.000000,3.000000,,,,0.000000,4.000000,4.000000,4.000000,4.000000,4.000000,,,,,,,,,,,,,,,,,,,,,,,,,
1577423279.583155,26.000000,0.000000,4248.205078,3828.205078,4151.282227,4155.384766,4262.051270,0.000000,3.000000,,,,0.000000,4.000000,4.000000,4.000000,4.000000,4.000000,,,,,,,,,,,,,,,,,,,,,,,,,
1577423279.591035,27.000000,0.000000,4276.922852,3828.718018,4192.307617,4184.615234,4276.922852,0.000000,3.000000,,,,0.000000,4.000000,4.000000,4.000000,4.000000,4.000000,,,,,,,,,,,,,,,,,,,,,,,,,
1577423279.598815,28.000000,0.000000,4257.948730,3799.487061,4192.820313,4160.000000,4265.641113,0.000000,3.000000,,,,0.000000,4.000000,4.000000,4.000000,4.000000,4.000000,,,,,,,,,,,,,,,,,,,,,,,,,
1577423279.606696,29.000000,0.000000,4187.179688,3778.974365,4195.897461,4127.179688,4237.436035,0.000000,3.000000,,,,0.000000,4.000000,4.000000,4.000000,4.000000,4.000000,,,,,,,,,,,,,,,,,,,,,,,,,
1577423279.614476,30.000000,0.000000,4170.769043,3795.897461,4188.717773,4131.794922,4216.410156,0.000000,3.000000,,,,0.000000,4.000000,4.000000,4.000000,4.000000,4.000000,,,,,,,,,,,,,,,,,,,,,,,,,
1577423279.622356,31.000000,0.000000,4183.077148,3771.281982,4136.410156,4100.000000,4203.077148,0.000000,3.000000,,,,0.000000,4.000000,4.000000,4.000000,4.000000,4.000000,,,,,,,,,,,,,,,,,,,,,,,,,
1577423279.630137,32.000000,0.000000,4233.846191,3801.025635,4158.461426,4121.538574,4240.000000,0.000000,3.000000,,,,0.000000,4.000000,4.000000,4.000000,4.000000,4.000000,,,,,,,,,,,,,,,,,,,,,,,,,
1577423279.638017,33.000000,0.000000,4255.897461,3828.718018,4174.871582,4143.589844,4264.615234,0.000000,3.000000,,,,0.000000,4.000000,4.000000,4.000000,4.000000,4.000000,,,,,,,,,,,,,,,,,,,,,,,,,
1577423279.645797,34.000000,0.000000,4179.487305,3775.897461,4165.641113,4116.922852,4236.922852,0.000000,3.000000,,,,0.000000,4.000000,4.000000,4.000000,4.000000,4.000000,,,,,,,,,,,,,,,,,,,,,,,,,
1577423279.653677,35.000000,0.000000,4173.333496,3790.256348,4181.025879,4135.897461,4240.000000,0.000000,3.000000,,,,0.000000,4.000000,4.000000,4.000000,4.000000,4.000000,,,,,,,,,,,,,,,,,,,,,,,,,
1577423279.661458,36.000000,0.000000,4238.974121,3835.897461,4151.282227,4128.205078,4266.666504,0.000000,3.000000,,,,0.000000,4.000000,4.000000,4.000000,4.000000,4.000000,,,,,,,,,,,,,,,,,,,,,,,,,
1577423279.669238,37.000000,0.000000,4268.717773,3835.897461,4138.461426,4130.256348,4292.307617,0.000000,3.000000,,,,0.000000,4.000000,4.000000,4.000000,4.000000,4.000000,5.061081,4.252804,5.249876,19.088730,6.513724,3.609150,2.636013,3.469902,13.619412,4.258669,13.613168,20.960991,3.745183,3.484737,2.690235,4.823480,4.226075,5.914333,11.210599,3.747386,7.031458,5.013632,5.318638,9.144886,3.757113
1577423279.677118,38.000000,0.000000,4251.794922,3802.051270,4126.153809,4130.256348,4276.410156,0.000000,3.000000,,,,0.000000,4.000000,4.000000,4.000000,4.000000,4.000000,,,,,,,,,,,,,,,,,,,,,,,,,
1577423279.684898,39.000000,0.000000,4198.974121,3759.487061,4115.897461,4071.794922,4235.384766,0.000000,3.000000,,,,0.000000,4.000000,4.000000,4.000000,4.000000,4.000000,,,,,,,,,,,,,,,,,,,,,,,,,
1577423279.692779,40.000000,0.000000,4202.051270,3778.461426,4141.538574,4072.820557,4229.230957,0.000000,3.000000,,,,0.000000,4.000000,4.000000,4.000000,4.000000,4.000000,,,,,,,,,,,,,,,,,,,,,,,,,
1577423279.700559,41.000000,0.000000,4230.256348,3810.769287,4123.077148,4073.846191,4215.897461,0.000000,3.000000,,,,0.000000,4.000000,4.000000,4.000000,4.000000,4.000000,,,,,,,,,,,,,,,,,,,,,,,,,
1577423279.708439,42.000000,0.000000,4234.358887,3815.384521,4104.615234,4080.000000,4245.128418,0.000000,3.000000,,,,0.000000,4.000000,4.000000,4.000000,4.000000,4.000000,,,,,,,,,,,,,,,,,,,,,,,,,
1577423279.716219,43.000000,0.000000,4224.615234,3819.487061,4081.025635,4104.102539,4247.179688,0.000000,3.000000,,,,0.000000,4.000000,4.000000,4.000000,4.000000,4.000000,,,,,,,,,,,,,,,,,,,,,,,,,
1577423279.724100,44.000000,0.000000,4196.410156,3814.871826,4066.666748,4055.897461,4179.487305,0.000000,3.000000,,,,0.000000,4.000000,4.000000,4.000000,4.000000,4.000000,,,,,,,,,,,,,,,,,,,,,,,,,
1577423279.731880,45.000000,0.000000,4213.846191,3827.692383,4105.641113,4050.769287,4194.358887,0.000000,3.000000,,,,0.000000,4.000000,4.000000,4.000000,4.000000,4.000000,,,,,,,,,,,,,,,,,,,,,,,,,
1577423279.739760,46.000000,0.000000,4217.948730,3820.000000,4112.820313,4067.692383,4198.974121,0.000000,3.000000,,,,0.000000,4.000000,4.000000,4.000000,4.000000,4.000000,,,,,,,,,,,,,,,,,,,,,,,,,
1577423279.747541,47.000000,0.000000,4178.974121,3777.435791,4091.281982,4034.871826,4169.743652,0.000000,3.000000,,,,0.000000,4.000000,4.000000,4.000000,4.000000,4.000000,,,,,,,,,,,,,,,,,,,,,,,,,
1577423279.755421,48.000000,0.000000,4183.589844,3788.205078,4082.051270,4041.538574,4177.948730,0.000000,3.000000,,,,0.000000,4.000000,4.000000,4.000000,4.000000,4.000000,,,,,,,,,,,,,,,,,,,,,,,,,
1577423279.763301,49.000000,0.000000,4206.666504,3822.564209,4090.769287,4071.794922,4170.769043,0.000000,3.000000,,,,0.000000,4.000000,4.000000,4.000000,4.000000,4.000000,,,,,,,,,,,,,,,,,,,,,,,,,
1577423279.771081,50.000000,0.000000,4233.333496,3832.307617,4098.974121,4085.641113,4196.922852,0.000000,3.000000,,,,0.000000,4.000000,4.000000,4.000000,4.000000,4.000000,,,,,,,,,,,,,,,,,,,,,,,,,
1577423279.778961,51.000000,0.000000,4214.871582,3809.743652,4086.666748,4068.718018,4184.615234,0.000000,3.000000,,,,0.000000,4.000000,4.000000,4.000000,4.000000,4.000000,,,,,,,,,,,,,,,,,,,,,,,,,
1577423279.786742,52.000000,0.000000,4180.512695,3806.153809,4108.205078,4053.333252,4164.102539,0.000000,3.000000,,,,0.000000,4.000000,4.000000,4.000000,4.000000,4.000000,,,,,,,,,,,,,,,,,,,,,,,,,
1577423279.794522,53.000000,0.000000,4216.410156,3852.820557,4146.153809,4084.102539,4218.461426,0.000000,3.000000,,,,0.000000,4.000000,4.000000,4.000000,4.000000,4.000000,4.174283,2.711379,5.283603,17.460514,7.089627,4.496822,1.335114,3.836875,12.262786,4.939386,12.264572,19.255257,4.040092,3.563096,2.807036,2.516852,2.919298,5.705394,10.607960,3.857601,2.742355,3.107052,5.171258,8.904528,3.962029
1577423279.802402,54.000000,0.000000,4238.461426,3869.743652,4157.948730,4112.820313,4213.846191,0.000000,3.000000,,,,0.000000,4.000000,4.000000,4.000000,4.000000,4.000000,,,,,,,,,,,,,,,,,,,,,,,,,
1577423279.810183,55.000000,0.000000,4244.615234,3861.538574,4132.820313,4107.179688,4185.128418,0.000000,3.000000,,,,0.000000,4.000000,4.000000,4.000000,4.000000,4.000000,,,,,,,,,,,,,,,,,,,,,,,,,
1577423279.818063,56.000000,0.000000,4214.358887,3827.179443,4088.718018,4093.333252,4164.615234,0.000000,3.000000,,,,0.000000,4.000000,4.000000,4.000000,4.000000,4.000000,,,,,,,,,,,,,,,,,,,,,,,,,
1577423279.825843,57.000000,0.000000,4170.256348,3813.333252,4130.256348,4089.743652,4153.846191,0.000000,3.000000,,,,0.000000,4.000000,4.000000,4.000000,4.000000,4.000000,,,,,,,,,,,,,,,,,,,,,,,,,
1577423279.833723,58.000000,0.000000,4191.282227,3871.281982,4180.000000,4091.281982,4173.846191,0.000000,3.000000,,,,0.000000,4.000000,4.000000,4.000000,4.000000,4.000000,,,,,,,,,,,,,,,,,,,,,,,,,
1577423279.841504,59.000000,0.000000,4166.153809,3856.923096,4138.461426,4094.871826,4147.692383,0.000000,3.000000,,,,0.000000,4.000000,4.000000,4.000000,4.000000,4.000000,,,,,,,,,,,,,,,,,,,,,,,,,
1577423279.849284,60.000000,0.000000,4164.615234,3834.871826,4130.256348,4124.615234,4153.846191,0.000000,3.000000,,,,0.000000,4.000000,4.000000,4.000000,4.000000,4.000000,,,,,,,,,,,,,,,,,,,,,,,,,
1577423279.857164,61.000000,0.000000,4207.179688,3856.410156,4142.051270,4117.436035,4185.641113,0.000000,3.000000,,,,0.000000,4.000000,4.000000,4.000000,4.000000,4.000000,,,,,,,,,,,,,,,,,,,,,,,,,
1577423279.864945,62.000000,0.000000,4182.051270,3834.358887,4146.153809,4078.461426,4177.436035,0.000000,3.000000,,,,0.000000,4.000000,4.000000,4.000000,4.000000,4.000000,,,,,,,,,,,,,,,,,,,,,,,,,
1577423279.872825,63.000000,0.000000,4212.820313,3851.794922,4185.641113,4122.563965,4205.128418,0.000000,3.000000,,,,0.000000,4.000000,4.000000,4.000000,4.000000,4.000000,,,,,,,,,,,,,,,,,,,,,,,,,
1577423279.880705,64.000000,0.000000,4222.563965,3841.538574,4164.615234,4139.487305,4209.230957,450.000000,3.000000,,,,0.000000,4.000000,4.000000,4.000000,4.000000,4.000000,,,,,,,,,,,,,,,,,,,,,,,,,
1577423279.888485,65.000000,0.000000,4160.512695,3810.769287,4131.282227,4096.922852,4177.948730,450.000000,3.000000,,,,0.000000,4.000000,4.000000,4.000000,4.000000,4.000000,,,,,,,,,,,,,,,,,,,,,,,,,
1577423279.896365,66.000000,0.000000,4172.820313,3844.615479,4133.846191,4102.051270,4186.666504,16196.000000,3.000000,,,,0.000000,4.000000,4.000000,4.000000,4.000000,4.000000,,,,,,,,,,,,,,,,,,,,,,,,,
1577423279.904146,67.000000,0.000000,4192.820313,3834.871826,4122.563965,4101.538574,4192.307617,450.000000,3.000000,,,,0.000000,4.000000,4.000000,4.000000,4.000000,4.000000,,,,,,,,,,,,,,,,,,,,,,,,,
1577423279.911926,68.000000,0.000000,4203.589844,3834.358887,4129.743652,4113.846191,4204.615234,16176.000000,3.000000,,,,0.000000,4.000000,4.000000,4.000000,4.000000,4.000000,,,,,,,,,,,,,,,,,,,,,,,,,
1577423279.919806,69.000000,0.000000,4194.358887,3833.846191,4116.410156,4100.000000,4212.307617,450.000000,3.000000,,,,0.000000,4.000000,4.000000,4.000000,4.000000,4.000000,4.201008,2.021585,5.348032,15.820920,7.660413,5.772549,1.035060,4.346832,10.611109,5.764517,11.337217,16.131630,4.408844,3.902164,3.036321,2.195488,2.280027,5.531324,9.934054,4.027992,2.653598,2.273044,5.054045,8.692461,4.196266
1577423279.927587,70.000000,0.000000,4153.333496,3803.076904,4125.128418,4064.102539,4196.922852,16182.000000,3.000000,,,,0.000000,4.000000,4.000000,4.000000,4.000000,4.000000,,,,,,,,,,,,,,,,,,,,,,,,,
1577423279.935467,71.000000,0.000000,4186.153809,3834.358887,4158.974121,4088.205078,4219.487305,450.000000,3.000000,,,,0.000000,4.000000,4.000000,4.000000,4.000000,4.000000,,,,,,,,,,,,,,,,,,,,,,,,,
1577423279.943247,72.000000,0.000000,4272.820313,3885.641113,4169.743652,4120.512695,4281.538574,450.000000,3.000000,,,,0.000000,4.000000,4.000000,4.000000,4.000000,4.000000,,,,,,,,,,,,,,,,,,,,,,,,,
1577423279.951127,73.000000,0.000000,4310.769043,3914.871826,4196.922852,4167.692383,4303.589844,16232.000000,3.000000,,,,0.000000,4.000000,4.000000,4.000000,4.000000,4.000000,,,,,,,,,,,,,,,,,,,,,,,,,
1577423279.958908,74.000000,0.000000,4240.000000,3880.000000,4161.538574,4140.512695,4248.205078,450.000000,3.000000,,,,0.000000,4.000000,4.000000,4.000000,4.000000,4.000000,,,,,,,,,,,,,,,,,,,,,,,,,
1577423279.966688,75.000000,0.000000,4169.230957,3829.743652,4145.641113,4078.974365,4244.615234,16211.000000,3.000000,,,,0.000000,4.000000,4.000000,4.000000,4.000000,4.000000,,,,,,,,,,,,,,,,,,,,,,,,,
1577423279.974568,76.000000,0.000000,4215.384766,3850.769287,4197.436035,4126.666504,4300.000000,450.000000,3.000000,,,,0.000000,4.000000,4.000000,4.000000,4.000000,4.000000,,,,,,,,,,,,,,,,,,,,,,,,,
1577423279.982448,77.000000,0.000000,4261.538574,3867.692383,4180.000000,4130.769043,4295.897461,450.000000,3.000000,,,,0.000000,4.000000,4.000000,4.000000,4.000000,4.000000,,,,,,,,,,,,,,,,,,,,,,,,,
1577423279.990229,78.000000,0.000000,4278.461426,3877.435791,4158.974121,4114.358887,4326.153809,450.000000,3.000000,,,,0.000000,4.000000,4.000000,4.000000,4.000000,4.000000,,,,,,,,,,,,,,,,,,,,,,,,,
1577423279.998109,79.000000,0.000000,4304.615234,3893.846191,4156.922852,4141.538574,4370.256348,16211.000000,3.000000,,,,0.000000,4.000000,4.000000,4.000000,4.000000,4.000000,,,,,,,,,,,,,,,,,,,,,,,,,
1577423280.005889,80.000000,0.000000,4291.282227,3878.974365,4176.922852,4131.794922,4365.641113,450.000000,3.000000,,,,0.000000,4.000000,4.000000,4.000000,4.000000,4.000000,,,,,,,,,,,,,,,,,,,,,,,,,
1577423280.013769,81.000000,0.000000,4288.205078,3875.897461,4205.641113,4141.538574,4375.897461,450.000000,3.000000,,,,0.000000,4.000000,4.000000,4.000000,4.000000,4.000000,,,,,,,,,,,,,,,,,,,,,,,,,
1577423280.021550,82.000000,0.000000,4294.358887,3876.923096,4178.461426,4136.410156,4359.487305,450.000000,3.000000,,,,0.000000,4.000000,4.000000,4.000000,4.000000,4.000000,,,,,,,,,,,,,,,,,,,,,,,,,
1577423280.029430,83.000000,0.000000,4289.230957,3869.230713,4163.077148,4113.333496,4362.051270,16211.000000,3.000000,,,,0.000000,4.000000,4.000000,4.000000,4.000000,4.000000,,,,,,,,,,,,,,,,,,,,,,,,,
1577423280.037210,84.000000,0.000000,4291.794922,3872.307617,4150.256348,4109.743652,4356.922852,450.000000,3.000000,,,,0.000000,4.000000,4.000000,4.000000,4.000000,4.000000,,,,,,,,,,,,,,,,,,,,,,,,,
1577423280.045090,85.000000,0.000000,4285.128418,3881.025635,4153.333496,4103.077148,4309.743652,450.000000,3.000000,,,,0.000000,4.000000,4.000000,4.000000,4.000000,4.000000,4.030481,1.875177,5.163030,14.687853,7.997352,6.772712,1.052163,4.680614,9.041245,6.438951,9.950418,12.129088,4.457182,4.288558,3.254926,2.295612,1.946232,5.137185,9.240798,4.063800,3.155060,2.220069,4.763726,8.506756,4.286498
1577423280.052871,86.000000,0.000000,4308.717773,3924.102539,4198.974121,4143.589844,4357.436035,450.000000,3.000000,,,,0.000000,4.000000,4.000000,4.000000,4.000000,4.000000,,,,,,,,,,,,,,,,,,,,,,,,,
1577423280.060751,87.000000,0.000000,4287.179688,3917.435791,4174.358887,4128.717773,4355.897461,16211.000000,3.000000,,,,0.000000,4.000000,4.000000,4.000000,4.000000,4.000000,,,,,,,,,,,,,,,,,,,,,,,,,
1577423280.068531,88.000000,0.000000,4222.563965,3860.000000,4127.692383,4050.256348,4285.641113,450.000000,3.000000,,,,0.000000,4.000000,4.000000,4.000000,4.000000,4.000000,,,,,,,,,,,,,,,,,,,,,,,,,
1577423280.076412,89.000000,0.000000,4241.538574,3886.153809,4148.717773,4076.410156,4297.948730,450.000000,3.000000,,,,0.000000,4.000000,4.000000,4.000000,4.000000,4.000000,,,,,,,,,,,,,,,,,,,,,,,,,
1577423280.084192,90.000000,0.000000,4273.333496,3932.820557,4185.128418,4131.794922,4300.000000,450.000000,3.000000,,,,0.000000,4.000000,4.000000,4.000000,4.000000,4.000000,,,,,,,,,,,,,,,,,,,,,,,,,
1577423280.091972,91.000000,0.000000,4300.000000,3946.153809,4203.589844,4150.769043,4320.000000,16211.000000,3.000000,,,,0.000000,4.000000,4.000000,4.000000,4.000000,4.000000,,,,,,,,,,,,,,,,,,,,,,,,,
1577423280.099852,92.000000,0.000000,4309.230957,3943.076904,4238.461426,4165.641113,4347.179688,450.000000,3.000000,,,,0.000000,4.000000,4.000000,4.000000,4.000000,4.000000,,,,,,,,,,,,,,,,,,,,,,,,,
1577423280.107633,93.000000,1.000000,4297.492676,3937.322021,4231.111328,4158.974121,4335.612305,450.000000,3.000000,,,,0.000000,4.000000,4.000000,4.000000,4.000000,4.000000,,,,,,,,,,,,,,,,,,,,,,,,,
1577423280.115513,94.000000,1.000000,4285.754883,3931.566895,4223.760742,4152.307617,4324.045410,450.000000,3.000000,,,,0.000000,4.000000,4.000000,4.000000,4.000000,4.000000,,,,,,,,,,,,,,,,,,,,,,,,,
1577423280.123393,95.000000,1.000000,4274.017090,3925.812012,4216.410156,4145.641113,4312.478516,450.000000,3.000000,,,,0.000000,4.000000,4.000000,4.000000,4.000000,4.000000,,,,,,,,,,,,,,,,,,,,,,,,,
1577423280.131273,96.000000,1.000000,4262.279297,3920.056885,4209.060059,4138.974121,4300.911621,450.000000,3.000000,,,,0.000000,4.000000,4.000000,4.000000,4.000000,4.000000,,,,,,,,,,,,,,,,,,,,,,,,,
1577423280.139154,97.000000,1.000000,4250.541504,3914.302002,4201.709473,4132.307617,4289.344727,450.000000,3.000000,,,,0.000000,4.000000,4.000000,4.000000,4.000000,4.000000,,,,,,,,,,,,,,,,,,,,,,,,,
1577423280.147034,98.000000,1.000000,4238.803223,3908.547119,4194.358887,4125.641113,4277.777832,450.000000,3.000000,,,,0.000000,4.000000,4.000000,4.000000,4.000000,4.000000,,,,,,,,,,,,,,,,,,,,,,,,,
1577423280.154914,99.000000,1.000000,4227.065430,3902.791992,4187.008789,4118.974121,4266.210938,450.000000,3.000000,,,,0.000000,4.000000,4.000000,4.000000,4.000000,4.000000,,,,,,,,,,,,,,,,,,,,,,,,,
1577423280.162794,100.000000,1.000000,4215.327637,3897.037109,4179.658203,4112.307617,4254.644043,450.000000,3.000000,,,,0.000000,4.000000,4.000000,4.000000,4.000000,4.000000,,,,,,,,,,,,,,,,,,,,,,,,,
1577423280.170674,101.000000,0.000000,4203.589844,3891.281982,4172.307617,4105.641113,4243.077148,450.000000,3.000000,,,,0.000000,4.000000,4.000000,4.000000,4.000000,4.000000,3.375479,2.096066,4.736529,14.272379,8.000549,7.039740,1.172375,4.755638,7.792000,6.764052,8.994802,8.286677,4.168309,4.627367,3.395321,2.573361,1.766265,4.505758,8.602065,3.881359,3.292525,2.673718,4.341481,8.434995,4.178293
1577423280.178455,102.000000,0.000000,4258.974121,3926.153809,4186.153809,4129.743652,4289.230957,450.000000,3.000000,,,,0.000000,4.000000,4.000000,4.000000,4.000000,4.000000,,,,,,,,,,,,,,,,,,,,,,,,,
1577423280.186335,103.000000,0.000000,4239.487305,3909.743652,4175.897461,4131.282227,4282.563965,16211.000000,3.000000,,,,0.000000,4.000000,4.000000,4.000000,4.000000,4.000000,,,,,,,,,,,,,,,,,,,,,,,,,
1577423280.194215,104.000000,0.000000,4225.128418,3922.051270,4189.230957,4142.051270,4282.051270,450.000000,3.000000,,,,0.000000,4.000000,4.000000,4.000000,4.000000,4.000000,,,,,,,,,,,,,,,,,,,,,,,,,
1577423280.201995,105.000000,0.000000,4222.051270,3917.435791,4155.897461,4097.436035,4279.487305,450.000000,3.000000,,,,0.000000,4.000000,4.000000,4.000000,4.000000,4.000000,,,,,,,,,,,,,,,,,,,,,,,,,
1577423280.209876,106.000000,0.000000,4187.692383,3890.769287,4148.717773,4075.897461,4270.769043,450.000000,3.000000,,,,0.000000,4.000000,4.000000,4.000000,4.000000,4.000000,,,,,,,,,,,,,,,,,,,,,,,,,
1577423280.217656,107.000000,0.000000,4218.461426,3927.692383,4179.487305,4146.153809,4296.922852,16211.000000,3.000000,,,,0.000000,4.000000,4.000000,4.000000,4.000000,4.000000,,,,,,,,,,,,,,,,,,,,,,,,,
1577423280.225536,108.000000,0.000000,4252.307617,3943.589844,4168.717773,4158.461426,4314.871582,450.000000,3.000000,,,,0.000000,4.000000,4.000000,4.000000,4.000000,4.000000,,,,,,,,,,,,,,,,,,,,,,,,,
1577423280.233416,109.000000,0.000000,4233.333496,3941.025635,4157.948730,4118.974121,4296.410156,450.000000,3.000000,,,,0.000000,4.000000,4.000000,4.000000,4.000000,4.000000,,,,,,,,,,,,,,,,,,,,,,,,,
1577423280.241197,110.000000,0.000000,4188.717773,3906.666748,4118.461426,4075.384521,4266.666504,450.000000,3.000000,,,,0.000000,4.000000,4.000000,4.000000,4.000000,4.000000,,,,,,,,,,,,,,,,,,,,,,,,,
1577423280.248977,111.000000,0.000000,4194.871582,3895.897461,4148.205078,4099.487305,4301.538574,16211.000000,3.000000,,,,0.000000,4.000000,4.000000,4.000000,4.000000,4.000000,,,,,,,,,,,,,,,,,,,,,,,,,
1577423280.256857,112.000000,0.000000,4244.615234,3960.000000,4217.948730,4168.205078,4340.000000,450.000000,3.000000,,,,0.000000,4.000000,4.000000,4.000000,4.000000,4.000000,,,,,,,,,,,,,,,,,,,,,,,,,
1577423280.264638,113.000000,0.000000,4235.897461,3973.333252,4182.051270,4126.666504,4309.743652,450.000000,3.000000,,,,0.000000,4.000000,4.000000,4.000000,4.000000,4.000000,,,,,,,,,,,,,,,,,,,,,,,,,
1577423280.272418,114.000000,0.000000,4236.922852,3953.333252,4157.436035,4097.948730,4308.717773,450.000000,3.000000,,,,0.000000,4.000000,4.000000,4.000000,4.000000,4.000000,,,,,,,,,,,,,,,,,,,,,,,,,
1577423280.280298,115.000000,0.000000,4235.384766,3926.666748,4128.205078,4074.871826,4303.077148,16211.000000,3.000000,,,,0.000000,4.000000,4.000000,4.000000,4.000000,4.000000,,,,,,,,,,,,,,,,,,,,,,,,,
1577423280.288178,116.000000,0.000000,4175.384766,3911.794922,4106.153809,4022.051270,4271.794922,450.000000,3.000000,,,,0.000000,4.000000,4.000000,4.000000,4.000000,4.000000,,,,,,,,,,,,,,,,,,,,,,,,,
1577423280.295959,117.000000,0.000000,4180.512695,3968.205078,4152.820313,4080.000000,4289.230957,450.000000,3.000000,,,,0.000000,4.000000,4.000000,4.000000,4.000000,4.000000,2.556951,2.556897,4.319570,14.365409,7.689136,6.633306,1.331785,4.631436,6.921759,6.647290,8.862844,5.567056,3.735294,4.815642,3.423758,3.185499,1.683392,3.776865,8.022390,3.529502,3.548398,3.511852,3.988757,8.403195,3.905278
1577423280.303739,118.000000,0.000000,4218.974121,3986.666748,4162.051270,4092.820557,4295.384766,450.000000,3.000000,,,,0.000000,4.000000,4.000000,4.000000,4.000000,4.000000,,,,,,,,,,,,,,,,,,,,,,,,,
1577423280.311519,119.000000,0.000000,4246.666504,3982.051270,4159.487305,4068.205078,4312.307617,16211.000000,3.000000,,,,0.000000,4.000000,4.000000,4.000000,4.000000,4.000000,,,,,,,,,,,,,,,,,,,,,,,,,
1577423280.319399,120.000000,0.000000,4281.025879,4022.051270,4158.974121,4107.692383,4327.692383,450.000000,3.000000,,,,0.000000,4.000000,4.000000,4.000000,4.000000,4.000000,,,,,,,,,,,,,,,,,,,,,,,,,
1577423280.327280,121.000000,0.000000,4262.563965,4030.769287,4163.589844,4105.128418,4311.282227,450.000000,3.000000,,,,0.000000,4.000000,4.000000,4.000000,4.000000,4.000000,,,,,,,,,,,,,,,,,,,,,,,,,
1577423280.335160,122.000000,0.000000,4259.487305,4024.615479,4190.769043,4115.384766,4342.051270,450.000000,3.000000,,,,0.000000,4.000000,4.000000,4.000000,4.000000,4.000000,,,,,,,,,,,,,,,,,,,,,,,,,
1577423280.342940,123.000000,0.000000,4265.128418,4000.000000,4165.641113,4096.410156,4325.641113,16211.000000,3.000000,,,,0.000000,4.000000,4.000000,4.000000,4.000000,4.000000,,,,,,,,,,,,,,,,,,,,,,,,,
1577423280.350720,124.000000,0.000000,4231.794922,3959.487061,4143.589844,4032.820557,4283.589844,450.000000,3.000000,,,,0.000000,4.000000,4.000000,4.000000,4.000000,4.000000,,,,,,,,,,,,,,,,,,,,,,,,,
1577423280.358601,125.000000,0.000000,4244.615234,4001.025635,4162.563965,4060.512939,4302.051270,450.000000,3.000000,,,,0.000000,4.000000,4.000000,4.000000,4.000000,4.000000,,,,,,,,,,,,,,,,,,,,,,,,,
1577423280.366381,126.000000,0.000000,4292.820313,4064.615479,4184.102539,4116.410156,4325.128418,450.000000,3.000000,,,,0.000000,4.000000,4.000000,4.000000,4.000000,4.000000,,,,,,,,,,,,,,,,,,,,,,,,,
1577423280.374261,127.000000,0.000000,4316.922852,4060.000000,4172.307617,4102.051270,4348.717773,233.000000,3.000000,,,,0.000000,4.000000,4.000000,4.000000,4.000000,4.000000,,,,,,,,,,,,,,,,,,,,,,,,,
1577423280.382141,0.000000,0.000000,4315.384766,4036.410156,4156.922852,4067.179443,4354.871582,450.000000,3.000000,,,,0.000000,4.000000,4.000000,4.000000,4.000000,4.000000,,,,,,,,,,,,,,,,,,,,,,,,,
1577423280.389922,1.000000,0.000000,4360.512695,4040.512939,4210.256348,4080.512939,4405.128418,450.000000,3.000000,,,,0.000000,4.000000,4.000000,4.000000,4.000000,4.000000,,,,,,,,,,,,,,,,,,,,,,,,,
1577423280.397802,2.000000,0.000000,4445.641113,4046.666748,4225.128418,4099.487305,4466.666504,16224.000000,3.000000,,,,0.000000,4.000000,4.000000,4.000000,4.000000,4.000000,,,,,,,,,,,,,,,,,,,,,,,,,
1577423280.405582,3.000000,0.000000,4463.589844,4031.281982,4179.487305,4083.076904,4427.692383,450.000000,3.000000,,,,0.000000,4.000000,4.000000,4.000000,4.000000,4.000000,,,,,,,,,,,,,,,,,,,,,,,,,
1577423280.413462,4.000000,0.000000,4510.769043,4045.128174,4168.717773,4100.000000,4452.820313,16224.000000,3.000000,,,,0.000000,4.000000,4.000000,4.000000,4.000000,4.000000,,,,,,,,,,,,,,,,,,,,,,,,,
1577423280.421243,5.000000,0.000000,4561.538574,4044.102539,4165.128418,4104.102539,4502.563965,450.000000,3.000000,,,,0.000000,4.000000,4.000000,4.000000,4.000000,4.000000,2.035443,3.143945,4.272342,14.539629,7.201861,5.831645,1.485650,4.443005,6.379293,6.141357,9.532574,4.308807,3.462110,4.800580,3.349881,4.133698,1.687667,3.226875,7.442793,3.154020,3.783067,4.620640,3.959401,8.209537,3.564079
1577423280.429123,6.000000,0.000000,4543.589844,4021.538574,4204.102539,4085.128174,4488.205078,16120.000000,3.000000,,,,0.000000,4.000000,4.000000,4.000000,4.000000,4.000000,,,,,,,,,,,,,,,,,,,,,,,,,
1577423280.437003,7.000000,0.000000,4556.922852,4041.025635,4232.307617,4108.205078,4505.128418,450.000000,3.000000,,,,0.000000,4.000000,4.000000,4.000000,4.000000,4.000000,,,,,,,,,,,,,,,,,,,,,,,,,
1577423280.444783,8.000000,0.000000,4549.230957,4035.897461,4186.666504,4109.230957,4488.205078,450.000000,3.000000,,,,0.000000,4.000000,4.000000,4.000000,4.000000,4.000000,,,,,,,,,,,,,,,,,,,,,,,,,
1577423280.452664,9.000000,0.000000,4587.179688,4049.230713,4190.256348,4121.538574,4492.820313,16151.000000,3.000000,,,,0.000000,4.000000,4.000000,4.000000,4.000000,4.000000,,,,,,,,,,,,,,,,,,,,,,,,,
1577423280.460444,10.000000,0.000000,4639.487305,4058.461426,4208.205078,4157.948730,4518.974121,450.000000,3.000000,,,,0.000000,4.000000,4.000000,4.000000,4.000000,4.000000,,,,,,,,,,,,,,,,,,,,,,,,,
1577423280.468224,11.000000,0.000000,4581.538574,4022.564209,4212.307617,4143.589844,4498.974121,16237.000000,3.000000,,,,0.000000,4.000000,4.000000,4.000000,4.000000,4.000000,,,,,,,,,,,,,,,,,,,,,,,,,
1577423280.476105,12.000000,0.000000,4600.000000,4065.128174,4241.538574,4137.436035,4534.871582,450.000000,3.000000,,,,0.000000,4.000000,4.000000,4.000000,4.000000,4.000000,,,,,,,,,,,,,,,,,,,,,,,,,
1577423280.483985,13.000000,0.000000,4615.897461,4062.051270,4218.461426,4123.077148,4527.692383,450.000000,3.000000,,,,0.000000,4.000000,4.000000,4.000000,4.000000,4.000000,,,,,,,,,,,,,,,,,,,,,,,,,
1577423280.491765,14.000000,0.000000,4558.461426,4007.179443,4198.974121,4094.871826,4479.487305,450.000000,3.000000,,,,0.000000,4.000000,4.000000,4.000000,4.000000,4.000000,,,,,,,,,,,,,,,,,,,,,,,,,
1577423280.499545,15.000000,0.000000,4583.589844,4033.333252,4212.820313,4112.307617,4506.666504,16237.000000,3.000000,,,,0.000000,4.000000,4.000000,4.000000,4.000000,4.000000,,,,,,,,,,,,,,,,,,,,,,,,,
1577423280.507426,16.000000,0.000000,4594.358887,4032.820557,4197.436035,4124.615234,4523.589844,0.000000,3.000000,,,,0.000000,4.000000,4.000000,4.000000,4.000000,4.000000,,,,,,,,,,,,,,,,,,,,,,,,,
1577423280.515206,17.000000,0.000000,4565.641113,4024.615479,4184.615234,4123.077148,4511.794922,0.000000,3.000000,,,,0.000000,4.000000,4.000000,4.000000,4.000000,4.000000,,,,,,,,,,,,,,,,,,,,,,,,,
1577423280.522986,18.000000,0.000000,4569.743652,4034.358887,4175.897461,4105.641113,4522.051270,0.000000,3.000000,,,,0.000000,4.000000,4.000000,4.000000,4.000000,4.000000,,,,,,,,,,,,,,,,,,,,,,,,,
1577423280.530866,19.000000,0.000000,4557.436035,4013.333252,4188.717773,4089.230713,4518.461426,0.000000,3.000000,,,,0.000000,4.000000,4.000000,4.000000,4.000000,4.000000,,,,,,,,,,,,,,,,,,,,,,,,,
1577423280.538747,20.000000,0.000000,4534.358887,4008.205078,4192.820313,4099.487305,4489.230957,0.000000,3.000000,,,,0.000000,4.000000,4.000000,4.000000,4.000000,4.000000,,,,,,,,,,,,,,,,,,,,,,,,,
1577423280.546627,21.000000,0.000000,4536.922852,4016.923096,4169.230957,4096.922852,4493.846191,0.000000,3.000000,,,,0.000000,4.000000,4.000000,4.000000,4.000000,4.000000,2.320513,3.770975,4.819695,14.448007,6.674954,5.172135,1.641084,4.292917,6.081716,5.409292,10.571044,4.154055,3.555760,4.624120,3.222654,5.184244,1.863750,3.084527,6.874334,2.931899,4.571854,5.884990,4.376166,7.679485,3.261141
1577423280.554407,22.000000,0.000000,4611.794922,4066.153809,4206.666504,4147.692383,4555.897461,0.000000,3.000000,,,,0.000000,4.000000,4.000000,4.000000,4.000000,4.000000,,,,,,,,,,,,,,,,,,,,,,,,,
1577423280.562287,23.000000,0.000000,4607.179688,4049.230713,4173.333496,4122.051270,4548.717773,0.000000,3.000000,,,,0.000000,4.000000,4.000000,4.000000,4.000000,4.000000,,,,,,,,,,,,,,,,,,,,,,,,,
1577423280.570068,24.000000,0.000000,4484.102539,3968.205078,4105.128418,4011.281982,4473.333496,0.000000,3.000000,,,,0.000000,4.000000,4.000000,4.000000,4.000000,4.000000,,,,,,,,,,,,,,,,,,,,,,,,,
1577423280.577848,25.000000,1.000000,4490.939941,3977.549805,4109.344727,4023.418701,4475.840332,0.000000,3.000000,,,,0.000000,4.000000,4.000000,4.000000,4.000000,4.000000,,,,,,,,,,,,,,,,,,,,,,,,,
1577423280.585728,26.000000,1.000000,4497.777832,3986.894531,4113.561035,4035.555664,4478.347656,0.000000,3.000000,,,,0.000000,4.000000,4.000000,4.000000,4.000000,4.000000,,,,,,,,,,,,,,,,,,,,,,,,,
1577423280.593608,27.000000,1.000000,4504.615234,3996.239258,4117.777832,4047.692383,4480.854492,0.000000,3.000000,,,,0.000000,4.000000,4.000000,4.000000,4.000000,4.000000,,,,,,,,,,,,,,,,,,,,,,,,,
1577423280.601489,28.000000,1.000000,4511.453125,4005.583984,4121.994141,4059.829102,4483.361816,0.000000,3.000000,,,,0.000000,4.000000,4.000000,4.000000,4.000000,4.000000,,,,,,,,,,,,,,,,,,,,,,,,,
1577423280.609369,29.000000,1.000000,4518.290527,4014.928711,4126.210938,4071.965820,4485.869141,0.000000,3.000000,,,,0.000000,4.000000,4.000000,4.000000,4.000000,4.000000,,,,,,,,,,,,,,,,,,,,,,,,,
1577423280.617249,30.000000,1.000000,4525.128418,4024.273438,4130.427246,4084.102539,4488.375977,0.000000,3.000000,,,,0.000000,4.000000,4.000000,4.000000,4.000000,4.000000,,,,,,,,,,,,,,,,,,,,,,,,,
1577423280.625129,31.000000,1.000000,4531.965820,4033.618164,4134.644043,4096.239258,4490.883301,0.000000,3.000000,,,,0.000000,4.000000,4.000000,4.000000,4.000000,4.000000,,,,,,,,,,,,,,,,,,,,,,,,,
1577423280.633009,32.000000,1.000000,4538.803223,4042.962891,4138.860352,4108.375977,4493.390137,0.000000,3.000000,,,,0.000000,4.000000,4.000000,4.000000,4.000000,4.000000,,,,,,,,,,,,,,,,,,,,,,,,,
1577423280.640890,33.000000,0.000000,4545.641113,4052.307617,4143.077148,4120.512695,4495.897461,0.000000,3.000000,,,,0.000000,4.000000,4.000000,4.000000,4.000000,4.000000,,,,,,,,,,,,,,,,,,,,,,,,,
1577423280.648770,34.000000,0.000000,4573.846191,4081.538574,4153.846191,4116.922852,4480.512695,0.000000,3.000000,,,,0.000000,4.000000,4.000000,4.000000,4.000000,4.000000,,,,,,,,,,,,,,,,,,,,,,,,,
1577423280.656550,35.000000,0.000000,4605.128418,4074.871826,4176.922852,4101.025879,4501.025879,0.000000,3.000000,,,,0.000000,4.000000,4.000000,4.000000,4.000000,4.000000,,,,,,,,,,,,,,,,,,,,,,,,,
1577423280.664430,36.000000,0.000000,4569.230957,4060.512939,4153.333496,4082.051270,4469.743652,0.000000,3.000000,,,,0.000000,4.000000,4.000000,4.000000,4.000000,4.000000,,,,,,,,,,,,,,,,,,,,,,,,,
1577423280.672211,37.000000,0.000000,4531.794922,4064.615479,4152.307617,4060.000000,4450.769043,0.000000,3.000000,,,,0.000000,4.000000,4.000000,4.000000,4.000000,4.000000,4.498235,4.448424,5.979697,13.926757,6.183892,4.831151,1.805951,4.225126,5.950105,4.661448,11.377499,4.411171,4.052544,4.405133,3.109021,5.955865,2.321648,3.414113,6.362526,2.986150,6.784576,7.116113,5.164218,6.774640,3.067176
1577423280.680091,38.000000,0.000000,4545.641113,4094.871826,4165.128418,4073.333252,4472.307617,0.000000,3.000000,,,,0.000000,4.000000,4.000000,4.000000,4.000000,4.000000,,,,,,,,,,,,,,,,,,,,,,,,,
1577423280.687871,39.000000,0.000000,4554.358887,4117.436035,4165.641113,4089.230713,4446.666504,0.000000,3.000000,,,,0.000000,4.000000,4.000000,4.000000,4.000000,4.000000,,,,,,,,,,,,,,,,,,,,,,,,,
1577423280.695652,40.000000,0.000000,4585.641113,4142.563965,4182.563965,4117.948730,4485.641113,0.000000,3.000000,,,,0.000000,4.000000,4.000000,4.000000,4.000000,4.000000,,,,,,,,,,,,,,,,,,,,,,,,,
1577423280.703532,41.000000,0.000000,4588.205078,4140.512695,4185.128418,4116.922852,4511.794922,0.000000,3.000000,,,,0.000000,4.000000,4.000000,4.000000,4.000000,4.000000,,,,,,,,,,,,,,,,,,,,,,,,,
1577423280.711312,42.000000,0.000000,4512.820313,4081.538574,4171.794922,4046.666748,4434.871582,0.000000,3.000000,,,,0.000000,4.000000,4.000000,4.000000,4.000000,4.000000,,,,,,,,,,,,,,,,,,,,,,,,,
1577423280.719192,43.000000,0.000000,4485.641113,4070.769287,4163.589844,4022.564209,4402.563965,0.000000,3.000000,,,,0.000000,4.000000,4.000000,4.000000,4.000000,4.000000,,,,,,,,,,,,,,,,,,,,,,,,,
1577423280.727073,44.000000,0.000000,4483.077148,4101.538574,4184.102539,4053.846191,4396.922852,0.000000,3.000000,,,,0.000000,4.000000,4.000000,4.000000,4.000000,4.000000,,,,,,,,,,,,,,,,,,,,,,,,,
1577423280.734853,45.000000,0.000000,4525.641113,4149.230957,4221.538574,4085.128174,4434.358887,0.000000,3.000000,,,,0.000000,4.000000,4.000000,4.000000,4.000000,4.000000,,,,,,,,,,,,,,,,,,,,,,,,,
1577423280.742633,46.000000,0.000000,4562.563965,4163.077148,4210.769043,4098.974121,4466.153809,0.000000,3.000000,,,,0.000000,4.000000,4.000000,4.000000,4.000000,4.000000,,,,,,,,,,,,,,,,,,,,,,,,,
1577423280.750413,47.000000,0.000000,4493.333496,4114.871582,4206.666504,4088.205078,4413.333496,0.000000,3.000000,,,,0.000000,4.000000,4.000000,4.000000,4.000000,4.000000,,,,,,,,,,,,,,,,,,,,,,,,,
1577423280.758294,48.000000,0.000000,4452.307617,4095.384521,4202.563965,4076.410156,4385.641113,0.000000,3.000000,,,,0.000000,4.000000,4.000000,4.000000,4.000000,4.000000,,,,,,,,,,,,,,,,,,,,,,,,,
1577423280.766174,49.000000,0.000000,4442.051270,4092.820557,4165.128418,4072.820557,4382.051270,0.000000,3.000000,,,,0.000000,4.000000,4.000000,4.000000,4.000000,4.000000,,,,,,,,,,,,,,,,,,,,,,,,,
1577423280.773954,50.000000,0.000000,4478.461426,4131.794922,4182.051270,4103.077148,4414.358887,0.000000,3.000000,,,,0.000000,4.000000,4.000000,4.000000,4.000000,4.000000,,,,,,,,,,,,,,,,,,,,,,,,,
1577423280.781834,51.000000,0.000000,4502.051270,4140.512695,4181.025879,4109.743652,4435.384766,0.000000,3.000000,,,,0.000000,4.000000,4.000000,4.000000,4.000000,4.000000,,,,,,,,,,,,,,,,,,,,,,,,,
1577423280.789615,52.000000,0.000000,4442.051270,4092.307617,4167.179688,4083.076904,4407.179688,0.000000,3.000000,,,,0.000000,4.000000,4.000000,4.000000,4.000000,4.000000,,,,,,,,,,,,,,,,,,,,,,,,,
1577423280.797395,53.000000,0.000000,4472.307617,4150.256348,4221.538574,4123.077148,4440.512695,0.000000,3.000000,,,,0.000000,4.000000,4.000000,4.000000,4.000000,4.000000,9.342305,5.243998,7.532363,13.042420,5.748164,4.924831,1.965399,4.229884,5.903001,4.072147,11.601085,4.528005,4.814040,4.275959,3.055435,6.286730,3.051090,4.133819,5.977295,3.309745,10.902116,8.086006,6.097237,5.645922,2.988420
1577423280.805275,54.000000,0.000000,4498.461426,4160.000000,4215.897461,4123.589844,4452.820313,0.000000,3.000000,,,,0.000000,4.000000,4.000000,4.000000,4.000000,4.000000,,,,,,,,,,,,,,,,,,,,,,,,,
1577423280.813056,55.000000,0.000000,4450.256348,4104.615234,4201.025879,4093.333252,4430.256348,0.000000,3.000000,,,,0.000000,4.000000,4.000000,4.000000,4.000000,4.000000,,,,,,,,,,,,,,,,,,,,,,,,,
1577423280.820836,56.000000,0.000000,4462.051270,4138.461426,4225.128418,4133.333496,4440.512695,0.000000,3.000000,,,,0.000000,4.000000,4.000000,4.000000,4.000000,4.000000,,,,,,,,,,,,,,,,,,,,,,,,,
1577423280.828716,57.000000,0.000000,4457.436035,4133.333496,4196.410156,4136.922852,4426.666504,0.000000,3.000000,,,,0.000000,4.000000,4.000000,4.000000,4.000000,4.000000,,,,,,,,,,,,,,,,,,,,,,,,,
1577423280.836596,58.000000,0.000000,4436.922852,4116.922852,4165.641113,4118.974121,4403.077148,0.000000,3.000000,,,,0.000000,4.000000,4.000000,4.000000,4.000000,4.000000,,,,,,,,,,,,,,,,,,,,,,,,,
1577423280.844477,59.000000,0.000000,4421.025879,4119.487305,4129.230957,4093.846191,4386.153809,0.000000,3.000000,,,,0.000000,4.000000,4.000000,4.000000,4.000000,4.000000,,,,,,,,,,,,,,,,,,,,,,,,,
1577423280.852257,60.000000,0.000000,4370.256348,4098.461426,4135.384766,4084.102539,4393.846191,0.000000,3.000000,,,,0.000000,4.000000,4.000000,4.000000,4.000000,4.000000,,,,,,,,,,,,,,,,,,,,,,,,,
1577423280.860037,61.000000,0.000000,4350.769043,4111.282227,4152.307617,4105.128418,4397.948730,0.000000,3.000000,,,,0.000000,4.000000,4.000000,4.000000,4.000000,4.000000,,,,,,,,,,,,,,,,,,,,,,,,,
1577423280.867817,62.000000,0.000000,4382.563965,4122.563965,4095.897461,4071.794922,4367.179688,0.000000,3.000000,,,,0.000000,4.000000,4.000000,4.000000,4.000000,4.000000,,,,,,,,,,,,,,,,,,,,,,,,,
1577423280.875698,63.000000,0.000000,4419.487305,4137.948730,4088.718018,4077.948730,4376.410156,0.000000,3.000000,,,,0.000000,4.000000,4.000000,4.000000,4.000000,4.000000,,,,,,,,,,,,,,,,,,,,,,,,,
1577423280.883578,64.000000,0.000000,4395.897461,4143.589844,4091.281982,4096.922852,4393.846191,450.000000,3.000000,,,,0.000000,4.000000,4.000000,4.000000,4.000000,4.000000,,,,,,,,,,,,,,,,,,,,,,,,,
1577423280.891458,65.000000,0.000000,4341.538574,4123.077148,4095.384521,4053.333252,4380.000000,450.000000,3.000000,,,,0.000000,4.000000,4.000000,4.000000,4.000000,4.000000,,,,,,,,,,,,,,,,,,,,,,,,,
1577423280.899238,66.000000,0.000000,4351.282227,4144.102539,4124.102539,4054.358887,4375.897461,16191.000000,3.000000,,,,0.000000,4.000000,4.000000,4.000000,4.000000,4.000000,,,,,,,,,,,,,,,,,,,,,,,,,
1577423280.907019,67.000000,0.000000,4340.000000,4145.641113,4075.384521,4032.307617,4343.589844,450.000000,3.000000,,,,0.000000,4.000000,4.000000,4.000000,4.000000,4.000000,,,,,,,,,,,,,,,,,,,,,,,,,
1577423280.914899,68.000000,0.000000,4323.589844,4147.179688,4069.743652,4038.461426,4356.410156,16241.000000,3.000000,,,,0.000000,4.000000,4.000000,4.000000,4.000000,4.000000,,,,,,,,,,,,,,,,,,,,,,,,,
1577423280.922779,69.000000,0.000000,4346.666504,4183.077148,4082.051270,4073.333252,4370.769043,450.000000,3.000000,,,,0.000000,4.000000,4.000000,4.000000,4.000000,4.000000,18.413378,6.241641,9.096684,12.010892,5.345156,4.993152,2.112218,4.267540,5.904658,3.709485,11.111648,4.360302,5.566734,4.295456,3.058363,6.566066,3.964835,5.107842,5.816918,3.779420,16.751808,8.583919,6.894393,4.573661,2.980000
1577423280.930559,70.000000,0.000000,4314.871582,4179.487305,4050.256348,4023.589844,4309.230957,16082.000000,3.000000,,,,0.000000,4.000000,4.000000,4.000000,4.000000,4.000000,,,,,,,,,,,,,,,,,,,,,,,,,
1577423280.938340,71.000000,0.000000,4314.358887,4196.410156,4086.153809,4048.205078,4309.230957,450.000000,3.000000,,,,0.000000,4.000000,4.000000,4.000000,4.000000,4.000000,,,,,,,,,,,,,,,,,,,,,,,,,
1577423280.946220,72.000000,0.000000,4350.256348,4214.358887,4115.897461,4093.333252,4326.666504,450.000000,3.000000,,,,0.000000,4.000000,4.000000,4.000000,4.000000,4.000000,,,,,,,,,,,,,,,,,,,,,,,,,
1577423280.954000,73.000000,0.000000,4332.820313,4197.948730,4105.641113,4066.666748,4336.922852,16075.000000,3.000000,,,,0.000000,4.000000,4.000000,4.000000,4.000000,4.000000,,,,,,,,,,,,,,,,,,,,,,,,,
1577423280.961880,74.000000,0.000000,4327.692383,4223.589844,4094.358887,4070.769287,4351.282227,450.000000,3.000000,,,,0.000000,4.000000,4.000000,4.000000,4.000000,4.000000,,,,,,,,,,,,,,,,,,,,,,,,,
1577423280.969661,75.000000,0.000000,4323.077148,4237.948730,4070.256348,4064.615479,4297.436035,16210.000000,3.000000,,,,0.000000,4.000000,4.000000,4.000000,4.000000,4.000000,,,,,,,,,,,,,,,,,,,,,,,,,
1577423280.977441,76.000000,0.000000,4316.410156,4224.102539,4052.307617,4056.410156,4283.589844,450.000000,3.000000,,,,0.000000,4.000000,4.000000,4.000000,4.000000,4.000000,,,,,,,,,,,,,,,,,,,,,,,,,
1577423280.985221,77.000000,0.000000,4309.230957,4219.487305,4066.153809,4058.974365,4287.692383,450.000000,3.000000,,,,0.000000,4.000000,4.000000,4.000000,4.000000,4.000000,,,,,,,,,,,,,,,,,,,,,,,,,
1577423280.993102,78.000000,0.000000,4298.974121,4213.333496,4114.871582,4061.538574,4293.333496,450.000000,3.000000,,,,0.000000,4.000000,4.000000,4.000000,4.000000,4.000000,,,,,,,,,,,,,,,,,,,,,,,,,
1577423281.000882,79.000000,1.000000,4293.959961,4207.692383,4104.672363,4064.558350,4283.133789,16237.000000,3.000000,,,,0.000000,4.000000,4.000000,4.000000,4.000000,4.000000,,,,,,,,,,,,,,,,,,,,,,,,,
1577423281.008762,80.000000,1.000000,4288.945801,4202.051270,4094.472900,4067.578369,4272.934570,3952.222168,3.000000,,,,0.000000,4.000000,4.000000,4.000000,4.000000,4.000000,,,,,,,,,,,,,,,,,,,,,,,,,
1577423281.016642,81.000000,1.000000,4283.931641,4196.410156,4084.273438,4070.598389,4262.734863,5703.333496,3.000000,,,,0.000000,4.000000,4.000000,4.000000,4.000000,4.000000,,,,,,,,,,,,,,,,,,,,,,,,,
1577423281.024523,82.000000,1.000000,4278.917480,4190.769043,4074.073975,4073.618164,4252.535645,7454.444336,3.000000,,,,0.000000,4.000000,4.000000,4.000000,4.000000,4.000000,,,,,,,,,,,,,,,,,,,,,,,,,
1577423281.032403,83.000000,1.000000,4273.903320,4185.128418,4063.874756,4076.638184,4242.336426,9205.555664,3.000000,,,,0.000000,4.000000,4.000000,4.000000,4.000000,4.000000,,,,,,,,,,,,,,,,,,,,,,,,,
1577423281.040283,84.000000,1.000000,4268.888672,4179.487305,4053.675293,4079.658203,4232.136719,10956.666992,3.000000,,,,0.000000,4.000000,4.000000,4.000000,4.000000,4.000000,,,,,,,,,,,,,,,,,,,,,,,,,
1577423281.048163,85.000000,1.000000,4263.874512,4173.846191,4043.475830,4082.677979,4221.937500,12707.777344,3.000000,,,,0.000000,4.000000,4.000000,4.000000,4.000000,4.000000,30.856985,7.414068,10.265751,11.175687,4.973485,5.148122,2.237244,4.337677,6.017053,3.532359,10.164758,3.973332,6.053097,4.421437,3.066115,7.191101,4.947152,6.168892,5.975145,4.204333,22.503454,8.513388,7.315034,3.884442,2.994922
1577423281.056043,86.000000,1.000000,4258.860352,4168.205078,4033.276367,4085.697998,4211.737793,14458.888672,3.000000,,,,0.000000,4.000000,4.000000,4.000000,4.000000,4.000000,,,,,,,,,,,,,,,,,,,,,,,,,
1577423281.063924,87.000000,0.000000,4253.846191,4162.563965,4023.076904,4088.718018,4201.538574,16210.000000,3.000000,,,,0.000000,4.000000,4.000000,4.000000,4.000000,4.000000,,,,,,,,,,,,,,,,,,,,,,,,,
1577423281.071804,88.000000,0.000000,4152.820313,4093.333252,3980.000000,4032.307617,4128.205078,450.000000,3.000000,,,,0.000000,4.000000,4.000000,4.000000,4.000000,4.000000,,,,,,,,,,,,,,,,,,,,,,,,,
1577423281.079584,89.000000,0.000000,4152.820313,4117.948730,4013.846191,4023.076904,4116.922852,450.000000,3.000000,,,,0.000000,4.000000,4.000000,4.000000,4.000000,4.000000,,,,,,,,,,,,,,,,,,,,,,,,,
1577423281.087464,90.000000,0.000000,4170.256348,4143.077148,4030.256348,4054.358887,4139.487305,450.000000,3.000000,,,,0.000000,4.000000,4.000000,4.000000,4.000000,4.000000,,,,,,,,,,,,,,,,,,,,,,,,,
1577423281.095245,91.000000,0.000000,4176.410156,4154.358887,4059.487061,4140.000000,4174.871582,16210.000000,3.000000,,,,0.000000,4.000000,4.000000,4.000000,4.000000,4.000000,,,,,,,,,,,,,,,,,,,,,,,,,
1577423281.103125,92.000000,0.000000,4216.922852,4177.948730,4081.025635,4237.436035,4205.128418,450.000000,3.000000,,,,0.000000,4.000000,4.000000,4.000000,4.000000,4.000000,,,,,,,,,,,,,,,,,,,,,,,,,
1577423281.110905,93.000000,0.000000,4178.461426,4133.333496,4060.000000,4248.205078,4165.641113,450.000000,3.000000,,,,0.000000,4.000000,4.000000,4.000000,4.000000,4.000000,,,,,,,,,,,,,,,,,,,,,,,,,
1577423281.118686,94.000000,0.000000,4169.230957,4135.384766,4067.692383,4265.128418,4157.948730,450.000000,3.000000,,,,0.000000,4.000000,4.000000,4.000000,4.000000,4.000000,,,,,,,,,,,,,,,,,,,,,,,,,
1577423281.126466,95.000000,0.000000,4181.025879,4143.077148,4045.641113,4266.666504,4165.641113,16210.000000,3.000000,,,,0.000000,4.000000,4.000000,4.000000,4.000000,4.000000,,,,,,,,,,,,,,,,,,,,,,,,,
1577423281.134346,96.000000,0.000000,4122.051270,4101.538574,4044.102539,4234.871582,4143.077148,450.000000,3.000000,,,,0.000000,4.000000,4.000000,4.000000,4.000000,4.000000,,,,,,,,,,,,,,,,,,,,,,,,,
1577423281.142126,97.000000,0.000000,4141.538574,4129.743652,4085.128174,4263.077148,4169.743652,450.000000,3.000000,,,,0.000000,4.000000,4.000000,4.000000,4.000000,4.000000,,,,,,,,,,,,,,,,,,,,,,,,,
1577423281.150007,98.000000,0.000000,4200.000000,4143.077148,4069.230713,4273.846191,4195.384766,450.000000,3.000000,,,,0.000000,4.000000,4.000000,4.000000,4.000000,4.000000,,,,,,,,,,,,,,,,,,,,,,,,,
1577423281.157787,99.000000,0.000000,4198.974121,4135.897461,4045.641113,4277.436035,4172.307617,16210.000000,3.000000,,,,0.000000,4.000000,4.000000,4.000000,4.000000,4.000000,,,,,,,,,,,,,,,,,,,,,,,,,
1577423281.165667,100.000000,0.000000,4160.000000,4134.358887,4006.153809,4264.102539,4144.615234,450.000000,3.000000,,,,0.000000,4.000000,4.000000,4.000000,4.000000,4.000000,,,,,,,,,,,,,,,,,,,,,,,,,
1577423281.173447,101.000000,0.000000,4106.666504,4118.461426,4004.615479,4218.461426,4130.256348,450.000000,3.000000,,,,0.000000,4.000000,4.000000,4.000000,4.000000,4.000000,45.152092,8.549829,10.832816,10.706337,4.650058,5.200889,2.336709,4.484306,6.261319,3.442981,9.274886,3.629083,6.235713,4.548228,3.015102,8.518492,5.818486,7.210895,6.425494,4.416696,26.753693,7.967530,7.317817,3.715324,3.010756
1577423281.181228,102.000000,0.000000,4124.615234,4138.974121,4049.230713,4234.358887,4126.666504,450.000000,3.000000,,,,0.000000,4.000000,4.000000,4.000000,4.000000,4.000000,,,,,,,,,,,,,,,,,,,,,,,,,
1577423281.189108,103.000000,0.000000,4183.589844,4149.230957,4035.384521,4222.051270,4142.051270,16210.000000,3.000000,,,,0.000000,4.000000,4.000000,4.000000,4.000000,4.000000,,,,,,,,,,,,,,,,,,,,,,,,,
1577423281.196988,104.000000,0.000000,4209.743652,4168.205078,4031.794922,4170.256348,4188.205078,450.000000,3.000000,,,,0.000000,4.000000,4.000000,4.000000,4.000000,4.000000,,,,,,,,,,,,,,,,,,,,,,,,,
1577423281.204868,105.000000,0.000000,4198.461426,4181.025879,4020.512939,4112.820313,4176.410156,450.000000,3.000000,,,,0.000000,4.000000,4.000000,4.000000,4.000000,4.000000,,,,,,,,,,,,,,,,,,,,,,,,,
1577423281.212649,106.000000,0.000000,4186.666504,4154.871582,4043.589844,4081.538574,4155.384766,450.000000,3.000000,,,,0.000000,4.000000,4.000000,4.000000,4.000000,4.000000,,,,,,,,,,,,,,,,,,,,,,,,,
1577423281.220529,107.000000,0.000000,4214.358887,4162.051270,4111.282227,4126.666504,4191.794922,16210.000000,3.000000,,,,0.000000,4.000000,4.000000,4.000000,4.000000,4.000000,,,,,,,,,,,,,,,,,,,,,,,,,
1577423281.228309,108.000000,0.000000,4212.820313,4153.846191,4078.974365,4102.051270,4174.871582,450.000000,3.000000,,,,0.000000,4.000000,4.000000,4.000000,4.000000,4.000000,,,,,,,,,,,,,,,,,,,,,,,,,
1577423281.236189,109.000000,0.000000,4183.077148,4125.641113,4040.512939,4051.794922,4171.794922,450.000000,3.000000,,,,0.000000,4.000000,4.000000,4.000000,4.000000,4.000000,,,,,,,,,,,,,,,,,,,,,,,,,
1577423281.243970,110.000000,0.000000,4197.948730,4153.333496,4046.666748,4063.076904,4200.000000,450.000000,3.000000,,,,0.000000,4.000000,4.000000,4.000000,4.000000,4.000000,,,,,,,,,,,,,,,,,,,,,,,,,
1577423281.251750,111.000000,0.000000,4224.615234,4181.025879,4061.538574,4060.000000,4188.717773,16210.000000,3.000000,,,,0.000000,4.000000,4.000000,4.000000,4.000000,4.000000,,,,,,,,,,,,,,,,,,,,,,,,,
1577423281.259630,112.000000,0.000000,4253.333496,4187.692383,4094.871826,4082.051270,4200.000000,450.000000,3.000000,,,,0.000000,4.000000,4.000000,4.000000,4.000000,4.000000,,,,,,,,,,,,,,,,,,,,,,,,,
1577423281.267411,113.000000,0.000000,4235.384766,4174.871582,4086.153809,4073.333252,4164.615234,450.000000,3.000000,,,,0.000000,4.000000,4.000000,4.000000,4.000000,4.000000,,,,,,,,,,,,,,,,,,,,,,,,,
1577423281.275291,114.000000,0.000000,4185.641113,4139.487305,4069.743652,4035.384521,4128.717773,450.000000,3.000000,,,,0.000000,4.000000,4.000000,4.000000,4.000000,4.000000,,,,,,,,,,,,,,,,,,,,,,,,,
1577423281.283071,115.000000,0.000000,4205.128418,4145.641113,4084.615479,4056.923096,4167.179688,16210.000000,3.000000,,,,0.000000,4.000000,4.000000,4.000000,4.000000,4.000000,,,,,,,,,,,,,,,,,,,,,,,,,
1577423281.290951,116.000000,0.000000,4245.128418,4184.102539,4110.769043,4075.897461,4170.769043,450.000000,3.000000,,,,0.000000,4.000000,4.000000,4.000000,4.000000,4.000000,,,,,,,,,,,,,,,,,,,,,,,,,
1577423281.298732,117.000000,0.000000,4288.717773,4216.410156,4124.615234,4111.794922,4187.692383,450.000000,3.000000,,,,0.000000,4.000000,4.000000,4.000000,4.000000,4.000000,57.752270,9.349045,10.801558,10.562716,4.422271,5.751269,2.318246,4.677989,6.571699,3.351607,9.225121,3.570254,6.220823,4.599370,2.868808,10.880036,6.503671,8.128330,7.011941,4.343645,28.478153,7.189773,6.995173,3.962449,3.034559
1577423281.306612,118.000000,0.000000,4262.051270,4183.077148,4095.897461,4116.410156,4160.000000,450.000000,3.000000,,,,0.000000,4.000000,4.000000,4.000000,4.000000,4.000000,,,,,,,,,,,,,,,,,,,,,,,,,
1577423281.314392,119.000000,0.000000,4185.128418,4111.282227,4087.692383,4041.025635,4113.333496,16210.000000,3.000000,,,,0.000000,4.000000,4.000000,4.000000,4.000000,4.000000,,,,,,,,,,,,,,,,,,,,,,,,,
1577423281.322272,120.000000,0.000000,4209.230957,4128.717773,4113.846191,4043.076904,4182.051270,450.000000,3.000000,,,,0.000000,4.000000,4.000000,4.000000,4.000000,4.000000,,,,,,,,,,,,,,,,,,,,,,,,,
1577423281.330053,121.000000,0.000000,4238.974121,4169.743652,4115.897461,4097.436035,4191.794922,450.000000,3.000000,,,,0.000000,4.000000,4.000000,4.000000,4.000000,4.000000,,,,,,,,,,,,,,,,,,,,,,,,,
1577423281.337933,122.000000,0.000000,4265.641113,4174.358887,4109.230957,4108.717773,4176.410156,450.000000,3.000000,,,,0.000000,4.000000,4.000000,4.000000,4.000000,4.000000,,,,,,,,,,,,,,,,,,,,,,,,,
1577423281.345813,123.000000,0.000000,4269.743652,4163.077148,4113.333496,4099.487305,4200.512695,16210.000000,3.000000,,,,0.000000,4.000000,4.000000,4.000000,4.000000,4.000000,,,,,,,,,,,,,,,,,,,,,,,,,
1577423281.353593,124.000000,0.000000,4207.179688,4153.846191,4152.820313,4093.333252,4180.512695,450.000000,3.000000,,,,0.000000,4.000000,4.000000,4.000000,4.000000,4.000000,,,,,,,,,,,,,,,,,,,,,,,,,
1577423281.361374,125.000000,0.000000,4193.333496,4148.717773,4154.871582,4091.794922,4164.102539,450.000000,3.000000,,,,0.000000,4.000000,4.000000,4.000000,4.000000,4.000000,,,,,,,,,,,,,,,,,,,,,,,,,
1577423281.369254,126.000000,0.000000,4207.179688,4109.230957,4124.615234,4109.743652,4180.000000,450.000000,3.000000,,,,0.000000,4.000000,4.000000,4.000000,4.000000,4.000000,,,,,,,,,,,,,,,,,,,,,,,,,
1577423281.377034,127.000000,0.000000,4250.256348,4113.333496,4152.820313,4148.205078,4232.820313,233.000000,3.000000,,,,0.000000,4.000000,4.000000,4.000000,4.000000,4.000000,,,,,,,,,,,,,,,,,,,,,,,,,
1577423281.384815,0.000000,0.000000,4250.256348,4111.282227,4124.615234,4124.615234,4220.000000,450.000000,3.000000,,,,0.000000,4.000000,4.000000,4.000000,4.000000,4.000000,,,,,,,,,,,,,,,,,,,,,,,,,
1577423281.392695,1.000000,0.000000,4161.538574,4043.076904,4084.615479,4070.769287,4152.307617,450.000000,3.000000,,,,0.000000,4.000000,4.000000,4.000000,4.000000,4.000000,,,,,,,,,,,,,,,,,,,,,,,,,
1577423281.400475,2.000000,0.000000,4184.615234,4055.897461,4138.461426,4106.153809,4182.563965,16130.000000,3.000000,,,,0.000000,4.000000,4.000000,4.000000,4.000000,4.000000,,,,,,,,,,,,,,,,,,,,,,,,,
1577423281.408355,3.000000,0.000000,4235.384766,4071.281982,4157.948730,4134.871582,4232.820313,450.000000,3.000000,,,,0.000000,4.000000,4.000000,4.000000,4.000000,4.000000,,,,,,,,,,,,,,,,,,,,,,,,,
1577423281.416235,4.000000,0.000000,4198.974121,4035.384521,4154.871582,4120.512695,4232.307617,16162.000000,3.000000,,,,0.000000,4.000000,4.000000,4.000000,4.000000,4.000000,,,,,,,,,,,,,,,,,,,,,,,,,
1577423281.424016,5.000000,0.000000,4189.743652,4041.538574,4144.102539,4120.512695,4215.384766,450.000000,3.000000,,,,0.000000,4.000000,4.000000,4.000000,4.000000,4.000000,64.779770,9.519263,10.315076,10.611055,4.314898,7.613189,2.128455,4.816181,6.820220,3.208852,10.205351,3.939766,6.103652,4.572171,2.646784,15.188061,7.022728,8.909940,7.584296,4.027805,27.228947,6.434477,6.462305,4.421424,3.068640
1577423281.431896,6.000000,0.000000,4183.077148,4029.230713,4095.384521,4102.563965,4188.205078,16101.000000,3.000000,,,,0.000000,4.000000,4.000000,4.000000,4.000000,4.000000,,,,,,,,,,,,,,,,,,,,,,,,,
1577423281.439676,7.000000,0.000000,4187.692383,4030.256348,4094.358887,4111.282227,4196.410156,450.000000,3.000000,,,,0.000000,4.000000,4.000000,4.000000,4.000000,4.000000,,,,,,,,,,,,,,,,,,,,,,,,,
1577423281.447457,8.000000,0.000000,4214.358887,4038.461426,4106.666504,4122.563965,4235.384766,450.000000,3.000000,,,,0.000000,4.000000,4.000000,4.000000,4.000000,4.000000,,,,,,,,,,,,,,,,,,,,,,,,,
1577423281.455337,9.000000,0.000000,4187.692383,4008.718018,4121.025879,4104.102539,4233.333496,311.000000,3.000000,,,,0.000000,4.000000,4.000000,4.000000,4.000000,4.000000,,,,,,,,,,,,,,,,,,,,,,,,,
1577423281.463217,10.000000,0.000000,4172.820313,4014.871826,4134.871582,4107.692383,4203.077148,450.000000,3.000000,,,,0.000000,4.000000,4.000000,4.000000,4.000000,4.000000,,,,,,,,,,,,,,,,,,,,,,,,,
1577423281.470997,11.000000,0.000000,4197.436035,4016.410156,4098.461426,4074.871826,4198.461426,16158.000000,3.000000,,,,0.000000,4.000000,4.000000,4.000000,4.000000,4.000000,,,,,,,,,,,,,,,,,,,,,,,,,
1577423281.478878,12.000000,0.000000,4220.000000,4021.538574,4090.256348,4062.564209,4213.333496,450.000000,3.000000,,,,0.000000,4.000000,4.000000,4.000000,4.000000,4.000000,,,,,,,,,,,,,,,,,,,,,,,,,
1577423281.486658,13.000000,0.000000,4206.666504,4037.435791,4091.281982,4077.435791,4194.358887,450.000000,3.000000,,,,0.000000,4.000000,4.000000,4.000000,4.000000,4.000000,,,,,,,,,,,,,,,,,,,,,,,,,
1577423281.494438,14.000000,0.000000,4165.641113,4030.769287,4116.922852,4077.435791,4189.743652,450.000000,3.000000,,,,0.000000,4.000000,4.000000,4.000000,4.000000,4.000000,,,,,,,,,,,,,,,,,,,,,,,,,
1577423281.502318,15.000000,0.000000,4163.589844,4031.794922,4151.794922,4094.358887,4205.641113,16158.000000,3.000000,,,,0.000000,4.000000,4.000000,4.000000,4.000000,4.000000,,,,,,,,,,,,,,,,,,,,,,,,,
1577423281.510199,16.000000,0.000000,4167.179688,4012.820557,4105.641113,4052.820557,4172.820313,0.000000,3.000000,,,,0.000000,4.000000,4.000000,4.000000,4.000000,4.000000,,,,,,,,,,,,,,,,,,,,,,,,,
1577423281.517979,17.000000,0.000000,4225.128418,4041.538574,4117.948730,4082.051270,4222.051270,0.000000,3.000000,,,,0.000000,4.000000,4.000000,4.000000,4.000000,4.000000,,,,,,,,,,,,,,,,,,,,,,,,,
1577423281.525759,18.000000,0.000000,4305.128418,4106.153809,4151.282227,4161.538574,4278.974121,0.000000,3.000000,,,,0.000000,4.000000,4.000000,4.000000,4.000000,4.000000,,,,,,,,,,,,,,,,,,,,,,,,,
1577423281.533639,19.000000,0.000000,4256.410156,4084.102539,4124.102539,4099.487305,4217.436035,0.000000,3.000000,,,,0.000000,4.000000,4.000000,4.000000,4.000000,4.000000,,,,,,,,,,,,,,,,,,,,,,,,,
1577423281.541420,20.000000,0.000000,4215.384766,4062.564209,4128.205078,4066.153809,4208.205078,0.000000,3.000000,,,,0.000000,4.000000,4.000000,4.000000,4.000000,4.000000,,,,,,,,,,,,,,,,,,,,,,,,,
1577423281.549300,21.000000,0.000000,4229.230957,4062.564209,4124.615234,4073.333252,4209.230957,0.000000,3.000000,,,,0.000000,4.000000,4.000000,4.000000,4.000000,4.000000,64.081406,8.954679,9.539740,10.711164,4.310067,10.181647,1.818607,4.772125,6.908411,3.003423,12.207078,4.754251,5.924964,4.493270,2.413627,23.470921,7.577027,9.664511,8.023934,3.604279,23.673323,5.954208,5.810073,4.915895,3.087199
1577423281.557080,22.000000,0.000000,4207.692383,4037.435791,4108.717773,4036.923096,4177.436035,0.000000,3.000000,,,,0.000000,4.000000,4.000000,4.000000,4.000000,4.000000,,,,,,,,,,,,,,,,,,,,,,,,,
1577423281.564961,23.000000,0.000000,4214.871582,4061.538574,4114.871582,4043.076904,4185.128418,0.000000,3.000000,,,,0.000000,4.000000,4.000000,4.000000,4.000000,4.000000,,,,,,,,,,,,,,,,,,,,,,,,,
1577423281.572741,24.000000,0.000000,4250.256348,4106.666504,4161.025879,4080.512939,4205.641113,0.000000,3.000000,,,,0.000000,4.000000,4.000000,4.000000,4.000000,4.000000,,,,,,,,,,,,,,,,,,,,,,,,,
1577423281.580621,25.000000,0.000000,4260.512695,4126.153809,4196.410156,4114.871582,4242.051270,0.000000,3.000000,,,,0.000000,4.000000,4.000000,4.000000,4.000000,4.000000,,,,,,,,,,,,,,,,,,,,,,,,,
1577423281.588401,26.000000,0.000000,4218.974121,4111.282227,4159.487305,4103.077148,4205.641113,0.000000,3.000000,,,,0.000000,4.000000,4.000000,4.000000,4.000000,4.000000,,,,,,,,,,,,,,,,,,,,,,,,,
1577423281.596282,27.000000,0.000000,4181.025879,4089.743652,4151.794922,4064.615479,4161.025879,0.000000,3.000000,,,,0.000000,4.000000,4.000000,4.000000,4.000000,4.000000,,,,,,,,,,,,,,,,,,,,,,,,,
1577423281.604062,28.000000,0.000000,4199.487305,4108.717773,4171.794922,4068.205078,4190.256348,0.000000,3.000000,,,,0.000000,4.000000,4.000000,4.000000,4.000000,4.000000,,,,,,,,,,,,,,,,,,,,,,,,,
1577423281.611942,29.000000,0.000000,4210.769043,4135.897461,4173.333496,4079.487061,4175.897461,0.000000,3.000000,,,,0.000000,4.000000,4.000000,4.000000,4.000000,4.000000,,,,,,,,,,,,,,,,,,,,,,,,,
1577423281.619722,30.000000,0.000000,4248.717773,4167.179688,4184.615234,4103.589844,4194.871582,0.000000,3.000000,,,,0.000000,4.000000,4.000000,4.000000,4.000000,4.000000,,,,,,,,,,,,,,,,,,,,,,,,,
1577423281.627603,31.000000,0.000000,4237.436035,4140.000000,4172.820313,4110.769043,4206.153809,0.000000,3.000000,,,,0.000000,4.000000,4.000000,4.000000,4.000000,4.000000,,,,,,,,,,,,,,,,,,,,,,,,,
1577423281.635383,32.000000,0.000000,4167.692383,4078.974365,4176.922852,4083.076904,4170.769043,0.000000,3.000000,,,,0.000000,4.000000,4.000000,4.000000,4.000000,4.000000,,,,,,,,,,,,,,,,,,,,,,,,,
1577423281.643263,33.000000,0.000000,4198.461426,4114.358887,4200.512695,4091.281982,4202.563965,0.000000,3.000000,,,,0.000000,4.000000,4.000000,4.000000,4.000000,4.000000,,,,,,,,,,,,,,,,,,,,,,,,,
1577423281.651043,34.000000,0.000000,4249.230957,4178.461426,4209.743652,4121.025879,4220.000000,0.000000,3.000000,,,,0.000000,4.000000,4.000000,4.000000,4.000000,4.000000,,,,,,,,,,,,,,,,,,,,,,,,,
1577423281.658924,35.000000,0.000000,4295.384766,4216.922852,4228.717773,4146.666504,4238.461426,0.000000,3.000000,,,,0.000000,4.000000,4.000000,4.000000,4.000000,4.000000,,,,,,,,,,,,,,,,,,,,,,,,,
1577423281.666704,36.000000,0.000000,4286.153809,4192.307617,4195.897461,4140.000000,4244.102539,0.000000,3.000000,,,,0.000000,4.000000,4.000000,4.000000,4.000000,4.000000,,,,,,,,,,,,,,,,,,,,,,,,,
1577423281.674584,37.000000,0.000000,4200.512695,4124.102539,4167.692383,4098.461426,4192.820313,0.000000,3.000000,,,,0.000000,4.000000,4.000000,4.000000,4.000000,4.000000,55.666290,7.802888,8.608056,10.809529,4.395574,13.231821,1.474304,4.517079,6.828742,2.764040,14.244251,5.819793,5.702255,4.435141,2.257587,37.395412,8.242875,10.464772,8.266831,3.261079,19.051878,5.856030,5.100996,5.402077,3.083118
1577423281.682365,38.000000,0.000000,4220.000000,4146.153809,4207.692383,4106.153809,4209.230957,0.000000,3.000000,,,,0.000000,4.000000,4.000000,4.000000,4.000000,4.000000,,,,,,,,,,,,,,,,,,,,,,,,,
1577423281.690245,39.000000,0.000000,4226.153809,4167.179688,4212.820313,4116.410156,4230.256348,0.000000,3.000000,,,,0.000000,4.000000,4.000000,4.000000,4.000000,4.000000,,,,,,,,,,,,,,,,,,,,,,,,,
1577423281.698025,40.000000,0.000000,4189.743652,4162.563965,4211.282227,4114.358887,4217.436035,0.000000,3.000000,,,,0.000000,4.000000,4.000000,4.000000,4.000000,4.000000,,,,,,,,,,,,,,,,,,,,,,,,,
1577423281.705805,41.000000,0.000000,4229.743652,4187.179688,4217.436035,4130.256348,4215.897461,0.000000,3.000000,,,,0.000000,4.000000,4.000000,4.000000,4.000000,4.000000,,,,,,,,,,,,,,,,,,,,,,,,,
1577423281.713686,42.000000,0.000000,4216.410156,4158.974121,4208.205078,4124.102539,4197.948730,0.000000,3.000000,,,,0.000000,4.000000,4.000000,4.000000,4.000000,4.000000,,,,,,,,,,,,,,,,,,,,,,,,,
1577423281.721566,43.000000,0.000000,4196.410156,4151.794922,4223.589844,4140.000000,4203.589844,0.000000,3.000000,,,,0.000000,4.000000,4.000000,4.000000,4.000000,4.000000,,,,,,,,,,,,,,,,,,,,,,,,,
1577423281.729346,44.000000,0.000000,4189.743652,4131.794922,4193.333496,4116.410156,4196.410156,0.000000,3.000000,,,,0.000000,4.000000,4.000000,4.000000,4.000000,4.000000,,,,,,,,,,,,,,,,,,,,,,,,,
1577423281.737126,45.000000,0.000000,4147.179688,4094.871826,4178.461426,4073.333252,4169.743652,0.000000,3.000000,,,,0.000000,4.000000,4.000000,4.000000,4.000000,4.000000,,,,,,,,,,,,,,,,,,,,,,,,,
1577423281.745007,46.000000,0.000000,4172.307617,4118.974121,4195.384766,4096.410156,4188.717773,0.000000,3.000000,,,,0.000000,4.000000,4.000000,4.000000,4.000000,4.000000,,,,,,,,,,,,,,,,,,,,,,,,,
1577423281.752787,47.000000,0.000000,4220.512695,4094.871826,4167.692383,4096.410156,4214.358887,0.000000,3.000000,,,,0.000000,4.000000,4.000000,4.000000,4.000000,4.000000,,,,,,,,,,,,,,,,,,,,,,,,,
1577423281.760667,48.000000,0.000000,4239.487305,4071.281982,4175.384766,4113.846191,4235.897461,0.000000,3.000000,,,,0.000000,4.000000,4.000000,4.000000,4.000000,4.000000,,,,,,,,,,,,,,,,,,,,,,,,,
1577423281.768447,49.000000,0.000000,4211.282227,4069.743652,4167.179688,4112.820313,4236.922852,0.000000,3.000000,,,,0.000000,4.000000,4.000000,4.000000,4.000000,4.000000,,,,,,,,,,,,,,,,,,,,,,,,,
1577423281.776328,50.000000,0.000000,4156.922852,4052.307617,4171.794922,4078.461426,4234.871582,0.000000,3.000000,,,,0.000000,4.000000,4.000000,4.000000,4.000000,4.000000,,,,,,,,,,,,,,,,,,,,,,,,,
1577423281.784208,51.000000,0.000000,4174.358887,4060.000000,4205.128418,4102.563965,4241.538574,0.000000,3.000000,,,,0.000000,4.000000,4.000000,4.000000,4.000000,4.000000,,,,,,,,,,,,,,,,,,,,,,,,,
1577423281.791988,52.000000,0.000000,4216.410156,4052.820557,4168.717773,4092.307617,4229.743652,0.000000,3.000000,,,,0.000000,4.000000,4.000000,4.000000,4.000000,4.000000,,,,,,,,,,,,,,,,,,,,,,,,,
1577423281.799768,53.000000,0.000000,4232.307617,4081.025635,4164.102539,4093.846191,4254.358887,0.000000,3.000000,,,,0.000000,4.000000,4.000000,4.000000,4.000000,4.000000,42.696045,6.423253,7.639481,10.925535,4.585040,14.753736,1.221712,4.161592,6.678800,2.557554,15.392025,6.831690,5.414702,4.477462,2.242545,56.182182,8.974641,11.274319,8.288783,3.161510,14.847079,6.050057,4.410426,5.879682,3.085711
1577423281.807549,54.000000,0.000000,4236.922852,4143.589844,4186.153809,4125.641113,4268.717773,0.000000,3.000000,,,,0.000000,4.000000,4.000000,4.000000,4.000000,4.000000,,,,,,,,,,,,,,,,,,,,,,,,,
1577423281.815429,55.000000,0.000000,4242.563965,4155.897461,4209.230957,4124.102539,4255.897461,0.000000,3.000000,,,,0.000000,4.000000,4.000000,4.000000,4.000000,4.000000,,,,,,,,,,,,,,,,,,,,,,,,,
1577423281.823309,56.000000,0.000000,4255.384766,4150.769043,4226.666504,4137.948730,4258.974121,0.000000,3.000000,,,,0.000000,4.000000,4.000000,4.000000,4.000000,4.000000,,,,,,,,,,,,,,,,,,,,,,,,,
1577423281.831090,57.000000,0.000000,4228.205078,4138.974121,4185.128418,4106.666504,4233.846191,0.000000,3.000000,,,,0.000000,4.000000,4.000000,4.000000,4.000000,4.000000,,,,,,,,,,,,,,,,,,,,,,,,,
1577423281.838870,58.000000,0.000000,4206.153809,4134.871582,4181.025879,4086.153809,4248.717773,0.000000,3.000000,,,,0.000000,4.000000,4.000000,4.000000,4.000000,4.000000,,,,,,,,,,,,,,,,,,,,,,,,,
1577423281.846750,59.000000,0.000000,4235.897461,4172.820313,4188.717773,4109.743652,4272.820313,0.000000,3.000000,,,,0.000000,4.000000,4.000000,4.000000,4.000000,4.000000,,,,,,,,,,,,,,,,,,,,,,,,,
1577423281.854530,60.000000,0.000000,4251.794922,4209.743652,4178.974121,4090.769287,4252.820313,0.000000,3.000000,,,,0.000000,4.000000,4.000000,4.000000,4.000000,4.000000,,,,,,,,,,,,,,,,,,,,,,,,,
1577423281.862411,61.000000,0.000000,4286.153809,4250.769043,4214.871582,4130.769043,4307.692383,0.000000,3.000000,,,,0.000000,4.000000,4.000000,4.000000,4.000000,4.000000,,,,,,,,,,,,,,,,,,,,,,,,,
1577423281.870191,62.000000,0.000000,4285.128418,4253.846191,4220.512695,4145.128418,4310.769043,0.000000,3.000000,,,,0.000000,4.000000,4.000000,4.000000,4.000000,4.000000,,,,,,,,,,,,,,,,,,,,,,,,,
1577423281.878071,63.000000,0.000000,4217.948730,4212.820313,4185.641113,4065.641113,4250.256348,0.000000,3.000000,,,,0.000000,4.000000,4.000000,4.000000,4.000000,4.000000,,,,,,,,,,,,,,,,,,,,,,,,,
1577423281.885951,64.000000,0.000000,4230.256348,4245.128418,4182.051270,4065.128174,4270.256348,450.000000,3.000000,,,,0.000000,4.000000,4.000000,4.000000,4.000000,4.000000,,,,,,,,,,,,,,,,,,,,,,,,,
1577423281.893732,65.000000,0.000000,4271.794922,4306.153809,4211.794922,4107.692383,4277.948730,450.000000,3.000000,,,,0.000000,4.000000,4.000000,4.000000,4.000000,4.000000,,,,,,,,,,,,,,,,,,,,,,,,,
1577423281.901512,66.000000,0.000000,4274.871582,4324.615234,4223.589844,4129.743652,4280.000000,16087.000000,3.000000,,,,0.000000,4.000000,4.000000,4.000000,4.000000,4.000000,,,,,,,,,,,,,,,,,,,,,,,,,
1577423281.909392,67.000000,0.000000,4234.358887,4296.410156,4193.333496,4123.077148,4263.077148,450.000000,3.000000,,,,0.000000,4.000000,4.000000,4.000000,4.000000,4.000000,,,,,,,,,,,,,,,,,,,,,,,,,
1577423281.917172,68.000000,0.000000,4194.358887,4268.717773,4201.538574,4084.615479,4234.871582,16106.000000,3.000000,,,,0.000000,4.000000,4.000000,4.000000,4.000000,4.000000,,,,,,,,,,,,,,,,,,,,,,,,,
1577423281.925053,69.000000,0.000000,4225.641113,4316.410156,4238.974121,4099.487305,4269.743652,450.000000,3.000000,,,,0.000000,4.000000,4.000000,4.000000,4.000000,4.000000,29.204868,5.211731,6.690298,11.145473,4.897849,14.955198,1.178627,3.876255,6.640934,2.460481,15.164009,7.461690,5.026496,4.651441,2.384341,75.781433,9.507760,11.895727,8.099485,3.358887,11.821828,6.287459,3.773945,6.326667,3.145831
1577423281.932933,70.000000,0.000000,4240.000000,4361.538574,4251.282227,4145.128418,4275.897461,16127.000000,3.000000,,,,0.000000,4.000000,4.000000,4.000000,4.000000,4.000000,,,,,,,,,,,,,,,,,,,,,,,,,
1577423281.940713,71.000000,0.000000,4257.436035,4380.512695,4245.128418,4162.563965,4286.666504,450.000000,3.000000,,,,0.000000,4.000000,4.000000,4.000000,4.000000,4.000000,,,,,,,,,,,,,,,,,,,,,,,,,
1577423281.948494,72.000000,0.000000,4247.179688,4386.666504,4226.153809,4144.102539,4288.205078,450.000000,3.000000,,,,0.000000,4.000000,4.000000,4.000000,4.000000,4.000000,,,,,,,,,,,,,,,,,,,,,,,,,
1577423281.956374,73.000000,0.000000,4187.692383,4395.897461,4249.230957,4109.230957,4247.179688,16080.000000,3.000000,,,,0.000000,4.000000,4.000000,4.000000,4.000000,4.000000,,,,,,,,,,,,,,,,,,,,,,,,,
1577423281.964154,74.000000,0.000000,4201.538574,4434.358887,4257.436035,4092.307617,4245.641113,450.000000,3.000000,,,,0.000000,4.000000,4.000000,4.000000,4.000000,4.000000,,,,,,,,,,,,,,,,,,,,,,,,,
1577423281.972034,75.000000,0.000000,4201.025879,4422.051270,4229.743652,4101.538574,4240.000000,16089.000000,3.000000,,,,0.000000,4.000000,4.000000,4.000000,4.000000,4.000000,,,,,,,,,,,,,,,,,,,,,,,,,
1577423281.979815,76.000000,0.000000,4188.717773,4430.769043,4257.436035,4135.897461,4252.307617,450.000000,3.000000,,,,0.000000,4.000000,4.000000,4.000000,4.000000,4.000000,,,,,,,,,,,,,,,,,,,,,,,,,
1577423281.987695,77.000000,0.000000,4202.563965,4475.384766,4255.384766,4141.538574,4269.743652,450.000000,3.000000,,,,0.000000,4.000000,4.000000,4.000000,4.000000,4.000000,,,,,,,,,,,,,,,,,,,,,,,,,
1577423281.995575,78.000000,0.000000,4195.384766,4455.384766,4241.025879,4127.179688,4259.487305,450.000000,3.000000,,,,0.000000,4.000000,4.000000,4.000000,4.000000,4.000000,,,,,,,,,,,,,,,,,,,,,,,,,
1577423282.003355,79.000000,0.000000,4239.487305,4462.051270,4281.538574,4162.051270,4290.769043,16089.000000,3.000000,,,,0.000000,4.000000,4.000000,4.000000,4.000000,4.000000,,,,,,,,,,,,,,,,,,,,,,,,,
1577423282.011136,80.000000,0.000000,4230.256348,4463.589844,4268.717773,4153.846191,4288.717773,450.000000,3.000000,,,,0.000000,4.000000,4.000000,4.000000,4.000000,4.000000,,,,,,,,,,,,,,,,,,,,,,,,,
1577423282.019016,81.000000,0.000000,4155.897461,4437.948730,4249.743652,4107.179688,4251.794922,450.000000,3.000000,,,,0.000000,4.000000,4.000000,4.000000,4.000000,4.000000,,,,,,,,,,,,,,,,,,,,,,,,,
1577423282.026796,82.000000,0.000000,4168.205078,4447.692383,4251.282227,4108.205078,4257.436035,450.000000,3.000000,,,,0.000000,4.000000,4.000000,4.000000,4.000000,4.000000,,,,,,,,,,,,,,,,,,,,,,,,,
1577423282.034676,83.000000,0.000000,4201.538574,4445.641113,4238.974121,4115.897461,4286.153809,16089.000000,3.000000,,,,0.000000,4.000000,4.000000,4.000000,4.000000,4.000000,,,,,,,,,,,,,,,,,,,,,,,,,
1577423282.042457,84.000000,0.000000,4220.512695,4474.358887,4251.282227,4123.077148,4314.871582,450.000000,3.000000,,,,0.000000,4.000000,4.000000,4.000000,4.000000,4.000000,,,,,,,,,,,,,,,,,,,,,,,,,
1577423282.050337,85.000000,0.000000,4205.641113,4486.666504,4231.794922,4084.615479,4307.692383,450.000000,3.000000,,,,0.000000,4.000000,4.000000,4.000000,4.000000,4.000000,18.429121,4.388951,5.794861,11.630239,5.307038,13.251307,1.364110,3.756351,6.939157,2.520727,13.518094,7.458550,4.547195,4.931693,2.642993,90.280952,9.473010,12.052010,7.799346,3.769780,9.852567,6.343999,3.212763,6.701593,3.285620
1577423282.058117,86.000000,0.000000,4154.358887,4447.179688,4245.641113,4062.051270,4292.307617,450.000000,3.000000,,,,0.000000,4.000000,4.000000,4.000000,4.000000,4.000000,,,,,,,,,,,,,,,,,,,,,,,,,
1577423282.065997,87.000000,0.000000,4165.641113,4445.128418,4278.974121,4111.282227,4298.461426,16089.000000,3.000000,,,,0.000000,4.000000,4.000000,4.000000,4.000000,4.000000,,,,,,,,,,,,,,,,,,,,,,,,,
1577423282.073778,88.000000,0.000000,4200.000000,4446.153809,4234.358887,4092.307617,4297.948730,450.000000,3.000000,,,,0.000000,4.000000,4.000000,4.000000,4.000000,4.000000,,,,,,,,,,,,,,,,,,,,,,,,,
1577423282.081558,89.000000,0.000000,4225.641113,4470.769043,4231.794922,4091.281982,4315.897461,450.000000,3.000000,,,,0.000000,4.000000,4.000000,4.000000,4.000000,4.000000,,,,,,,,,,,,,,,,,,,,,,,,,
1577423282.089438,90.000000,0.000000,4216.410156,4480.000000,4220.512695,4104.615234,4298.461426,450.000000,3.000000,,,,0.000000,4.000000,4.000000,4.000000,4.000000,4.000000,,,,,,,,,,,,,,,,,,,,,,,,,
1577423282.097318,91.000000,0.000000,4175.897461,4447.179688,4211.282227,4078.461426,4270.769043,16089.000000,3.000000,,,,0.000000,4.000000,4.000000,4.000000,4.000000,4.000000,,,,,,,,,,,,,,,,,,,,,,,,,
1577423282.105199,92.000000,0.000000,4185.641113,4460.000000,4245.641113,4110.769043,4294.358887,450.000000,3.000000,,,,0.000000,4.000000,4.000000,4.000000,4.000000,4.000000,,,,,,,,,,,,,,,,,,,,,,,,,
1577423282.113079,93.000000,0.000000,4194.358887,4461.025879,4203.077148,4089.743652,4283.077148,450.000000,3.000000,,,,0.000000,4.000000,4.000000,4.000000,4.000000,4.000000,,,,,,,,,,,,,,,,,,,,,,,,,
1577423282.120859,94.000000,0.000000,4206.666504,4452.307617,4180.512695,4067.179443,4277.948730,450.000000,3.000000,,,,0.000000,4.000000,4.000000,4.000000,4.000000,4.000000,,,,,,,,,,,,,,,,,,,,,,,,,
1577423282.128640,95.000000,0.000000,4254.871582,4460.000000,4202.051270,4105.641113,4294.358887,16089.000000,3.000000,,,,0.000000,4.000000,4.000000,4.000000,4.000000,4.000000,,,,,,,,,,,,,,,,,,,,,,,,,
1577423282.136520,96.000000,0.000000,4248.205078,4435.897461,4208.717773,4080.000000,4281.538574,450.000000,3.000000,,,,0.000000,4.000000,4.000000,4.000000,4.000000,4.000000,,,,,,,,,,,,,,,,,,,,,,,,,
1577423282.144300,97.000000,0.000000,4230.256348,4445.641113,4225.128418,4070.769287,4293.846191,450.000000,3.000000,,,,0.000000,4.000000,4.000000,4.000000,4.000000,4.000000,,,,,,,,,,,,,,,,,,,,,,,,,
1577423282.152180,98.000000,0.000000,4213.846191,4438.974121,4193.846191,4055.384521,4258.461426,450.000000,3.000000,,,,0.000000,4.000000,4.000000,4.000000,4.000000,4.000000,,,,,,,,,,,,,,,,,,,,,,,,,
1577423282.159961,99.000000,0.000000,4202.051270,4402.051270,4185.641113,4034.871826,4239.487305,16089.000000,3.000000,,,,0.000000,4.000000,4.000000,4.000000,4.000000,4.000000,,,,,,,,,,,,,,,,,,,,,,,,,
1577423282.167841,100.000000,0.000000,4263.077148,4433.846191,4235.384766,4093.846191,4301.025879,450.000000,3.000000,,,,0.000000,4.000000,4.000000,4.000000,4.000000,4.000000,,,,,,,,,,,,,,,,,,,,,,,,,
1577423282.175621,101.000000,0.000000,4283.077148,4443.077148,4247.692383,4110.256348,4295.897461,450.000000,3.000000,,,,0.000000,4.000000,4.000000,4.000000,4.000000,4.000000,11.770756,4.028986,4.982880,12.457603,5.735030,11.733020,1.728880,3.799615,7.690417,2.731297,10.927424,6.776558,4.019361,5.199797,2.924898,94.657669,8.656473,11.541862,7.521715,4.215110,8.615942,6.176966,2.763918,6.937150,3.471308
1577423282.183501,102.000000,0.000000,4245.128418,4410.769043,4211.282227,4075.897461,4253.846191,450.000000,3.000000,,,,0.000000,4.000000,4.000000,4.000000,4.000000,4.000000,,,,,,,,,,,,,,,,,,,,,,,,,
1577423282.191282,103.000000,0.000000,4212.307617,4392.307617,4181.025879,4058.461426,4207.179688,16089.000000,3.000000,,,,0.000000,4.000000,4.000000,4.000000,4.000000,4.000000,,,,,,,,,,,,,,,,,,,,,,,,,
1577423282.199162,104.000000,0.000000,4185.128418,4356.410156,4200.512695,4054.358887,4200.000000,450.000000,3.000000,,,,0.000000,4.000000,4.000000,4.000000,4.000000,4.000000,,,,,,,,,,,,,,,,,,,,,,,,,
1577423282.206942,105.000000,0.000000,4207.179688,4344.102539,4222.051270,4086.153809,4252.307617,450.000000,3.000000,,,,0.000000,4.000000,4.000000,4.000000,4.000000,4.000000,,,,,,,,,,,,,,,,,,,,,,,,,
1577423282.214822,106.000000,0.000000,4240.000000,4375.897461,4226.666504,4105.641113,4248.717773,450.000000,3.000000,,,,0.000000,4.000000,4.000000,4.000000,4.000000,4.000000,,,,,,,,,,,,,,,,,,,,,,,,,
1577423282.222603,107.000000,0.000000,4268.717773,4390.256348,4221.025879,4097.948730,4253.333496,16089.000000,3.000000,,,,0.000000,4.000000,4.000000,4.000000,4.000000,4.000000,,,,,,,,,,,,,,,,,,,,,,,,,
1577423282.230483,108.000000,0.000000,4240.000000,4334.358887,4194.358887,4077.435791,4244.102539,450.000000,3.000000,,,,0.000000,4.000000,4.000000,4.000000,4.000000,4.000000,,,,,,,,,,,,,,,,,,,,,,,,,
1577423282.238263,109.000000,0.000000,4202.051270,4301.025879,4235.384766,4077.948730,4234.871582,450.000000,3.000000,,,,0.000000,4.000000,4.000000,4.000000,4.000000,4.000000,,,,,,,,,,,,,,,,,,,,,,,,,
1577423282.246143,110.000000,0.000000,4247.179688,4338.974121,4283.077148,4127.692383,4293.846191,450.000000,3.000000,,,,0.000000,4.000000,4.000000,4.000000,4.000000,4.000000,,,,,,,,,,,,,,,,,,,,,,,,,
1577423282.253924,111.000000,0.000000,4244.615234,4323.589844,4248.205078,4133.333496,4272.307617,16089.000000,3.000000,,,,0.000000,4.000000,4.000000,4.000000,4.000000,4.000000,,,,,,,,,,,,,,,,,,,,,,,,,
1577423282.261704,112.000000,0.000000,4264.615234,4306.666504,4243.077148,4115.384766,4256.922852,450.000000,3.000000,,,,0.000000,4.000000,4.000000,4.000000,4.000000,4.000000,,,,,,,,,,,,,,,,,,,,,,,,,
1577423282.269584,113.000000,0.000000,4301.025879,4326.153809,4257.436035,4128.717773,4282.563965,450.000000,3.000000,,,,0.000000,4.000000,4.000000,4.000000,4.000000,4.000000,,,,,,,,,,,,,,,,,,,,,,,,,
1577423282.277464,114.000000,0.000000,4238.974121,4294.358887,4255.897461,4118.974121,4235.897461,450.000000,3.000000,,,,0.000000,4.000000,4.000000,4.000000,4.000000,4.000000,,,,,,,,,,,,,,,,,,,,,,,,,
1577423282.285245,115.000000,0.000000,4231.794922,4261.025879,4256.410156,4110.769043,4220.512695,16089.000000,3.000000,,,,0.000000,4.000000,4.000000,4.000000,4.000000,4.000000,,,,,,,,,,,,,,,,,,,,,,,,,
1577423282.293025,116.000000,0.000000,4226.666504,4229.743652,4225.128418,4108.717773,4226.666504,450.000000,3.000000,,,,0.000000,4.000000,4.000000,4.000000,4.000000,4.000000,,,,,,,,,,,,,,,,,,,,,,,,,
1577423282.300805,117.000000,0.000000,4187.692383,4214.358887,4212.820313,4115.384766,4219.487305,450.000000,3.000000,,,,0.000000,4.000000,4.000000,4.000000,4.000000,4.000000,8.890876,3.973765,4.272032,13.498566,6.056792,11.344527,2.145363,3.891579,8.776090,3.022775,8.187782,5.581648,3.479290,5.337727,3.121397,86.770111,7.159209,10.326969,7.360430,4.504062,7.968586,5.802732,2.449469,6.971024,3.615576
1577423282.308686,118.000000,0.000000,4201.538574,4213.846191,4200.512695,4129.230957,4218.974121,450.000000,3.000000,,,,0.000000,4.000000,4.000000,4.000000,4.000000,4.000000,,,,,,,,,,,,,,,,,,,,,,,,,
