title:ang4, start timestamp:2019-12-27T07:44:02.961412+03:00, stop timestamp:2019-12-27T07:44:33.539242+03:00, headset type:INSIGHT, headset serial:A2D200FB, headset firmware:930, subject name:Qasim, channels:44, sampling rate:eeg_128;pow_8, samples:3928      , version:2.0
Timestamp,EEG.Counter,EEG.Interpolated,EEG.AF3,EEG.T7,EEG.Pz,EEG.T8,EEG.AF4,EEG.RawCq,EEG.Battery,MarkerIndex,MarkerType,MarkerValueInt,EEG.MarkerHardware,CQ.AF3,CQ.T7,CQ.Pz,CQ.T8,CQ.AF4,POW.AF3.Theta,POW.AF3.Alpha,POW.AF3.BetaL,POW.AF3.BetaH,POW.AF3.Gamma,POW.T7.Theta,POW.T7.Alpha,POW.T7.BetaL,POW.T7.BetaH,POW.T7.Gamma,POW.Pz.Theta,POW.Pz.Alpha,POW.Pz.BetaL,POW.Pz.BetaH,POW.Pz.Gamma,POW.T8.Theta,POW.T8.Alpha,POW.T8.BetaL,POW.T8.BetaH,POW.T8.Gamma,POW.AF4.Theta,POW.AF4.Alpha,POW.AF4.BetaL,POW.AF4.BetaH,POW.AF4.Gamma
1577421842.961412,70.000000,0.000000,4071.794922,4420.512695,4130.256348,4047.179443,4194.871582,174.000000,4.000000,,,,0.000000,4.000000,4.000000,2.000000,4.000000,4.000000,,,,,,,,,,,,,,,,,,,,,,,,,
1577421842.969152,71.000000,0.000000,4115.384766,4462.563965,4146.666504,4103.589844,4246.153809,450.000000,4.000000,,,,0.000000,4.000000,4.000000,2.000000,4.000000,4.000000,,,,,,,,,,,,,,,,,,,,,,,,,
1577421842.976899,72.000000,0.000000,4124.102539,4467.692383,4090.256348,4061.538574,4229.230957,450.000000,4.000000,,,,0.000000,4.000000,4.000000,2.000000,4.000000,4.000000,,,,,,,,,,,,,,,,,,,,,,,,,
1577421842.984745,73.000000,0.000000,4121.538574,4443.077148,4145.128418,4077.435791,4234.358887,290.000000,4.000000,,,,0.000000,4.000000,4.000000,2.000000,4.000000,4.000000,,,,,,,,,,,,,,,,,,,,,,,,,
1577421842.992491,74.000000,0.000000,4128.205078,4432.820313,4132.820313,4089.230713,4237.436035,450.000000,4.000000,,,,0.000000,4.000000,4.000000,2.000000,4.000000,4.000000,,,,,,,,,,,,,,,,,,,,,,,,,
1577421843.000337,75.000000,0.000000,4129.230957,4440.000000,4127.692383,4092.820557,4234.358887,16080.000000,4.000000,,,,0.000000,4.000000,4.000000,2.000000,4.000000,4.000000,,,,,,,,,,,,,,,,,,,,,,,,,
1577421843.008082,76.000000,0.000000,4132.307617,4449.230957,4130.256348,4100.000000,4238.974121,450.000000,4.000000,,,,0.000000,4.000000,4.000000,2.000000,4.000000,4.000000,,,,,,,,,,,,,,,,,,,,,,,,,
1577421843.015927,77.000000,0.000000,4119.487305,4435.897461,4133.333496,4094.358887,4233.333496,450.000000,4.000000,,,,0.000000,4.000000,4.000000,2.000000,4.000000,4.000000,,,,,,,,,,,,,,,,,,,,,,,,,
1577421843.023704,78.000000,1.000000,4117.663574,4429.686523,4131.794922,4095.897461,4231.737793,450.000000,4.000000,,,,0.000000,4.000000,4.000000,2.000000,4.000000,4.000000,,,,,,,,,,,,,,,,,,,,,,,,,
1577421843.031581,79.000000,1.000000,4115.840332,4423.475586,4130.256348,4097.436035,4230.142578,16075.000000,4.000000,,,,0.000000,4.000000,4.000000,2.000000,4.000000,4.000000,,,,,,,,,,,,,,,,,,,,,,,,,
1577421843.039458,80.000000,1.000000,4114.017090,4417.265137,4128.717773,4098.974121,4228.546875,450.000000,4.000000,,,,0.000000,4.000000,4.000000,2.000000,4.000000,4.000000,,,,,,,,,,,,,,,,,,,,,,,,,
1577421843.047335,81.000000,1.000000,4112.193848,4411.054199,4127.179688,4100.512695,4226.951660,450.000000,4.000000,,,,0.000000,4.000000,4.000000,2.000000,4.000000,4.000000,28.780205,17.500252,9.601946,11.732165,46.168453,25.992680,21.116962,17.432602,12.045339,36.600353,30.587673,6.651925,2.715104,14.270228,111.113365,16.948257,12.674545,10.786765,17.199692,125.645157,42.921951,13.032804,5.173468,2.394517,41.134842
1577421843.055212,82.000000,1.000000,4110.370605,4404.843262,4125.641113,4102.051270,4225.355957,450.000000,4.000000,,,,0.000000,4.000000,4.000000,2.000000,4.000000,4.000000,,,,,,,,,,,,,,,,,,,,,,,,,
1577421843.063088,83.000000,1.000000,4108.546875,4398.632324,4124.102539,4103.589844,4223.760742,450.000000,4.000000,,,,0.000000,4.000000,4.000000,2.000000,4.000000,4.000000,,,,,,,,,,,,,,,,,,,,,,,,,
1577421843.070965,84.000000,1.000000,4106.723633,4392.421875,4122.563965,4105.128418,4222.165039,450.000000,4.000000,,,,0.000000,4.000000,4.000000,2.000000,4.000000,4.000000,,,,,,,,,,,,,,,,,,,,,,,,,
1577421843.078842,85.000000,1.000000,4104.900391,4386.210938,4121.025879,4106.666504,4220.569824,450.000000,4.000000,,,,0.000000,4.000000,4.000000,2.000000,4.000000,4.000000,,,,,,,,,,,,,,,,,,,,,,,,,
1577421843.086719,86.000000,0.000000,4103.077148,4380.000000,4119.487305,4108.205078,4218.974121,450.000000,4.000000,,,,0.000000,4.000000,4.000000,2.000000,4.000000,4.000000,,,,,,,,,,,,,,,,,,,,,,,,,
1577421843.094456,87.000000,0.000000,4087.692383,4376.922852,4109.230957,4112.307617,4201.538574,16080.000000,4.000000,,,,0.000000,4.000000,4.000000,2.000000,4.000000,4.000000,,,,,,,,,,,,,,,,,,,,,,,,,
1577421843.102294,88.000000,0.000000,4090.769287,4377.436035,4111.282227,4097.436035,4205.128418,450.000000,4.000000,,,,0.000000,4.000000,4.000000,2.000000,4.000000,4.000000,,,,,,,,,,,,,,,,,,,,,,,,,
1577421843.110131,89.000000,0.000000,4111.282227,4380.512695,4118.974121,4088.205078,4224.102539,450.000000,4.000000,,,,0.000000,4.000000,4.000000,2.000000,4.000000,4.000000,,,,,,,,,,,,,,,,,,,,,,,,,
1577421843.117968,90.000000,0.000000,4112.307617,4376.410156,4124.615234,4110.256348,4223.589844,450.000000,4.000000,,,,0.000000,4.000000,4.000000,2.000000,4.000000,4.000000,,,,,,,,,,,,,,,,,,,,,,,,,
1577421843.125705,91.000000,0.000000,4103.589844,4378.461426,4116.922852,4122.563965,4212.307617,16080.000000,4.000000,,,,0.000000,4.000000,4.000000,2.000000,4.000000,4.000000,,,,,,,,,,,,,,,,,,,,,,,,,
1577421843.133446,92.000000,0.000000,4103.589844,4375.897461,4108.717773,4105.128418,4208.205078,450.000000,4.000000,,,,0.000000,4.000000,4.000000,2.000000,4.000000,4.000000,,,,,,,,,,,,,,,,,,,,,,,,,
1577421843.141287,93.000000,0.000000,4119.487305,4374.871582,4118.974121,4115.897461,4224.615234,450.000000,4.000000,,,,0.000000,4.000000,4.000000,2.000000,4.000000,4.000000,,,,,,,,,,,,,,,,,,,,,,,,,
1577421843.149128,94.000000,0.000000,4136.410156,4389.743652,4128.205078,4137.948730,4242.051270,450.000000,4.000000,,,,0.000000,4.000000,4.000000,2.000000,4.000000,4.000000,,,,,,,,,,,,,,,,,,,,,,,,,
1577421843.156969,95.000000,0.000000,4138.461426,4392.820313,4124.102539,4134.871582,4239.487305,16080.000000,4.000000,,,,0.000000,4.000000,4.000000,2.000000,4.000000,4.000000,,,,,,,,,,,,,,,,,,,,,,,,,
1577421843.164699,96.000000,0.000000,4138.974121,4382.563965,4122.563965,4134.871582,4230.256348,450.000000,4.000000,,,,0.000000,4.000000,4.000000,2.000000,4.000000,4.000000,,,,,,,,,,,,,,,,,,,,,,,,,
1577421843.172528,97.000000,0.000000,4139.487305,4373.333496,4125.641113,4137.436035,4221.538574,450.000000,4.000000,,,,0.000000,4.000000,4.000000,2.000000,4.000000,4.000000,28.596464,20.523104,9.333068,12.908757,47.262161,23.071091,18.648603,16.685741,12.357911,37.622459,29.451185,7.415559,5.049756,19.544128,120.037872,14.007896,13.846942,12.019789,22.214094,131.491257,24.484522,11.899271,4.802238,2.407178,43.008888
1577421843.180258,98.000000,0.000000,4135.897461,4363.589844,4128.205078,4144.102539,4220.512695,450.000000,4.000000,,,,0.000000,4.000000,4.000000,2.000000,4.000000,4.000000,,,,,,,,,,,,,,,,,,,,,,,,,
1577421843.187992,99.000000,0.000000,4129.743652,4357.436035,4124.102539,4148.717773,4218.461426,16080.000000,4.000000,,,,0.000000,4.000000,4.000000,2.000000,4.000000,4.000000,,,,,,,,,,,,,,,,,,,,,,,,,
1577421843.195743,100.000000,0.000000,4132.820313,4361.025879,4117.436035,4143.589844,4220.512695,450.000000,4.000000,,,,0.000000,4.000000,4.000000,2.000000,4.000000,4.000000,,,,,,,,,,,,,,,,,,,,,,,,,
1577421843.203698,101.000000,1.000000,4136.979980,4364.273438,4118.518555,4144.045410,4221.937500,450.000000,4.000000,,,,0.000000,4.000000,4.000000,2.000000,4.000000,4.000000,,,,,,,,,,,,,,,,,,,,,,,,,
1577421843.211553,102.000000,1.000000,4141.139648,4367.521484,4119.601074,4144.501465,4223.361816,450.000000,4.000000,,,,0.000000,4.000000,4.000000,2.000000,4.000000,4.000000,,,,,,,,,,,,,,,,,,,,,,,,,
1577421843.219409,103.000000,1.000000,4145.299316,4370.769043,4120.683594,4144.957031,4224.786133,450.000000,4.000000,,,,0.000000,4.000000,4.000000,2.000000,4.000000,4.000000,,,,,,,,,,,,,,,,,,,,,,,,,
1577421843.227264,104.000000,1.000000,4149.458496,4374.017090,4121.766602,4145.413086,4226.210938,450.000000,4.000000,,,,0.000000,4.000000,4.000000,2.000000,4.000000,4.000000,,,,,,,,,,,,,,,,,,,,,,,,,
1577421843.235120,105.000000,1.000000,4153.618164,4377.265137,4122.849121,4145.869141,4227.635254,450.000000,4.000000,,,,0.000000,4.000000,4.000000,2.000000,4.000000,4.000000,,,,,,,,,,,,,,,,,,,,,,,,,
1577421843.242975,106.000000,1.000000,4157.777832,4380.512695,4123.931641,4146.324707,4229.060059,450.000000,4.000000,,,,0.000000,4.000000,4.000000,2.000000,4.000000,4.000000,,,,,,,,,,,,,,,,,,,,,,,,,
1577421843.250830,107.000000,1.000000,4161.937500,4383.760742,4125.014160,4146.780762,4230.484375,450.000000,4.000000,,,,0.000000,4.000000,4.000000,2.000000,4.000000,4.000000,,,,,,,,,,,,,,,,,,,,,,,,,
1577421843.258686,108.000000,1.000000,4166.096680,4387.008789,4126.096680,4147.236328,4231.908691,450.000000,4.000000,,,,0.000000,4.000000,4.000000,2.000000,4.000000,4.000000,,,,,,,,,,,,,,,,,,,,,,,,,
1577421843.266541,109.000000,0.000000,4170.256348,4390.256348,4127.179688,4147.692383,4233.333496,450.000000,4.000000,,,,0.000000,4.000000,4.000000,2.000000,4.000000,4.000000,,,,,,,,,,,,,,,,,,,,,,,,,
1577421843.274397,110.000000,0.000000,4167.179688,4389.743652,4114.871582,4143.077148,4226.153809,450.000000,4.000000,,,,0.000000,4.000000,4.000000,2.000000,4.000000,4.000000,,,,,,,,,,,,,,,,,,,,,,,,,
1577421843.282107,111.000000,0.000000,4163.589844,4382.051270,4105.641113,4133.846191,4219.487305,16080.000000,4.000000,,,,0.000000,4.000000,4.000000,2.000000,4.000000,4.000000,,,,,,,,,,,,,,,,,,,,,,,,,
1577421843.289823,112.000000,0.000000,4185.128418,4391.282227,4131.794922,4157.948730,4242.051270,450.000000,4.000000,,,,0.000000,4.000000,4.000000,2.000000,4.000000,4.000000,,,,,,,,,,,,,,,,,,,,,,,,,
1577421843.297639,113.000000,0.000000,4203.589844,4412.820313,4137.948730,4161.538574,4250.769043,450.000000,4.000000,,,,0.000000,4.000000,4.000000,2.000000,4.000000,4.000000,27.259392,22.717539,8.182085,12.804502,45.786701,20.760992,15.776759,14.194029,11.378693,36.498432,25.377739,9.684585,9.730157,26.940903,131.946777,10.622805,14.452636,13.212878,27.345013,133.341354,19.056133,10.599643,4.363913,2.702313,44.313793
1577421843.305454,114.000000,0.000000,4207.692383,4418.461426,4133.846191,4167.179688,4258.974121,450.000000,4.000000,,,,0.000000,4.000000,4.000000,2.000000,4.000000,4.000000,,,,,,,,,,,,,,,,,,,,,,,,,
1577421843.313175,115.000000,0.000000,4216.410156,4419.487305,4140.512695,4175.897461,4271.282227,16080.000000,4.000000,,,,0.000000,4.000000,4.000000,2.000000,4.000000,4.000000,,,,,,,,,,,,,,,,,,,,,,,,,
1577421843.320900,116.000000,0.000000,4210.256348,4417.948730,4138.974121,4146.666504,4253.333496,450.000000,4.000000,,,,0.000000,4.000000,4.000000,2.000000,4.000000,4.000000,,,,,,,,,,,,,,,,,,,,,,,,,
1577421843.328725,117.000000,0.000000,4212.307617,4414.358887,4144.615234,4163.589844,4260.000000,450.000000,4.000000,,,,0.000000,4.000000,4.000000,2.000000,4.000000,4.000000,,,,,,,,,,,,,,,,,,,,,,,,,
1577421843.336550,118.000000,0.000000,4234.358887,4415.384766,4151.282227,4182.051270,4271.794922,450.000000,4.000000,,,,0.000000,4.000000,4.000000,2.000000,4.000000,4.000000,,,,,,,,,,,,,,,,,,,,,,,,,
1577421843.344269,119.000000,0.000000,4235.384766,4410.256348,4149.743652,4179.487305,4277.436035,16080.000000,4.000000,,,,0.000000,4.000000,4.000000,2.000000,4.000000,4.000000,,,,,,,,,,,,,,,,,,,,,,,,,
1577421843.352089,120.000000,0.000000,4215.384766,4396.410156,4135.384766,4176.922852,4268.717773,450.000000,4.000000,,,,0.000000,4.000000,4.000000,2.000000,4.000000,4.000000,,,,,,,,,,,,,,,,,,,,,,,,,
1577421843.359808,121.000000,0.000000,4203.077148,4386.153809,4122.051270,4145.641113,4232.307617,450.000000,4.000000,,,,0.000000,4.000000,4.000000,2.000000,4.000000,4.000000,,,,,,,,,,,,,,,,,,,,,,,,,
1577421843.367627,122.000000,0.000000,4225.641113,4386.666504,4137.436035,4181.538574,4263.589844,450.000000,4.000000,,,,0.000000,4.000000,4.000000,2.000000,4.000000,4.000000,,,,,,,,,,,,,,,,,,,,,,,,,
1577421843.375346,123.000000,0.000000,4254.358887,4386.153809,4146.666504,4208.717773,4284.615234,16080.000000,4.000000,,,,0.000000,4.000000,4.000000,2.000000,4.000000,4.000000,,,,,,,,,,,,,,,,,,,,,,,,,
1577421843.383069,124.000000,0.000000,4245.128418,4376.922852,4136.410156,4178.974121,4257.948730,450.000000,4.000000,,,,0.000000,4.000000,4.000000,2.000000,4.000000,4.000000,,,,,,,,,,,,,,,,,,,,,,,,,
1577421843.390797,125.000000,0.000000,4229.230957,4365.641113,4128.717773,4181.538574,4256.410156,450.000000,4.000000,,,,0.000000,4.000000,4.000000,2.000000,4.000000,4.000000,,,,,,,,,,,,,,,,,,,,,,,,,
1577421843.398625,126.000000,0.000000,4262.563965,4368.717773,4145.128418,4181.025879,4258.461426,450.000000,4.000000,,,,0.000000,4.000000,4.000000,2.000000,4.000000,4.000000,,,,,,,,,,,,,,,,,,,,,,,,,
1577421843.406353,127.000000,0.000000,4306.153809,4372.820313,4167.692383,4216.922852,4304.615234,234.000000,4.000000,,,,0.000000,4.000000,4.000000,2.000000,4.000000,4.000000,,,,,,,,,,,,,,,,,,,,,,,,,
1577421843.414182,0.000000,0.000000,4303.589844,4341.538574,4156.922852,4228.717773,4316.410156,450.000000,4.000000,,,,0.000000,4.000000,4.000000,2.000000,4.000000,4.000000,,,,,,,,,,,,,,,,,,,,,,,,,
1577421843.421909,1.000000,0.000000,4293.846191,4303.589844,4144.615234,4192.307617,4271.794922,450.000000,4.000000,,,,0.000000,4.000000,4.000000,2.000000,4.000000,4.000000,24.393787,23.744942,6.686682,11.612028,44.839920,18.460222,12.976623,10.907654,9.555357,35.543301,20.304554,13.659661,16.817083,36.784683,156.325638,8.164310,14.892125,14.739507,32.487221,140.434906,17.007818,9.037074,4.024350,3.271787,48.225628
1577421843.429737,2.000000,0.000000,4298.974121,4295.897461,4147.179688,4214.358887,4288.205078,16196.000000,4.000000,,,,0.000000,4.000000,4.000000,2.000000,4.000000,4.000000,,,,,,,,,,,,,,,,,,,,,,,,,
1577421843.437474,3.000000,0.000000,4300.000000,4292.820313,4146.666504,4205.641113,4312.820313,450.000000,4.000000,,,,0.000000,4.000000,4.000000,2.000000,4.000000,4.000000,,,,,,,,,,,,,,,,,,,,,,,,,
1577421843.445216,4.000000,0.000000,4293.333496,4277.948730,4156.922852,4186.666504,4300.512695,16174.000000,4.000000,,,,0.000000,4.000000,4.000000,2.000000,4.000000,4.000000,,,,,,,,,,,,,,,,,,,,,,,,,
1577421843.453059,5.000000,0.000000,4282.051270,4256.922852,4158.974121,4202.563965,4296.410156,450.000000,4.000000,,,,0.000000,4.000000,4.000000,2.000000,4.000000,4.000000,,,,,,,,,,,,,,,,,,,,,,,,,
1577421843.460800,6.000000,0.000000,4277.948730,4233.846191,4150.256348,4191.794922,4293.333496,16095.000000,4.000000,,,,0.000000,4.000000,4.000000,4.000000,4.000000,4.000000,,,,,,,,,,,,,,,,,,,,,,,,,
1577421843.468642,7.000000,0.000000,4274.358887,4210.769043,4147.692383,4194.358887,4263.589844,450.000000,4.000000,,,,0.000000,4.000000,4.000000,4.000000,4.000000,4.000000,,,,,,,,,,,,,,,,,,,,,,,,,
1577421843.476483,8.000000,0.000000,4274.358887,4190.769043,4142.563965,4198.974121,4256.410156,450.000000,4.000000,,,,0.000000,4.000000,4.000000,4.000000,4.000000,4.000000,,,,,,,,,,,,,,,,,,,,,,,,,
1577421843.484219,9.000000,0.000000,4289.743652,4172.820313,4155.384766,4212.820313,4274.358887,16144.000000,4.000000,,,,0.000000,4.000000,4.000000,4.000000,4.000000,4.000000,,,,,,,,,,,,,,,,,,,,,,,,,
1577421843.491960,10.000000,0.000000,4298.974121,4145.128418,4159.487305,4240.000000,4269.743652,450.000000,4.000000,,,,0.000000,4.000000,4.000000,4.000000,4.000000,4.000000,,,,,,,,,,,,,,,,,,,,,,,,,
1577421843.499801,11.000000,0.000000,4281.025879,4115.384766,4134.358887,4217.948730,4258.974121,16193.000000,4.000000,,,,0.000000,4.000000,4.000000,4.000000,4.000000,4.000000,,,,,,,,,,,,,,,,,,,,,,,,,
1577421843.507642,12.000000,0.000000,4266.666504,4097.436035,4128.205078,4201.025879,4240.512695,450.000000,4.000000,,,,0.000000,4.000000,4.000000,4.000000,4.000000,4.000000,,,,,,,,,,,,,,,,,,,,,,,,,
1577421843.515377,13.000000,0.000000,4285.641113,4085.128174,4137.436035,4222.563965,4250.769043,450.000000,4.000000,,,,0.000000,4.000000,4.000000,4.000000,4.000000,4.000000,,,,,,,,,,,,,,,,,,,,,,,,,
1577421843.523117,14.000000,0.000000,4299.487305,4074.871826,4143.589844,4230.256348,4267.179688,450.000000,4.000000,,,,0.000000,4.000000,4.000000,4.000000,4.000000,4.000000,,,,,,,,,,,,,,,,,,,,,,,,,
1577421843.530957,15.000000,0.000000,4273.846191,4061.025635,4136.922852,4217.948730,4231.282227,16193.000000,4.000000,,,,0.000000,4.000000,4.000000,4.000000,4.000000,4.000000,,,,,,,,,,,,,,,,,,,,,,,,,
1577421843.538696,16.000000,0.000000,4265.128418,4050.769287,4130.769043,4223.077148,4215.897461,0.000000,4.000000,,,,0.000000,4.000000,4.000000,4.000000,4.000000,4.000000,,,,,,,,,,,,,,,,,,,,,,,,,
1577421843.546536,17.000000,0.000000,4291.794922,4049.230713,4151.282227,4248.717773,4237.948730,0.000000,4.000000,,,,0.000000,4.000000,4.000000,4.000000,4.000000,4.000000,20.024265,23.352757,5.386359,9.788817,46.330887,15.068915,10.678335,7.914759,7.502586,36.245602,16.086462,18.590633,25.105551,47.826817,194.282944,6.868752,15.395876,16.578966,37.080280,156.949020,14.424951,7.524845,3.938220,4.036491,55.871716
1577421843.554275,18.000000,0.000000,4300.000000,4032.820557,4154.358887,4253.333496,4239.487305,0.000000,4.000000,,,,0.000000,4.000000,4.000000,4.000000,4.000000,4.000000,,,,,,,,,,,,,,,,,,,,,,,,,
1577421843.562114,19.000000,0.000000,4298.974121,4006.666748,4143.077148,4250.769043,4235.897461,0.000000,4.000000,,,,0.000000,4.000000,4.000000,4.000000,4.000000,4.000000,,,,,,,,,,,,,,,,,,,,,,,,,
1577421843.569852,20.000000,0.000000,4312.307617,3998.974365,4151.282227,4264.102539,4241.025879,0.000000,4.000000,,,,0.000000,4.000000,4.000000,4.000000,4.000000,4.000000,,,,,,,,,,,,,,,,,,,,,,,,,
1577421843.577595,21.000000,0.000000,4305.128418,3989.230713,4136.410156,4249.743652,4223.589844,0.000000,4.000000,,,,0.000000,4.000000,4.000000,4.000000,4.000000,4.000000,,,,,,,,,,,,,,,,,,,,,,,,,
1577421843.585439,22.000000,0.000000,4277.948730,3932.820557,4115.897461,4221.025879,4197.948730,0.000000,4.000000,,,,0.000000,4.000000,4.000000,4.000000,4.000000,4.000000,,,,,,,,,,,,,,,,,,,,,,,,,
1577421843.593181,23.000000,0.000000,4275.384766,3853.846191,4117.436035,4225.128418,4197.436035,0.000000,4.000000,,,,0.000000,4.000000,4.000000,4.000000,4.000000,4.000000,,,,,,,,,,,,,,,,,,,,,,,,,
1577421843.601024,24.000000,0.000000,4292.307617,3818.461426,4119.487305,4238.974121,4213.333496,0.000000,4.000000,,,,0.000000,4.000000,4.000000,4.000000,4.000000,4.000000,,,,,,,,,,,,,,,,,,,,,,,,,
1577421843.608767,25.000000,0.000000,4297.436035,3823.076904,4127.692383,4246.153809,4222.563965,0.000000,4.000000,,,,0.000000,4.000000,4.000000,4.000000,4.000000,4.000000,,,,,,,,,,,,,,,,,,,,,,,,,
1577421843.616609,26.000000,0.000000,4288.717773,3834.358887,4124.102539,4255.384766,4218.974121,0.000000,4.000000,,,,0.000000,4.000000,4.000000,4.000000,4.000000,4.000000,,,,,,,,,,,,,,,,,,,,,,,,,
1577421843.624351,27.000000,0.000000,4287.179688,3860.512939,4123.589844,4267.179688,4216.410156,0.000000,4.000000,,,,0.000000,4.000000,4.000000,4.000000,4.000000,4.000000,,,,,,,,,,,,,,,,,,,,,,,,,
1577421843.632193,28.000000,0.000000,4287.692383,3884.615479,4128.205078,4273.333496,4215.897461,0.000000,4.000000,,,,0.000000,4.000000,4.000000,4.000000,4.000000,4.000000,,,,,,,,,,,,,,,,,,,,,,,,,
1577421843.639935,29.000000,0.000000,4281.025879,3894.358887,4122.051270,4271.794922,4223.077148,0.000000,4.000000,,,,0.000000,4.000000,4.000000,4.000000,4.000000,4.000000,,,,,,,,,,,,,,,,,,,,,,,,,
1577421843.647776,30.000000,0.000000,4289.743652,3933.846191,4135.384766,4274.871582,4240.512695,0.000000,4.000000,,,,0.000000,4.000000,4.000000,4.000000,4.000000,4.000000,,,,,,,,,,,,,,,,,,,,,,,,,
1577421843.655517,31.000000,0.000000,4299.487305,3987.179443,4142.051270,4267.179688,4240.512695,0.000000,4.000000,,,,0.000000,4.000000,4.000000,4.000000,4.000000,4.000000,,,,,,,,,,,,,,,,,,,,,,,,,
1577421843.663358,32.000000,0.000000,4287.179688,4011.794922,4135.897461,4241.025879,4224.615234,0.000000,4.000000,,,,0.000000,4.000000,4.000000,4.000000,4.000000,4.000000,,,,,,,,,,,,,,,,,,,,,,,,,
1577421843.671099,33.000000,0.000000,4281.025879,4041.025635,4135.897461,4224.615234,4217.948730,0.000000,4.000000,,,,0.000000,4.000000,4.000000,4.000000,4.000000,4.000000,15.777939,21.644539,4.538025,7.820334,49.665363,12.356023,9.126362,5.995593,5.713803,38.255646,13.917820,22.907171,32.343540,57.271244,235.608856,6.557968,15.794494,18.198301,40.047024,178.315308,12.124563,6.428401,4.115655,4.786101,65.152603
1577421843.678844,34.000000,0.000000,4293.846191,4072.307617,4135.384766,4223.589844,4225.128418,0.000000,4.000000,,,,0.000000,4.000000,4.000000,4.000000,4.000000,4.000000,,,,,,,,,,,,,,,,,,,,,,,,,
1577421843.686690,35.000000,0.000000,4307.692383,4089.743652,4151.282227,4224.102539,4231.282227,0.000000,4.000000,,,,0.000000,4.000000,4.000000,4.000000,4.000000,4.000000,,,,,,,,,,,,,,,,,,,,,,,,,
1577421843.694535,36.000000,0.000000,4305.128418,4118.461426,4144.615234,4214.358887,4224.102539,0.000000,4.000000,,,,0.000000,4.000000,4.000000,4.000000,4.000000,4.000000,,,,,,,,,,,,,,,,,,,,,,,,,
1577421843.702275,37.000000,0.000000,4294.871582,4161.025879,4117.436035,4197.948730,4214.871582,0.000000,4.000000,,,,0.000000,4.000000,4.000000,4.000000,4.000000,4.000000,,,,,,,,,,,,,,,,,,,,,,,,,
1577421843.710114,38.000000,0.000000,4285.641113,4184.102539,4094.871826,4193.333496,4206.153809,0.000000,4.000000,,,,0.000000,4.000000,4.000000,4.000000,4.000000,4.000000,,,,,,,,,,,,,,,,,,,,,,,,,
1577421843.717854,39.000000,0.000000,4279.487305,4187.179688,4071.281982,4204.102539,4204.615234,0.000000,4.000000,,,,0.000000,4.000000,4.000000,4.000000,4.000000,4.000000,,,,,,,,,,,,,,,,,,,,,,,,,
1577421843.725694,40.000000,0.000000,4285.641113,4205.641113,4073.333252,4226.666504,4223.589844,0.000000,4.000000,,,,0.000000,4.000000,4.000000,4.000000,4.000000,4.000000,,,,,,,,,,,,,,,,,,,,,,,,,
1577421843.733433,41.000000,0.000000,4281.025879,4220.000000,4036.923096,4241.025879,4228.717773,0.000000,4.000000,,,,0.000000,4.000000,4.000000,4.000000,4.000000,4.000000,,,,,,,,,,,,,,,,,,,,,,,,,
1577421843.741272,42.000000,0.000000,4258.461426,4205.641113,4032.820557,4239.487305,4213.333496,0.000000,4.000000,,,,0.000000,4.000000,4.000000,4.000000,4.000000,4.000000,,,,,,,,,,,,,,,,,,,,,,,,,
1577421843.749010,43.000000,0.000000,4250.256348,4204.102539,4127.179688,4249.230957,4216.410156,0.000000,4.000000,,,,0.000000,4.000000,4.000000,4.000000,4.000000,4.000000,,,,,,,,,,,,,,,,,,,,,,,,,
1577421843.756848,44.000000,0.000000,4246.153809,4220.512695,4062.051270,4266.153809,4226.153809,0.000000,4.000000,,,,0.000000,4.000000,4.000000,4.000000,4.000000,4.000000,,,,,,,,,,,,,,,,,,,,,,,,,
1577421843.764586,45.000000,0.000000,4241.538574,4236.410156,3866.153809,4281.025879,4236.922852,0.000000,4.000000,,,,0.000000,4.000000,4.000000,4.000000,4.000000,4.000000,,,,,,,,,,,,,,,,,,,,,,,,,
1577421843.772329,46.000000,0.000000,4243.077148,4263.589844,3856.410156,4290.769043,4242.051270,0.000000,4.000000,,,,0.000000,4.000000,4.000000,4.000000,4.000000,4.000000,,,,,,,,,,,,,,,,,,,,,,,,,
1577421843.780171,47.000000,0.000000,4230.256348,4290.256348,4028.205078,4276.410156,4226.666504,0.000000,4.000000,,,,0.000000,4.000000,4.000000,4.000000,4.000000,4.000000,,,,,,,,,,,,,,,,,,,,,,,,,
1577421843.788014,48.000000,0.000000,4229.743652,4300.000000,4128.205078,4267.692383,4223.077148,0.000000,4.000000,,,,0.000000,4.000000,4.000000,4.000000,4.000000,4.000000,,,,,,,,,,,,,,,,,,,,,,,,,
1577421843.795751,49.000000,0.000000,4243.077148,4292.820313,4090.769287,4271.282227,4231.794922,0.000000,4.000000,,,,0.000000,4.000000,4.000000,4.000000,4.000000,4.000000,12.174672,18.928429,4.095754,6.029841,52.063152,10.769271,8.271148,5.162848,4.386233,39.579647,13.335876,24.995710,36.159241,61.855400,262.912567,6.617470,15.604712,18.767012,40.186363,193.139862,10.084689,5.874774,4.364394,5.240110,71.615364
1577421843.803588,50.000000,0.000000,4247.179688,4286.153809,4100.000000,4273.846191,4236.922852,0.000000,4.000000,,,,0.000000,4.000000,4.000000,4.000000,4.000000,4.000000,,,,,,,,,,,,,,,,,,,,,,,,,
1577421843.811325,51.000000,0.000000,4261.538574,4286.666504,4167.179688,4287.692383,4247.692383,0.000000,4.000000,,,,0.000000,4.000000,4.000000,4.000000,4.000000,4.000000,,,,,,,,,,,,,,,,,,,,,,,,,
1577421843.819067,52.000000,0.000000,4275.384766,4280.512695,4151.282227,4293.846191,4253.846191,0.000000,4.000000,,,,0.000000,4.000000,4.000000,4.000000,4.000000,4.000000,,,,,,,,,,,,,,,,,,,,,,,,,
1577421843.826908,53.000000,0.000000,4267.179688,4272.820313,4083.589844,4292.820313,4248.205078,0.000000,4.000000,,,,0.000000,4.000000,4.000000,4.000000,4.000000,4.000000,,,,,,,,,,,,,,,,,,,,,,,,,
1577421843.834649,54.000000,0.000000,4259.487305,4267.179688,4044.102539,4291.794922,4241.538574,0.000000,4.000000,,,,0.000000,4.000000,4.000000,4.000000,4.000000,4.000000,,,,,,,,,,,,,,,,,,,,,,,,,
1577421843.842490,55.000000,0.000000,4268.205078,4264.102539,4006.153809,4288.205078,4249.743652,0.000000,4.000000,,,,0.000000,4.000000,4.000000,4.000000,4.000000,4.000000,,,,,,,,,,,,,,,,,,,,,,,,,
1577421843.850231,56.000000,0.000000,4272.307617,4261.025879,3977.948730,4280.512695,4255.384766,0.000000,4.000000,,,,0.000000,4.000000,4.000000,4.000000,4.000000,4.000000,,,,,,,,,,,,,,,,,,,,,,,,,
1577421843.858071,57.000000,0.000000,4264.615234,4254.358887,4000.512939,4275.384766,4238.461426,0.000000,4.000000,,,,0.000000,4.000000,4.000000,4.000000,4.000000,4.000000,,,,,,,,,,,,,,,,,,,,,,,,,
1577421843.865811,58.000000,0.000000,4256.922852,4258.461426,4015.384521,4282.051270,4225.128418,0.000000,4.000000,,,,0.000000,4.000000,4.000000,4.000000,4.000000,4.000000,,,,,,,,,,,,,,,,,,,,,,,,,
1577421843.873651,59.000000,0.000000,4247.692383,4265.641113,4014.358887,4278.974121,4218.974121,0.000000,4.000000,,,,0.000000,4.000000,4.000000,4.000000,4.000000,4.000000,,,,,,,,,,,,,,,,,,,,,,,,,
1577421843.881391,60.000000,0.000000,4240.000000,4245.641113,4050.769287,4262.563965,4213.333496,0.000000,4.000000,,,,0.000000,4.000000,4.000000,4.000000,4.000000,4.000000,,,,,,,,,,,,,,,,,,,,,,,,,
1577421843.889230,61.000000,0.000000,4245.128418,4223.589844,4091.281982,4264.102539,4222.051270,0.000000,4.000000,,,,0.000000,4.000000,4.000000,4.000000,4.000000,4.000000,,,,,,,,,,,,,,,,,,,,,,,,,
1577421843.896969,62.000000,0.000000,4244.102539,4218.974121,4056.923096,4273.333496,4227.179688,0.000000,4.000000,,,,0.000000,4.000000,4.000000,4.000000,4.000000,4.000000,,,,,,,,,,,,,,,,,,,,,,,,,
1577421843.904808,63.000000,0.000000,4231.794922,4208.205078,3975.384521,4268.717773,4216.410156,0.000000,4.000000,,,,0.000000,4.000000,4.000000,4.000000,4.000000,4.000000,,,,,,,,,,,,,,,,,,,,,,,,,
1577421843.912547,64.000000,0.000000,4231.282227,4180.000000,3956.410156,4266.153809,4216.922852,450.000000,4.000000,,,,0.000000,4.000000,4.000000,4.000000,4.000000,4.000000,,,,,,,,,,,,,,,,,,,,,,,,,
1577421843.920291,65.000000,0.000000,4227.692383,4162.051270,3995.897461,4263.077148,4216.410156,450.000000,4.000000,,,,0.000000,4.000000,4.000000,4.000000,4.000000,4.000000,9.302135,15.534523,3.807223,4.514903,50.307571,10.585114,8.060683,5.035983,3.450792,37.866791,13.005028,23.972284,35.052341,59.333328,260.712433,6.457570,14.502073,17.728230,36.788990,189.653931,8.421461,5.655746,4.377704,5.188889,70.889160
1577421843.928134,66.000000,0.000000,4214.871582,4171.794922,3996.410156,4255.384766,4195.897461,16213.000000,4.000000,,,,0.000000,4.000000,4.000000,4.000000,4.000000,4.000000,,,,,,,,,,,,,,,,,,,,,,,,,
1577421843.935877,67.000000,0.000000,4198.461426,4171.794922,3938.461426,4245.641113,4180.000000,450.000000,4.000000,,,,0.000000,4.000000,4.000000,4.000000,4.000000,4.000000,,,,,,,,,,,,,,,,,,,,,,,,,
1577421843.943720,68.000000,0.000000,4203.589844,4168.205078,3922.051270,4241.025879,4197.948730,16189.000000,4.000000,,,,0.000000,4.000000,4.000000,4.000000,4.000000,4.000000,,,,,,,,,,,,,,,,,,,,,,,,,
1577421843.951463,69.000000,0.000000,4227.179688,4191.794922,3940.512939,4253.846191,4223.589844,450.000000,4.000000,,,,0.000000,4.000000,4.000000,4.000000,4.000000,4.000000,,,,,,,,,,,,,,,,,,,,,,,,,
1577421843.959305,70.000000,0.000000,4218.974121,4209.230957,3907.179443,4255.897461,4216.922852,16132.000000,4.000000,,,,0.000000,4.000000,4.000000,4.000000,4.000000,4.000000,,,,,,,,,,,,,,,,,,,,,,,,,
1577421843.967048,71.000000,0.000000,4212.820313,4223.589844,3901.025635,4255.897461,4218.461426,450.000000,4.000000,,,,0.000000,4.000000,4.000000,4.000000,4.000000,4.000000,,,,,,,,,,,,,,,,,,,,,,,,,
1577421843.974890,72.000000,0.000000,4247.692383,4261.538574,3993.333252,4279.487305,4252.820313,450.000000,4.000000,,,,0.000000,4.000000,4.000000,4.000000,4.000000,4.000000,,,,,,,,,,,,,,,,,,,,,,,,,
1577421843.982631,73.000000,0.000000,4258.974121,4283.589844,4071.794922,4292.820313,4269.230957,16163.000000,4.000000,,,,0.000000,4.000000,4.000000,4.000000,4.000000,4.000000,,,,,,,,,,,,,,,,,,,,,,,,,
1577421843.990472,74.000000,0.000000,4228.717773,4276.410156,4061.025635,4274.358887,4246.666504,450.000000,4.000000,,,,0.000000,4.000000,4.000000,4.000000,4.000000,4.000000,,,,,,,,,,,,,,,,,,,,,,,,,
1577421843.998214,75.000000,0.000000,4221.538574,4284.615234,4029.230713,4270.769043,4241.025879,16206.000000,4.000000,,,,0.000000,4.000000,4.000000,4.000000,4.000000,4.000000,,,,,,,,,,,,,,,,,,,,,,,,,
1577421844.006055,76.000000,0.000000,4245.641113,4309.230957,4020.000000,4295.384766,4263.077148,450.000000,4.000000,,,,0.000000,4.000000,4.000000,4.000000,4.000000,4.000000,,,,,,,,,,,,,,,,,,,,,,,,,
1577421844.013796,77.000000,0.000000,4251.282227,4313.846191,4006.153809,4301.538574,4262.563965,450.000000,4.000000,,,,0.000000,4.000000,4.000000,4.000000,4.000000,4.000000,,,,,,,,,,,,,,,,,,,,,,,,,
1577421844.021637,78.000000,0.000000,4240.512695,4300.000000,3976.923096,4284.102539,4249.743652,450.000000,4.000000,,,,0.000000,4.000000,4.000000,4.000000,4.000000,4.000000,,,,,,,,,,,,,,,,,,,,,,,,,
1577421844.029477,79.000000,0.000000,4242.563965,4297.948730,3936.410156,4278.974121,4250.256348,16206.000000,4.000000,,,,0.000000,4.000000,4.000000,4.000000,4.000000,4.000000,,,,,,,,,,,,,,,,,,,,,,,,,
1577421844.037212,80.000000,0.000000,4250.769043,4306.153809,3896.923096,4285.128418,4252.307617,450.000000,4.000000,,,,0.000000,4.000000,4.000000,4.000000,4.000000,4.000000,,,,,,,,,,,,,,,,,,,,,,,,,
1577421844.045047,81.000000,0.000000,4248.717773,4304.615234,3883.589844,4284.615234,4251.794922,450.000000,4.000000,,,,0.000000,4.000000,4.000000,4.000000,4.000000,4.000000,7.593349,11.956660,3.479862,3.249452,42.875488,14.839532,8.559193,5.195847,2.750150,32.006329,12.523312,20.558226,29.746817,50.045475,224.571564,6.245835,12.486224,15.069967,30.134897,163.011917,7.006239,5.430508,3.984066,4.606227,61.304798
1577421844.052782,82.000000,0.000000,4240.000000,4296.922852,3864.615479,4269.743652,4240.512695,450.000000,4.000000,,,,0.000000,4.000000,4.000000,4.000000,4.000000,4.000000,,,,,,,,,,,,,,,,,,,,,,,,,
1577421844.060616,83.000000,0.000000,4233.846191,4294.871582,3832.307617,4250.256348,4228.205078,16206.000000,4.000000,,,,0.000000,4.000000,4.000000,4.000000,4.000000,4.000000,,,,,,,,,,,,,,,,,,,,,,,,,
1577421844.068350,84.000000,0.000000,4235.897461,4316.922852,3833.846191,4238.974121,4235.897461,450.000000,4.000000,,,,0.000000,4.000000,4.000000,4.000000,4.000000,4.000000,,,,,,,,,,,,,,,,,,,,,,,,,
1577421844.076089,85.000000,0.000000,4227.179688,4356.410156,3870.256348,4220.512695,4234.358887,450.000000,4.000000,,,,0.000000,4.000000,4.000000,4.000000,4.000000,4.000000,,,,,,,,,,,,,,,,,,,,,,,,,
1577421844.083928,86.000000,0.000000,4216.922852,4393.333496,3931.281982,4192.820313,4231.794922,450.000000,4.000000,,,,0.000000,4.000000,4.000000,4.000000,4.000000,4.000000,,,,,,,,,,,,,,,,,,,,,,,,,
1577421844.091667,87.000000,0.000000,4231.282227,4430.769043,3967.179443,4172.820313,4242.563965,16206.000000,4.000000,,,,0.000000,4.000000,4.000000,4.000000,4.000000,4.000000,,,,,,,,,,,,,,,,,,,,,,,,,
1577421844.099410,88.000000,0.000000,4236.410156,4454.871582,3914.358887,4141.025879,4240.512695,450.000000,4.000000,,,,0.000000,4.000000,4.000000,4.000000,4.000000,4.000000,,,,,,,,,,,,,,,,,,,,,,,,,
1577421844.107254,89.000000,0.000000,4226.666504,4472.820313,3845.641113,4097.948730,4228.717773,450.000000,4.000000,,,,0.000000,4.000000,4.000000,4.000000,4.000000,4.000000,,,,,,,,,,,,,,,,,,,,,,,,,
1577421844.114996,90.000000,0.000000,4239.487305,4503.077148,3851.794922,4071.794922,4238.974121,450.000000,4.000000,,,,0.000000,4.000000,4.000000,4.000000,4.000000,4.000000,,,,,,,,,,,,,,,,,,,,,,,,,
1577421844.122944,91.000000,1.000000,4240.833496,4503.012695,3833.141113,4065.256348,4240.063965,450.000000,4.000000,,,,0.000000,4.000000,4.000000,4.000000,4.000000,4.000000,,,,,,,,,,,,,,,,,,,,,,,,,
1577421844.130791,92.000000,1.000000,4242.179688,4502.948730,3814.487061,4058.718018,4241.153809,450.000000,4.000000,,,,0.000000,4.000000,4.000000,4.000000,4.000000,4.000000,,,,,,,,,,,,,,,,,,,,,,,,,
1577421844.138639,93.000000,1.000000,4243.525879,4502.884766,3795.833252,4052.179443,4242.243652,450.000000,4.000000,,,,0.000000,4.000000,4.000000,4.000000,4.000000,4.000000,,,,,,,,,,,,,,,,,,,,,,,,,
1577421844.146486,94.000000,1.000000,4244.871582,4502.820313,3777.179443,4045.641113,4243.333496,450.000000,4.000000,,,,0.000000,4.000000,4.000000,4.000000,4.000000,4.000000,,,,,,,,,,,,,,,,,,,,,,,,,
1577421844.154334,95.000000,1.000000,4246.217773,4502.756348,3758.525635,4039.102539,4244.422852,450.000000,4.000000,,,,0.000000,4.000000,4.000000,4.000000,4.000000,4.000000,,,,,,,,,,,,,,,,,,,,,,,,,
1577421844.162181,96.000000,1.000000,4247.563965,4502.692383,3739.871826,4032.564209,4245.512695,450.000000,4.000000,,,,0.000000,4.000000,4.000000,4.000000,4.000000,4.000000,,,,,,,,,,,,,,,,,,,,,,,,,
1577421844.170029,97.000000,1.000000,4248.910156,4502.628418,3721.218018,4026.025635,4246.602539,450.000000,4.000000,,,,0.000000,4.000000,4.000000,4.000000,4.000000,4.000000,6.746666,8.683981,3.056441,2.221146,31.206867,23.311932,9.920969,5.503875,2.202666,23.093224,12.816992,17.435377,23.136559,36.966446,164.656235,6.415660,10.110129,11.449983,21.592493,119.186218,5.725901,5.010032,3.262030,3.675012,45.206047
1577421844.177877,98.000000,0.000000,4250.256348,4502.563965,3702.564209,4019.487061,4247.692383,450.000000,4.000000,,,,0.000000,4.000000,4.000000,4.000000,4.000000,4.000000,,,,,,,,,,,,,,,,,,,,,,,,,
1577421844.185724,99.000000,0.000000,4235.897461,4505.641113,3667.179443,4013.846191,4236.410156,16206.000000,4.000000,,,,0.000000,4.000000,4.000000,4.000000,4.000000,4.000000,,,,,,,,,,,,,,,,,,,,,,,,,
1577421844.193572,100.000000,0.000000,4243.589844,4524.615234,3647.179443,4024.102539,4243.077148,450.000000,4.000000,,,,0.000000,4.000000,4.000000,4.000000,4.000000,4.000000,,,,,,,,,,,,,,,,,,,,,,,,,
1577421844.201278,101.000000,0.000000,4248.205078,4512.307617,3646.666748,4031.794922,4244.615234,450.000000,4.000000,,,,0.000000,4.000000,4.000000,4.000000,4.000000,4.000000,,,,,,,,,,,,,,,,,,,,,,,,,
1577421844.209084,102.000000,0.000000,4261.025879,4500.000000,3684.615479,4048.718018,4252.307617,450.000000,4.000000,,,,0.000000,4.000000,4.000000,4.000000,4.000000,4.000000,,,,,,,,,,,,,,,,,,,,,,,,,
1577421844.216790,103.000000,0.000000,4261.025879,4511.794922,3744.102539,4057.948730,4253.333496,16206.000000,4.000000,,,,0.000000,4.000000,4.000000,4.000000,4.000000,4.000000,,,,,,,,,,,,,,,,,,,,,,,,,
1577421844.224596,104.000000,0.000000,4248.205078,4512.820313,3795.897461,4047.179443,4243.589844,450.000000,4.000000,,,,0.000000,4.000000,4.000000,4.000000,4.000000,4.000000,,,,,,,,,,,,,,,,,,,,,,,,,
1577421844.232302,105.000000,0.000000,4256.410156,4494.871582,3838.974365,4043.589844,4244.615234,450.000000,4.000000,,,,0.000000,4.000000,4.000000,4.000000,4.000000,4.000000,,,,,,,,,,,,,,,,,,,,,,,,,
1577421844.240012,106.000000,0.000000,4267.179688,4483.589844,3888.205078,4043.589844,4249.743652,450.000000,4.000000,,,,0.000000,4.000000,4.000000,4.000000,4.000000,4.000000,,,,,,,,,,,,,,,,,,,,,,,,,
1577421844.247821,107.000000,0.000000,4266.153809,4482.051270,3952.307617,4045.128174,4249.230957,16206.000000,4.000000,,,,0.000000,4.000000,4.000000,4.000000,4.000000,4.000000,,,,,,,,,,,,,,,,,,,,,,,,,
1577421844.255531,108.000000,0.000000,4271.794922,4471.282227,3990.769287,4058.974365,4247.692383,450.000000,4.000000,,,,0.000000,4.000000,4.000000,4.000000,4.000000,4.000000,,,,,,,,,,,,,,,,,,,,,,,,,
1577421844.263340,109.000000,0.000000,4284.102539,4469.230957,3998.974365,4066.153809,4253.846191,450.000000,4.000000,,,,0.000000,4.000000,4.000000,4.000000,4.000000,4.000000,,,,,,,,,,,,,,,,,,,,,,,,,
1577421844.271049,110.000000,0.000000,4287.179688,4485.128418,4024.615479,4065.128174,4258.974121,450.000000,4.000000,,,,0.000000,4.000000,4.000000,4.000000,4.000000,4.000000,,,,,,,,,,,,,,,,,,,,,,,,,
1577421844.278763,111.000000,0.000000,4284.102539,4491.794922,4036.923096,4074.358887,4256.410156,16206.000000,4.000000,,,,0.000000,4.000000,4.000000,4.000000,4.000000,4.000000,,,,,,,,,,,,,,,,,,,,,,,,,
1577421844.286577,112.000000,0.000000,4289.230957,4493.333496,4008.205078,4085.641113,4258.974121,450.000000,4.000000,,,,0.000000,4.000000,4.000000,4.000000,4.000000,4.000000,,,,,,,,,,,,,,,,,,,,,,,,,
1577421844.294390,113.000000,0.000000,4297.948730,4494.358887,4008.205078,4081.025635,4262.563965,450.000000,4.000000,,,,0.000000,4.000000,4.000000,4.000000,4.000000,4.000000,7.234117,6.001003,2.631174,1.467457,18.914959,36.052677,11.916487,5.897779,1.831770,13.827703,15.025785,18.317244,18.346128,24.349874,100.663094,8.336526,8.039629,7.866962,13.160293,71.972672,4.966911,4.350330,2.448935,2.680594,27.753672
1577421844.302099,114.000000,0.000000,4300.000000,4490.769043,4067.179443,4073.333252,4259.487305,450.000000,4.000000,,,,0.000000,4.000000,4.000000,4.000000,4.000000,4.000000,,,,,,,,,,,,,,,,,,,,,,,,,
1577421844.309907,115.000000,0.000000,4295.897461,4489.743652,4148.205078,4073.846191,4258.461426,16206.000000,4.000000,,,,0.000000,4.000000,4.000000,4.000000,4.000000,4.000000,,,,,,,,,,,,,,,,,,,,,,,,,
1577421844.317616,116.000000,0.000000,4294.871582,4485.128418,4249.743652,4071.794922,4266.153809,450.000000,4.000000,,,,0.000000,4.000000,4.000000,4.000000,4.000000,4.000000,,,,,,,,,,,,,,,,,,,,,,,,,
1577421844.325424,117.000000,0.000000,4301.538574,4482.563965,4350.769043,4071.794922,4272.820313,450.000000,4.000000,,,,0.000000,4.000000,4.000000,4.000000,4.000000,4.000000,,,,,,,,,,,,,,,,,,,,,,,,,
1577421844.333131,118.000000,0.000000,4296.410156,4477.948730,4371.282227,4068.718018,4262.563965,450.000000,4.000000,,,,0.000000,4.000000,4.000000,4.000000,4.000000,4.000000,,,,,,,,,,,,,,,,,,,,,,,,,
1577421844.340939,119.000000,0.000000,4276.922852,4463.077148,4315.897461,4050.769287,4245.128418,16206.000000,4.000000,,,,0.000000,4.000000,4.000000,4.000000,4.000000,4.000000,,,,,,,,,,,,,,,,,,,,,,,,,
1577421844.348646,120.000000,0.000000,4282.051270,4457.948730,4283.589844,4044.615479,4247.179688,450.000000,4.000000,,,,0.000000,4.000000,4.000000,4.000000,4.000000,4.000000,,,,,,,,,,,,,,,,,,,,,,,,,
1577421844.356453,121.000000,0.000000,4315.384766,4468.717773,4304.615234,4066.153809,4269.743652,450.000000,4.000000,,,,0.000000,4.000000,4.000000,4.000000,4.000000,4.000000,,,,,,,,,,,,,,,,,,,,,,,,,
1577421844.364159,122.000000,0.000000,4332.307617,4472.307617,4317.436035,4075.384521,4282.051270,450.000000,4.000000,,,,0.000000,4.000000,4.000000,4.000000,4.000000,4.000000,,,,,,,,,,,,,,,,,,,,,,,,,
1577421844.371966,123.000000,0.000000,4319.487305,4454.871582,4260.000000,4053.846191,4273.333496,16206.000000,4.000000,,,,0.000000,4.000000,4.000000,4.000000,4.000000,4.000000,,,,,,,,,,,,,,,,,,,,,,,,,
1577421844.379673,124.000000,0.000000,4316.922852,4435.897461,4204.102539,4038.461426,4271.282227,450.000000,4.000000,,,,0.000000,4.000000,4.000000,4.000000,4.000000,4.000000,,,,,,,,,,,,,,,,,,,,,,,,,
1577421844.387479,125.000000,0.000000,4324.102539,4425.641113,4228.205078,4035.384521,4267.179688,450.000000,4.000000,,,,0.000000,4.000000,4.000000,4.000000,4.000000,4.000000,,,,,,,,,,,,,,,,,,,,,,,,,
1577421844.395185,126.000000,0.000000,4310.256348,4407.179688,4249.230957,4023.589844,4251.794922,450.000000,4.000000,,,,0.000000,4.000000,4.000000,4.000000,4.000000,4.000000,,,,,,,,,,,,,,,,,,,,,,,,,
1577421844.402991,127.000000,0.000000,4295.897461,4401.538574,4228.717773,4017.948730,4248.205078,234.000000,4.000000,,,,0.000000,4.000000,4.000000,4.000000,4.000000,4.000000,,,,,,,,,,,,,,,,,,,,,,,,,
1577421844.410697,0.000000,0.000000,4300.512695,4425.641113,4206.153809,4018.974365,4247.692383,450.000000,4.000000,,,,0.000000,4.000000,4.000000,4.000000,4.000000,4.000000,,,,,,,,,,,,,,,,,,,,,,,,,
1577421844.418503,1.000000,0.000000,4304.102539,4431.794922,4205.128418,4010.256348,4241.025879,450.000000,4.000000,,,,0.000000,4.000000,4.000000,4.000000,4.000000,4.000000,8.458862,4.017604,2.254938,1.022498,9.225397,49.462585,14.311614,6.350945,1.629286,6.600695,22.176947,26.077415,17.241240,15.696326,50.222878,13.189959,6.695256,5.188483,6.589377,34.078018,4.941522,3.588461,1.792607,1.887579,13.682283
1577421844.426208,2.000000,0.000000,4302.563965,4416.922852,4238.974121,4010.769287,4240.512695,16213.000000,4.000000,,,,0.000000,4.000000,4.000000,4.000000,4.000000,4.000000,,,,,,,,,,,,,,,,,,,,,,,,,
1577421844.433918,3.000000,0.000000,4304.615234,4429.230957,4248.717773,4028.205078,4246.153809,450.000000,4.000000,,,,0.000000,4.000000,4.000000,4.000000,4.000000,4.000000,,,,,,,,,,,,,,,,,,,,,,,,,
1577421844.441728,4.000000,0.000000,4309.230957,4450.256348,4206.666504,4048.205078,4261.025879,16185.000000,4.000000,,,,0.000000,4.000000,4.000000,4.000000,4.000000,4.000000,,,,,,,,,,,,,,,,,,,,,,,,,
1577421844.449438,5.000000,0.000000,4311.282227,4444.102539,4187.692383,4054.871826,4269.743652,450.000000,4.000000,,,,0.000000,4.000000,4.000000,4.000000,4.000000,4.000000,,,,,,,,,,,,,,,,,,,,,,,,,
1577421844.457248,6.000000,0.000000,4301.538574,4432.820313,4209.743652,4049.743652,4259.487305,16147.000000,4.000000,,,,0.000000,4.000000,4.000000,4.000000,4.000000,4.000000,,,,,,,,,,,,,,,,,,,,,,,,,
1577421844.464957,7.000000,0.000000,4285.641113,4432.307617,4193.846191,4042.051270,4245.641113,450.000000,4.000000,,,,0.000000,4.000000,4.000000,4.000000,4.000000,4.000000,,,,,,,,,,,,,,,,,,,,,,,,,
1577421844.472766,8.000000,0.000000,4277.436035,4429.230957,4144.102539,4037.948730,4233.846191,450.000000,4.000000,,,,0.000000,4.000000,4.000000,4.000000,4.000000,4.000000,,,,,,,,,,,,,,,,,,,,,,,,,
1577421844.480475,9.000000,0.000000,4283.589844,4421.025879,4122.051270,4046.666748,4236.922852,16167.000000,4.000000,,,,0.000000,4.000000,4.000000,4.000000,4.000000,4.000000,,,,,,,,,,,,,,,,,,,,,,,,,
1577421844.488284,10.000000,0.000000,4284.615234,4420.000000,4093.333252,4052.307617,4246.666504,450.000000,4.000000,,,,0.000000,4.000000,4.000000,4.000000,4.000000,4.000000,,,,,,,,,,,,,,,,,,,,,,,,,
1577421844.495992,11.000000,0.000000,4267.179688,4416.410156,4047.179443,4037.435791,4238.461426,16205.000000,4.000000,,,,0.000000,4.000000,4.000000,4.000000,4.000000,4.000000,,,,,,,,,,,,,,,,,,,,,,,,,
1577421844.503801,12.000000,0.000000,4255.897461,4394.358887,4025.128174,4026.153809,4223.589844,450.000000,4.000000,,,,0.000000,4.000000,4.000000,4.000000,4.000000,4.000000,,,,,,,,,,,,,,,,,,,,,,,,,
1577421844.511509,13.000000,0.000000,4254.358887,4381.538574,4006.153809,4024.615479,4214.871582,450.000000,4.000000,,,,0.000000,4.000000,4.000000,4.000000,4.000000,4.000000,,,,,,,,,,,,,,,,,,,,,,,,,
1577421844.519317,14.000000,0.000000,4261.025879,4405.641113,3983.589844,4029.230713,4224.615234,450.000000,4.000000,,,,0.000000,4.000000,4.000000,4.000000,4.000000,4.000000,,,,,,,,,,,,,,,,,,,,,,,,,
1577421844.527024,15.000000,0.000000,4280.000000,4432.307617,3981.538574,4049.743652,4246.666504,16205.000000,4.000000,,,,0.000000,4.000000,4.000000,4.000000,4.000000,4.000000,,,,,,,,,,,,,,,,,,,,,,,,,
1577421844.534832,16.000000,0.000000,4281.538574,4416.922852,3967.179443,4057.948730,4244.615234,0.000000,4.000000,,,,0.000000,4.000000,4.000000,4.000000,4.000000,4.000000,,,,,,,,,,,,,,,,,,,,,,,,,
1577421844.542539,17.000000,0.000000,4262.563965,4387.692383,3937.435791,4046.153809,4229.743652,0.000000,4.000000,,,,0.000000,4.000000,4.000000,4.000000,4.000000,4.000000,9.801601,2.615183,1.952896,0.846008,3.572621,60.019238,16.671856,6.667091,1.514426,2.453622,35.197803,41.461006,19.559393,12.160268,21.338383,21.334141,5.986383,3.704075,2.681652,11.541201,5.634235,2.870768,1.421248,1.412349,5.254879
1577421844.550346,18.000000,0.000000,4260.000000,4386.666504,3932.307617,4045.128174,4231.794922,0.000000,4.000000,,,,0.000000,4.000000,4.000000,4.000000,4.000000,4.000000,,,,,,,,,,,,,,,,,,,,,,,,,
1577421844.558053,19.000000,0.000000,4275.897461,4397.948730,3942.051270,4058.974365,4241.025879,0.000000,4.000000,,,,0.000000,4.000000,4.000000,4.000000,4.000000,4.000000,,,,,,,,,,,,,,,,,,,,,,,,,
1577421844.565764,20.000000,0.000000,4284.102539,4396.922852,3932.820557,4068.205078,4242.563965,0.000000,4.000000,,,,0.000000,4.000000,4.000000,4.000000,4.000000,4.000000,,,,,,,,,,,,,,,,,,,,,,,,,
1577421844.573575,21.000000,0.000000,4266.153809,4382.051270,3907.179443,4054.358887,4227.692383,0.000000,4.000000,,,,0.000000,4.000000,4.000000,4.000000,4.000000,4.000000,,,,,,,,,,,,,,,,,,,,,,,,,
1577421844.581286,22.000000,0.000000,4259.487305,4380.512695,3911.281982,4041.025635,4224.615234,0.000000,4.000000,,,,0.000000,4.000000,4.000000,4.000000,4.000000,4.000000,,,,,,,,,,,,,,,,,,,,,,,,,
1577421844.589096,23.000000,0.000000,4291.282227,4399.487305,3948.205078,4059.487061,4255.897461,0.000000,4.000000,,,,0.000000,4.000000,4.000000,4.000000,4.000000,4.000000,,,,,,,,,,,,,,,,,,,,,,,,,
1577421844.596807,24.000000,0.000000,4303.589844,4414.871582,3961.538574,4070.256348,4272.307617,0.000000,4.000000,,,,0.000000,4.000000,4.000000,4.000000,4.000000,4.000000,,,,,,,,,,,,,,,,,,,,,,,,,
1577421844.604618,25.000000,0.000000,4279.487305,4423.077148,3962.051270,4050.769287,4249.743652,0.000000,4.000000,,,,0.000000,4.000000,4.000000,4.000000,4.000000,4.000000,,,,,,,,,,,,,,,,,,,,,,,,,
1577421844.612328,26.000000,0.000000,4270.256348,4427.179688,3976.410156,4037.948730,4228.205078,0.000000,4.000000,,,,0.000000,4.000000,4.000000,4.000000,4.000000,4.000000,,,,,,,,,,,,,,,,,,,,,,,,,
1577421844.620139,27.000000,0.000000,4280.512695,4429.230957,3994.358887,4047.179443,4232.820313,0.000000,4.000000,,,,0.000000,4.000000,4.000000,4.000000,4.000000,4.000000,,,,,,,,,,,,,,,,,,,,,,,,,
1577421844.627949,28.000000,0.000000,4281.538574,4426.153809,4006.666748,4053.333252,4236.410156,0.000000,4.000000,,,,0.000000,4.000000,4.000000,4.000000,4.000000,4.000000,,,,,,,,,,,,,,,,,,,,,,,,,
1577421844.635654,29.000000,0.000000,4280.000000,4417.436035,4003.589844,4052.820557,4234.871582,0.000000,4.000000,,,,0.000000,4.000000,4.000000,4.000000,4.000000,4.000000,,,,,,,,,,,,,,,,,,,,,,,,,
1577421844.643459,30.000000,0.000000,4286.153809,4415.384766,3983.589844,4058.461426,4246.153809,0.000000,4.000000,,,,0.000000,4.000000,4.000000,4.000000,4.000000,4.000000,,,,,,,,,,,,,,,,,,,,,,,,,
1577421844.651164,31.000000,0.000000,4278.461426,4411.282227,3945.641113,4049.230713,4236.410156,0.000000,4.000000,,,,0.000000,4.000000,4.000000,4.000000,4.000000,4.000000,,,,,,,,,,,,,,,,,,,,,,,,,
1577421844.658873,32.000000,0.000000,4261.025879,4400.000000,3904.102539,4026.666748,4211.794922,0.000000,4.000000,,,,0.000000,4.000000,4.000000,4.000000,4.000000,4.000000,,,,,,,,,,,,,,,,,,,,,,,,,
1577421844.666683,33.000000,0.000000,4267.179688,4396.922852,3888.205078,4031.281982,4217.436035,0.000000,4.000000,,,,0.000000,4.000000,4.000000,4.000000,4.000000,4.000000,10.684345,1.684036,1.718247,0.818120,1.368373,64.097031,18.539749,6.647976,1.396051,0.905744,54.393772,62.693462,23.636580,12.379436,10.931785,32.004059,5.484342,3.144977,1.114515,2.577185,6.640646,2.284096,1.307446,1.199539,1.824010
1577421844.674492,34.000000,0.000000,4292.307617,4404.615234,3890.256348,4054.871826,4241.025879,0.000000,4.000000,,,,0.000000,4.000000,4.000000,4.000000,4.000000,4.000000,,,,,,,,,,,,,,,,,,,,,,,,,
1577421844.682195,35.000000,0.000000,4298.974121,4414.358887,3878.461426,4058.461426,4244.102539,0.000000,4.000000,,,,0.000000,4.000000,4.000000,4.000000,4.000000,4.000000,,,,,,,,,,,,,,,,,,,,,,,,,
1577421844.689904,36.000000,0.000000,4276.410156,4416.410156,3850.769287,4041.538574,4217.948730,0.000000,4.000000,,,,0.000000,4.000000,4.000000,4.000000,4.000000,4.000000,,,,,,,,,,,,,,,,,,,,,,,,,
1577421844.697712,37.000000,0.000000,4263.589844,4413.333496,3841.538574,4036.923096,4209.743652,0.000000,4.000000,,,,0.000000,4.000000,4.000000,4.000000,4.000000,4.000000,,,,,,,,,,,,,,,,,,,,,,,,,
1577421844.705420,38.000000,0.000000,4269.743652,4414.358887,3845.128174,4047.692383,4222.563965,0.000000,4.000000,,,,0.000000,4.000000,4.000000,4.000000,4.000000,4.000000,,,,,,,,,,,,,,,,,,,,,,,,,
1577421844.713228,39.000000,0.000000,4269.743652,4412.307617,3827.692383,4051.281982,4226.666504,0.000000,4.000000,,,,0.000000,4.000000,4.000000,4.000000,4.000000,4.000000,,,,,,,,,,,,,,,,,,,,,,,,,
1577421844.720935,40.000000,0.000000,4278.461426,4415.384766,3816.410156,4063.076904,4241.538574,0.000000,4.000000,,,,0.000000,4.000000,4.000000,4.000000,4.000000,4.000000,,,,,,,,,,,,,,,,,,,,,,,,,
1577421844.728743,41.000000,0.000000,4289.230957,4417.436035,3822.564209,4075.897461,4252.307617,0.000000,4.000000,,,,0.000000,4.000000,4.000000,4.000000,4.000000,4.000000,,,,,,,,,,,,,,,,,,,,,,,,,
1577421844.736450,42.000000,0.000000,4274.358887,4405.641113,3817.435791,4066.666748,4237.436035,0.000000,4.000000,,,,0.000000,4.000000,4.000000,4.000000,4.000000,4.000000,,,,,,,,,,,,,,,,,,,,,,,,,
1577421844.744257,43.000000,0.000000,4257.436035,4400.512695,3813.846191,4055.384521,4225.128418,0.000000,4.000000,,,,0.000000,4.000000,4.000000,4.000000,4.000000,4.000000,,,,,,,,,,,,,,,,,,,,,,,,,
1577421844.751964,44.000000,0.000000,4254.358887,4401.025879,3820.000000,4050.769287,4220.512695,0.000000,4.000000,,,,0.000000,4.000000,4.000000,4.000000,4.000000,4.000000,,,,,,,,,,,,,,,,,,,,,,,,,
1577421844.759771,45.000000,0.000000,4260.512695,4391.794922,3823.076904,4051.281982,4225.128418,0.000000,4.000000,,,,0.000000,4.000000,4.000000,4.000000,4.000000,4.000000,,,,,,,,,,,,,,,,,,,,,,,,,
1577421844.767478,46.000000,0.000000,4265.641113,4378.974121,3806.153809,4056.410156,4229.743652,0.000000,4.000000,,,,0.000000,4.000000,4.000000,4.000000,4.000000,4.000000,,,,,,,,,,,,,,,,,,,,,,,,,
1577421844.775284,47.000000,0.000000,4251.282227,4375.384766,3765.128174,4047.179443,4212.820313,0.000000,4.000000,,,,0.000000,4.000000,4.000000,4.000000,4.000000,4.000000,,,,,,,,,,,,,,,,,,,,,,,,,
1577421844.782991,48.000000,0.000000,4247.692383,4384.615234,3738.461426,4038.974365,4204.615234,0.000000,4.000000,,,,0.000000,4.000000,4.000000,4.000000,4.000000,4.000000,,,,,,,,,,,,,,,,,,,,,,,,,
1577421844.790797,49.000000,0.000000,4263.589844,4377.948730,3738.974365,4045.641113,4218.461426,0.000000,4.000000,,,,0.000000,4.000000,4.000000,4.000000,4.000000,4.000000,10.748173,1.119124,1.573953,0.814162,0.916055,60.850285,19.512001,6.206821,1.221057,0.653947,75.459129,85.602348,27.417267,13.741233,9.617417,42.923908,4.770854,2.996400,0.817353,0.800761,7.437100,1.834042,1.348583,1.107642,1.041842
1577421844.798502,50.000000,0.000000,4280.000000,4360.512695,3748.718018,4067.179443,4235.384766,0.000000,4.000000,,,,0.000000,4.000000,4.000000,4.000000,4.000000,4.000000,,,,,,,,,,,,,,,,,,,,,,,,,
1577421844.806308,51.000000,0.000000,4301.538574,4367.179688,3758.461426,4100.000000,4256.410156,0.000000,4.000000,,,,0.000000,4.000000,4.000000,4.000000,4.000000,4.000000,,,,,,,,,,,,,,,,,,,,,,,,,
1577421844.814013,52.000000,0.000000,4302.051270,4355.384766,3737.435791,4087.179443,4256.410156,0.000000,4.000000,,,,0.000000,4.000000,4.000000,4.000000,4.000000,4.000000,,,,,,,,,,,,,,,,,,,,,,,,,
1577421844.821818,53.000000,0.000000,4271.794922,4305.641113,3696.410156,4047.179443,4227.179688,0.000000,4.000000,,,,0.000000,4.000000,4.000000,4.000000,4.000000,4.000000,,,,,,,,,,,,,,,,,,,,,,,,,
1577421844.829523,54.000000,0.000000,4260.512695,4285.641113,3686.153809,4065.641113,4215.384766,0.000000,4.000000,,,,0.000000,4.000000,4.000000,4.000000,4.000000,4.000000,,,,,,,,,,,,,,,,,,,,,,,,,
1577421844.837232,55.000000,0.000000,4280.512695,4306.153809,3705.128174,4102.563965,4233.333496,0.000000,4.000000,,,,0.000000,4.000000,4.000000,4.000000,4.000000,4.000000,,,,,,,,,,,,,,,,,,,,,,,,,
1577421844.845041,56.000000,0.000000,4296.410156,4309.230957,3712.820557,4091.794922,4239.487305,0.000000,4.000000,,,,0.000000,4.000000,4.000000,4.000000,4.000000,4.000000,,,,,,,,,,,,,,,,,,,,,,,,,
1577421844.852750,57.000000,0.000000,4287.179688,4282.051270,3708.205078,4073.333252,4225.128418,0.000000,4.000000,,,,0.000000,4.000000,4.000000,4.000000,4.000000,4.000000,,,,,,,,,,,,,,,,,,,,,,,,,
1577421844.860559,58.000000,0.000000,4278.974121,4278.461426,3716.410156,4089.230713,4220.000000,0.000000,4.000000,,,,0.000000,4.000000,4.000000,4.000000,4.000000,4.000000,,,,,,,,,,,,,,,,,,,,,,,,,
1577421844.868267,59.000000,0.000000,4290.256348,4306.666504,3728.718018,4114.871582,4233.333496,0.000000,4.000000,,,,0.000000,4.000000,4.000000,4.000000,4.000000,4.000000,,,,,,,,,,,,,,,,,,,,,,,,,
1577421844.876076,60.000000,0.000000,4297.948730,4312.307617,3731.281982,4117.948730,4242.563965,0.000000,4.000000,,,,0.000000,4.000000,4.000000,4.000000,4.000000,4.000000,,,,,,,,,,,,,,,,,,,,,,,,,
1577421844.883784,61.000000,0.000000,4290.256348,4295.897461,3736.410156,4111.794922,4235.384766,0.000000,4.000000,,,,0.000000,4.000000,4.000000,4.000000,4.000000,4.000000,,,,,,,,,,,,,,,,,,,,,,,,,
1577421844.891592,62.000000,0.000000,4283.589844,4292.820313,3742.051270,4117.948730,4230.769043,0.000000,4.000000,,,,0.000000,4.000000,4.000000,4.000000,4.000000,4.000000,,,,,,,,,,,,,,,,,,,,,,,,,
1577421844.899299,63.000000,0.000000,4287.692383,4298.974121,3747.692383,4133.333496,4245.128418,0.000000,4.000000,,,,0.000000,4.000000,4.000000,4.000000,4.000000,4.000000,,,,,,,,,,,,,,,,,,,,,,,,,
1577421844.907107,64.000000,0.000000,4295.384766,4292.820313,3758.461426,4147.692383,4264.615234,450.000000,4.000000,,,,0.000000,4.000000,4.000000,4.000000,4.000000,4.000000,,,,,,,,,,,,,,,,,,,,,,,,,
1577421844.914814,65.000000,0.000000,4300.000000,4284.102539,3760.000000,4160.000000,4271.794922,450.000000,4.000000,,,,0.000000,4.000000,4.000000,4.000000,4.000000,4.000000,9.900264,0.822333,1.509166,0.781535,0.837760,51.845940,19.378456,5.422769,1.004637,0.652272,96.869598,104.908203,29.737175,14.190050,9.450830,51.132076,3.804645,2.892712,0.846157,0.668020,7.615856,1.506941,1.427885,1.040353,0.874716
1577421844.922622,66.000000,0.000000,4302.051270,4287.692383,3751.794922,4168.205078,4266.666504,16212.000000,4.000000,,,,0.000000,4.000000,4.000000,4.000000,4.000000,4.000000,,,,,,,,,,,,,,,,,,,,,,,,,
1577421844.930329,67.000000,0.000000,4279.487305,4281.025879,3736.410156,4151.794922,4242.563965,450.000000,4.000000,,,,0.000000,4.000000,4.000000,4.000000,4.000000,4.000000,,,,,,,,,,,,,,,,,,,,,,,,,
1577421844.938136,68.000000,0.000000,4247.692383,4260.000000,3711.794922,4128.717773,4215.384766,16189.000000,4.000000,,,,0.000000,4.000000,4.000000,4.000000,4.000000,4.000000,,,,,,,,,,,,,,,,,,,,,,,,,
1577421844.945842,69.000000,0.000000,4260.512695,4270.769043,3714.358887,4138.974121,4222.563965,450.000000,4.000000,,,,0.000000,4.000000,4.000000,4.000000,4.000000,4.000000,,,,,,,,,,,,,,,,,,,,,,,,,
1577421844.953649,70.000000,0.000000,4294.358887,4310.256348,3743.589844,4166.153809,4251.282227,16157.000000,4.000000,,,,0.000000,4.000000,4.000000,4.000000,4.000000,4.000000,,,,,,,,,,,,,,,,,,,,,,,,,
1577421844.961355,71.000000,0.000000,4272.307617,4311.794922,3731.281982,4144.615234,4231.794922,450.000000,4.000000,,,,0.000000,4.000000,4.000000,4.000000,4.000000,4.000000,,,,,,,,,,,,,,,,,,,,,,,,,
1577421844.969066,72.000000,0.000000,4242.563965,4297.948730,3713.333252,4113.846191,4200.512695,450.000000,4.000000,,,,0.000000,4.000000,4.000000,4.000000,4.000000,4.000000,,,,,,,,,,,,,,,,,,,,,,,,,
1577421844.976876,73.000000,0.000000,4295.897461,4334.358887,3772.820557,4168.717773,4257.948730,16157.000000,4.000000,,,,0.000000,4.000000,4.000000,4.000000,4.000000,4.000000,,,,,,,,,,,,,,,,,,,,,,,,,
1577421844.984587,74.000000,0.000000,4352.307617,4364.102539,3827.179443,4193.333496,4315.897461,450.000000,4.000000,,,,0.000000,4.000000,4.000000,4.000000,4.000000,4.000000,,,,,,,,,,,,,,,,,,,,,,,,,
1577421844.992397,75.000000,0.000000,4320.512695,4337.948730,3805.128174,4142.051270,4277.436035,16204.000000,4.000000,,,,0.000000,4.000000,4.000000,4.000000,4.000000,4.000000,,,,,,,,,,,,,,,,,,,,,,,,,
1577421845.000107,76.000000,0.000000,4291.794922,4333.333496,3806.153809,4177.436035,4243.077148,450.000000,4.000000,,,,0.000000,4.000000,4.000000,4.000000,4.000000,4.000000,,,,,,,,,,,,,,,,,,,,,,,,,
1577421845.007917,77.000000,0.000000,4315.897461,4366.666504,3871.281982,4217.436035,4265.641113,450.000000,4.000000,,,,0.000000,4.000000,4.000000,4.000000,4.000000,4.000000,,,,,,,,,,,,,,,,,,,,,,,,,
1577421845.015627,78.000000,0.000000,4320.000000,4373.333496,3914.871826,4158.974121,4274.358887,450.000000,4.000000,,,,0.000000,4.000000,4.000000,4.000000,4.000000,4.000000,,,,,,,,,,,,,,,,,,,,,,,,,
1577421845.023436,79.000000,0.000000,4301.025879,4368.717773,3928.205078,4177.436035,4260.512695,16204.000000,4.000000,,,,0.000000,4.000000,4.000000,4.000000,4.000000,4.000000,,,,,,,,,,,,,,,,,,,,,,,,,
1577421845.031146,80.000000,0.000000,4287.692383,4375.897461,3960.512939,4245.128418,4251.282227,450.000000,4.000000,,,,0.000000,4.000000,4.000000,4.000000,4.000000,4.000000,,,,,,,,,,,,,,,,,,,,,,,,,
1577421845.038955,81.000000,0.000000,4269.743652,4375.897461,3996.923096,4196.410156,4241.538574,450.000000,4.000000,,,,0.000000,4.000000,4.000000,4.000000,4.000000,4.000000,8.388321,0.739659,1.518866,0.773352,0.806098,40.221554,18.188118,4.519168,0.829131,0.657688,111.491287,115.344444,30.203165,13.364969,8.409147,53.480171,2.914428,2.732246,0.900550,0.635373,7.008195,1.315030,1.487031,1.005515,0.776370
1577421845.046664,82.000000,0.000000,4261.538574,4378.461426,3996.923096,4144.615234,4228.717773,450.000000,4.000000,,,,0.000000,4.000000,4.000000,4.000000,4.000000,4.000000,,,,,,,,,,,,,,,,,,,,,,,,,
1577421845.054473,83.000000,0.000000,4262.563965,4391.794922,3986.666748,4156.922852,4220.000000,16204.000000,4.000000,,,,0.000000,4.000000,4.000000,4.000000,4.000000,4.000000,,,,,,,,,,,,,,,,,,,,,,,,,
1577421845.062282,84.000000,0.000000,4261.025879,4397.436035,4004.615479,4147.179688,4223.589844,450.000000,4.000000,,,,0.000000,4.000000,4.000000,4.000000,4.000000,4.000000,,,,,,,,,,,,,,,,,,,,,,,,,
1577421845.069985,85.000000,0.000000,4259.487305,4378.461426,3992.820557,4110.256348,4227.179688,450.000000,4.000000,,,,0.000000,4.000000,4.000000,4.000000,4.000000,4.000000,,,,,,,,,,,,,,,,,,,,,,,,,
1577421845.077694,86.000000,0.000000,4253.333496,4362.563965,3942.051270,4079.487061,4216.922852,450.000000,4.000000,,,,0.000000,4.000000,4.000000,4.000000,4.000000,4.000000,,,,,,,,,,,,,,,,,,,,,,,,,
1577421845.085501,87.000000,0.000000,4250.769043,4373.846191,3913.846191,4071.794922,4211.282227,16204.000000,4.000000,,,,0.000000,4.000000,4.000000,4.000000,4.000000,4.000000,,,,,,,,,,,,,,,,,,,,,,,,,
1577421845.093209,88.000000,0.000000,4259.487305,4373.846191,3884.102539,4075.384521,4221.025879,450.000000,4.000000,,,,0.000000,4.000000,4.000000,4.000000,4.000000,4.000000,,,,,,,,,,,,,,,,,,,,,,,,,
1577421845.101017,89.000000,0.000000,4271.282227,4350.256348,3841.538574,4046.666748,4234.358887,450.000000,4.000000,,,,0.000000,4.000000,4.000000,4.000000,4.000000,4.000000,,,,,,,,,,,,,,,,,,,,,,,,,
1577421845.108723,90.000000,0.000000,4269.230957,4330.769043,3821.025635,4023.076904,4231.282227,450.000000,4.000000,,,,0.000000,4.000000,4.000000,4.000000,4.000000,4.000000,,,,,,,,,,,,,,,,,,,,,,,,,
1577421845.116435,91.000000,0.000000,4270.769043,4325.641113,3821.538574,4047.179443,4226.153809,16204.000000,4.000000,,,,0.000000,4.000000,4.000000,4.000000,4.000000,4.000000,,,,,,,,,,,,,,,,,,,,,,,,,
1577421845.124247,92.000000,0.000000,4287.179688,4334.358887,3825.641113,4077.435791,4238.461426,450.000000,4.000000,,,,0.000000,4.000000,4.000000,4.000000,4.000000,4.000000,,,,,,,,,,,,,,,,,,,,,,,,,
1577421845.132058,93.000000,0.000000,4285.641113,4331.282227,3820.512939,4076.923096,4246.153809,450.000000,4.000000,,,,0.000000,4.000000,4.000000,4.000000,4.000000,4.000000,,,,,,,,,,,,,,,,,,,,,,,,,
1577421845.139765,94.000000,0.000000,4272.307617,4307.692383,3805.128174,4064.615479,4241.538574,450.000000,4.000000,,,,0.000000,4.000000,4.000000,4.000000,4.000000,4.000000,,,,,,,,,,,,,,,,,,,,,,,,,
1577421845.147476,95.000000,0.000000,4272.820313,4293.846191,3788.205078,4051.794922,4231.794922,16204.000000,4.000000,,,,0.000000,4.000000,4.000000,4.000000,4.000000,4.000000,,,,,,,,,,,,,,,,,,,,,,,,,
1577421845.155286,96.000000,0.000000,4271.794922,4284.102539,3770.769287,4039.487061,4225.641113,450.000000,4.000000,,,,0.000000,4.000000,4.000000,4.000000,4.000000,4.000000,,,,,,,,,,,,,,,,,,,,,,,,,
1577421845.162997,97.000000,0.000000,4269.743652,4267.179688,3765.128174,4049.230713,4228.205078,450.000000,4.000000,,,,0.000000,4.000000,4.000000,4.000000,4.000000,4.000000,6.568104,0.834333,1.564039,0.832622,0.828392,29.246941,16.162584,3.702306,0.744542,0.687403,119.374649,113.684029,28.709164,11.629903,6.839649,49.213482,2.427456,2.492183,0.968414,0.686159,5.768490,1.313989,1.527646,1.041698,0.758329
1577421845.170807,98.000000,0.000000,4269.743652,4252.307617,3784.102539,4052.307617,4226.666504,450.000000,4.000000,,,,0.000000,4.000000,4.000000,4.000000,4.000000,4.000000,,,,,,,,,,,,,,,,,,,,,,,,,
1577421845.178618,99.000000,0.000000,4264.615234,4241.538574,3812.307617,4035.897461,4225.128418,16204.000000,4.000000,,,,0.000000,4.000000,4.000000,4.000000,4.000000,4.000000,,,,,,,,,,,,,,,,,,,,,,,,,
1577421845.186323,100.000000,0.000000,4260.512695,4232.307617,3817.948730,4041.538574,4225.641113,450.000000,4.000000,,,,0.000000,4.000000,4.000000,4.000000,4.000000,4.000000,,,,,,,,,,,,,,,,,,,,,,,,,
1577421845.194032,101.000000,0.000000,4248.717773,4211.282227,3803.589844,4053.846191,4213.846191,450.000000,4.000000,,,,0.000000,4.000000,4.000000,4.000000,4.000000,4.000000,,,,,,,,,,,,,,,,,,,,,,,,,
1577421845.201746,102.000000,0.000000,4224.615234,4185.128418,3809.743652,4046.666748,4190.256348,450.000000,4.000000,,,,0.000000,4.000000,4.000000,4.000000,4.000000,4.000000,,,,,,,,,,,,,,,,,,,,,,,,,
1577421845.209465,103.000000,0.000000,4224.615234,4188.717773,3856.410156,4051.794922,4192.820313,16204.000000,4.000000,,,,0.000000,4.000000,4.000000,4.000000,4.000000,4.000000,,,,,,,,,,,,,,,,,,,,,,,,,
1577421845.217283,104.000000,0.000000,4258.461426,4218.974121,3916.410156,4085.641113,4232.820313,450.000000,4.000000,,,,0.000000,4.000000,4.000000,4.000000,4.000000,4.000000,,,,,,,,,,,,,,,,,,,,,,,,,
1577421845.225001,105.000000,0.000000,4271.794922,4229.743652,3958.461426,4097.436035,4247.692383,450.000000,4.000000,,,,0.000000,4.000000,4.000000,4.000000,4.000000,4.000000,,,,,,,,,,,,,,,,,,,,,,,,,
1577421845.232819,106.000000,0.000000,4255.897461,4234.358887,3976.923096,4083.076904,4228.717773,450.000000,4.000000,,,,0.000000,4.000000,4.000000,4.000000,4.000000,4.000000,,,,,,,,,,,,,,,,,,,,,,,,,
1577421845.240537,107.000000,0.000000,4256.922852,4267.179688,3994.871826,4085.641113,4228.205078,16204.000000,4.000000,,,,0.000000,4.000000,4.000000,4.000000,4.000000,4.000000,,,,,,,,,,,,,,,,,,,,,,,,,
1577421845.248354,108.000000,0.000000,4259.487305,4287.692383,4012.307617,4092.820557,4225.128418,450.000000,4.000000,,,,0.000000,4.000000,4.000000,4.000000,4.000000,4.000000,,,,,,,,,,,,,,,,,,,,,,,,,
1577421845.256071,109.000000,0.000000,4243.077148,4283.589844,4012.307617,4074.358887,4202.051270,450.000000,4.000000,,,,0.000000,4.000000,4.000000,4.000000,4.000000,4.000000,,,,,,,,,,,,,,,,,,,,,,,,,
1577421845.263888,110.000000,0.000000,4237.948730,4292.307617,4014.358887,4056.923096,4193.846191,450.000000,4.000000,,,,0.000000,4.000000,4.000000,4.000000,4.000000,4.000000,,,,,,,,,,,,,,,,,,,,,,,,,
1577421845.271605,111.000000,0.000000,4246.666504,4311.794922,4038.974365,4078.974365,4204.102539,16204.000000,4.000000,,,,0.000000,4.000000,4.000000,4.000000,4.000000,4.000000,,,,,,,,,,,,,,,,,,,,,,,,,
1577421845.279422,112.000000,0.000000,4257.436035,4325.128418,4069.230713,4127.692383,4218.461426,450.000000,4.000000,,,,0.000000,4.000000,4.000000,4.000000,4.000000,4.000000,,,,,,,,,,,,,,,,,,,,,,,,,
1577421845.287138,113.000000,0.000000,4262.563965,4318.461426,4077.948730,4136.410156,4223.589844,450.000000,4.000000,,,,0.000000,4.000000,4.000000,4.000000,4.000000,4.000000,5.055436,1.110496,1.598195,0.974590,0.921160,20.649225,13.647831,3.034466,0.745834,0.759488,118.969475,100.215111,25.476370,9.544084,5.232000,40.275875,2.494904,2.173565,1.057692,0.857761,4.273208,1.567431,1.575497,1.163870,0.843866
1577421845.294955,114.000000,0.000000,4261.025879,4305.641113,4076.923096,4110.769043,4228.205078,450.000000,4.000000,,,,0.000000,4.000000,4.000000,4.000000,4.000000,4.000000,,,,,,,,,,,,,,,,,,,,,,,,,
1577421845.302671,115.000000,0.000000,4269.743652,4318.461426,4079.487061,4123.077148,4244.102539,16204.000000,4.000000,,,,0.000000,4.000000,4.000000,4.000000,4.000000,4.000000,,,,,,,,,,,,,,,,,,,,,,,,,
1577421845.310487,116.000000,0.000000,4287.692383,4333.333496,4068.718018,4140.512695,4260.000000,450.000000,4.000000,,,,0.000000,4.000000,4.000000,4.000000,4.000000,4.000000,,,,,,,,,,,,,,,,,,,,,,,,,
1577421845.318203,117.000000,0.000000,4302.563965,4321.025879,4052.307617,4129.743652,4267.692383,450.000000,4.000000,,,,0.000000,4.000000,4.000000,4.000000,4.000000,4.000000,,,,,,,,,,,,,,,,,,,,,,,,,
1577421845.326018,118.000000,0.000000,4300.512695,4293.333496,4044.615479,4130.769043,4255.897461,450.000000,4.000000,,,,0.000000,4.000000,4.000000,4.000000,4.000000,4.000000,,,,,,,,,,,,,,,,,,,,,,,,,
1577421845.333733,119.000000,0.000000,4294.358887,4281.025879,4040.512939,4136.410156,4241.025879,16204.000000,4.000000,,,,0.000000,4.000000,4.000000,4.000000,4.000000,4.000000,,,,,,,,,,,,,,,,,,,,,,,,,
1577421845.341548,120.000000,0.000000,4303.077148,4296.410156,4037.435791,4128.205078,4247.692383,450.000000,4.000000,,,,0.000000,4.000000,4.000000,4.000000,4.000000,4.000000,,,,,,,,,,,,,,,,,,,,,,,,,
1577421845.349263,121.000000,0.000000,4308.205078,4294.871582,4033.846191,4113.333496,4251.794922,450.000000,4.000000,,,,0.000000,4.000000,4.000000,4.000000,4.000000,4.000000,,,,,,,,,,,,,,,,,,,,,,,,,
1577421845.357078,122.000000,0.000000,4301.025879,4272.307617,4035.384521,4107.179688,4237.436035,450.000000,4.000000,,,,0.000000,4.000000,4.000000,4.000000,4.000000,4.000000,,,,,,,,,,,,,,,,,,,,,,,,,
1577421845.364793,123.000000,0.000000,4302.563965,4285.641113,4051.281982,4123.077148,4232.307617,16204.000000,4.000000,,,,0.000000,4.000000,4.000000,4.000000,4.000000,4.000000,,,,,,,,,,,,,,,,,,,,,,,,,
1577421845.372512,124.000000,0.000000,4298.974121,4314.871582,4072.820557,4135.897461,4237.948730,450.000000,4.000000,,,,0.000000,4.000000,4.000000,4.000000,4.000000,4.000000,,,,,,,,,,,,,,,,,,,,,,,,,
1577421845.380330,125.000000,0.000000,4279.487305,4312.820313,4086.666748,4108.717773,4226.153809,450.000000,4.000000,,,,0.000000,4.000000,4.000000,4.000000,4.000000,4.000000,,,,,,,,,,,,,,,,,,,,,,,,,
1577421845.388049,126.000000,0.000000,4269.743652,4314.871582,4103.077148,4086.153809,4211.282227,450.000000,4.000000,,,,0.000000,4.000000,4.000000,4.000000,4.000000,4.000000,,,,,,,,,,,,,,,,,,,,,,,,,
1577421845.395867,127.000000,0.000000,4288.717773,4342.051270,4146.666504,4134.358887,4234.358887,234.000000,4.000000,,,,0.000000,4.000000,4.000000,4.000000,4.000000,4.000000,,,,,,,,,,,,,,,,,,,,,,,,,
1577421845.403585,0.000000,0.000000,4297.948730,4346.153809,4187.179688,4173.333496,4255.384766,450.000000,4.000000,,,,0.000000,4.000000,4.000000,4.000000,4.000000,4.000000,,,,,,,,,,,,,,,,,,,,,,,,,
1577421845.411403,1.000000,0.000000,4272.307617,4330.256348,4189.743652,4140.000000,4237.436035,450.000000,4.000000,,,,0.000000,4.000000,4.000000,4.000000,4.000000,4.000000,4.315903,1.591225,1.598935,1.173129,1.093405,14.777140,10.987006,2.468573,0.783260,0.878695,117.427498,78.813736,20.940882,7.576015,3.948329,30.110327,3.080508,1.813032,1.176775,1.187166,2.993597,2.120646,1.670713,1.346206,1.040683
1577421845.419120,2.000000,0.000000,4266.666504,4349.230957,4197.948730,4129.230957,4230.256348,16213.000000,4.000000,,,,0.000000,4.000000,4.000000,4.000000,4.000000,4.000000,,,,,,,,,,,,,,,,,,,,,,,,,
1577421845.426937,3.000000,0.000000,4276.410156,4377.948730,4217.436035,4157.436035,4237.436035,450.000000,4.000000,,,,0.000000,4.000000,4.000000,4.000000,4.000000,4.000000,,,,,,,,,,,,,,,,,,,,,,,,,
1577421845.434654,4.000000,0.000000,4267.179688,4369.743652,4217.436035,4160.000000,4232.307617,16187.000000,4.000000,,,,0.000000,4.000000,4.000000,4.000000,4.000000,4.000000,,,,,,,,,,,,,,,,,,,,,,,,,
1577421845.442471,5.000000,0.000000,4253.846191,4355.384766,4205.128418,4142.563965,4222.051270,450.000000,4.000000,,,,0.000000,4.000000,4.000000,4.000000,4.000000,4.000000,,,,,,,,,,,,,,,,,,,,,,,,,
1577421845.450188,6.000000,0.000000,4242.051270,4362.051270,4193.846191,4125.641113,4206.666504,16152.000000,4.000000,,,,0.000000,4.000000,4.000000,4.000000,4.000000,4.000000,,,,,,,,,,,,,,,,,,,,,,,,,
1577421845.458005,7.000000,0.000000,4240.512695,4372.307617,4191.282227,4131.282227,4201.025879,450.000000,4.000000,,,,0.000000,4.000000,4.000000,4.000000,4.000000,4.000000,,,,,,,,,,,,,,,,,,,,,,,,,
1577421845.465722,8.000000,0.000000,4255.384766,4375.897461,4195.897461,4157.948730,4219.487305,450.000000,4.000000,,,,0.000000,4.000000,4.000000,4.000000,4.000000,4.000000,,,,,,,,,,,,,,,,,,,,,,,,,
1577421845.473538,9.000000,0.000000,4264.615234,4373.333496,4190.256348,4173.846191,4236.922852,16163.000000,4.000000,,,,0.000000,4.000000,4.000000,4.000000,4.000000,4.000000,,,,,,,,,,,,,,,,,,,,,,,,,
1577421845.481254,10.000000,0.000000,4252.307617,4350.769043,4177.436035,4152.820313,4225.128418,450.000000,4.000000,,,,0.000000,4.000000,4.000000,4.000000,4.000000,4.000000,,,,,,,,,,,,,,,,,,,,,,,,,
1577421845.489070,11.000000,0.000000,4241.025879,4310.769043,4168.717773,4125.128418,4207.692383,16212.000000,4.000000,,,,0.000000,4.000000,4.000000,4.000000,4.000000,4.000000,,,,,,,,,,,,,,,,,,,,,,,,,
1577421845.496786,12.000000,0.000000,4250.256348,4300.512695,4165.128418,4143.077148,4216.922852,450.000000,4.000000,,,,0.000000,4.000000,4.000000,4.000000,4.000000,4.000000,,,,,,,,,,,,,,,,,,,,,,,,,
1577421845.504506,13.000000,0.000000,4266.153809,4304.102539,4168.205078,4184.102539,4232.820313,450.000000,4.000000,,,,0.000000,4.000000,4.000000,4.000000,4.000000,4.000000,,,,,,,,,,,,,,,,,,,,,,,,,
1577421845.512326,14.000000,0.000000,4269.743652,4284.102539,4163.589844,4187.692383,4230.769043,450.000000,4.000000,,,,0.000000,4.000000,4.000000,4.000000,4.000000,4.000000,,,,,,,,,,,,,,,,,,,,,,,,,
1577421845.520146,15.000000,0.000000,4263.077148,4273.333496,4146.153809,4167.692383,4221.538574,16212.000000,4.000000,,,,0.000000,4.000000,4.000000,4.000000,4.000000,4.000000,,,,,,,,,,,,,,,,,,,,,,,,,
1577421845.527861,16.000000,0.000000,4255.384766,4272.307617,4127.692383,4163.589844,4217.948730,0.000000,4.000000,,,,0.000000,4.000000,4.000000,4.000000,4.000000,4.000000,,,,,,,,,,,,,,,,,,,,,,,,,
1577421845.535580,17.000000,0.000000,4254.358887,4264.615234,4124.615234,4164.102539,4222.563965,0.000000,4.000000,,,,0.000000,4.000000,4.000000,4.000000,4.000000,4.000000,4.540370,2.314260,1.584218,1.375710,1.333397,11.349782,8.544181,1.948971,0.801739,1.032312,119.216545,54.992023,15.740050,5.992407,3.100624,21.547647,4.054494,1.485449,1.327002,1.676817,2.299884,2.978233,1.855383,1.540367,1.329066
1577421845.543399,18.000000,0.000000,4266.666504,4263.077148,4130.256348,4163.589844,4229.743652,0.000000,4.000000,,,,0.000000,4.000000,4.000000,4.000000,4.000000,4.000000,,,,,,,,,,,,,,,,,,,,,,,,,
1577421845.551118,19.000000,0.000000,4267.179688,4263.589844,4122.563965,4162.563965,4228.205078,0.000000,4.000000,,,,0.000000,4.000000,4.000000,4.000000,4.000000,4.000000,,,,,,,,,,,,,,,,,,,,,,,,,
1577421845.558936,20.000000,0.000000,4251.794922,4256.410156,4110.769043,4155.384766,4220.512695,0.000000,4.000000,,,,0.000000,4.000000,4.000000,4.000000,4.000000,4.000000,,,,,,,,,,,,,,,,,,,,,,,,,
1577421845.566655,21.000000,0.000000,4257.436035,4258.974121,4114.871582,4160.000000,4228.717773,0.000000,4.000000,,,,0.000000,4.000000,4.000000,4.000000,4.000000,4.000000,,,,,,,,,,,,,,,,,,,,,,,,,
1577421845.574473,22.000000,0.000000,4272.307617,4273.846191,4125.128418,4167.179688,4240.000000,0.000000,4.000000,,,,0.000000,4.000000,4.000000,4.000000,4.000000,4.000000,,,,,,,,,,,,,,,,,,,,,,,,,
1577421845.582191,23.000000,0.000000,4261.025879,4276.922852,4115.384766,4161.025879,4226.666504,0.000000,4.000000,,,,0.000000,4.000000,4.000000,4.000000,4.000000,4.000000,,,,,,,,,,,,,,,,,,,,,,,,,
1577421845.590009,24.000000,0.000000,4249.230957,4267.179688,4105.128418,4164.102539,4215.384766,0.000000,4.000000,,,,0.000000,4.000000,4.000000,4.000000,4.000000,4.000000,,,,,,,,,,,,,,,,,,,,,,,,,
1577421845.597727,25.000000,0.000000,4249.230957,4261.025879,4109.230957,4181.025879,4216.410156,0.000000,4.000000,,,,0.000000,4.000000,4.000000,4.000000,4.000000,4.000000,,,,,,,,,,,,,,,,,,,,,,,,,
1577421845.605545,26.000000,0.000000,4246.666504,4260.000000,4116.922852,4190.256348,4213.846191,0.000000,4.000000,,,,0.000000,4.000000,4.000000,4.000000,4.000000,4.000000,,,,,,,,,,,,,,,,,,,,,,,,,
1577421845.613262,27.000000,0.000000,4264.615234,4270.769043,4144.102539,4206.666504,4229.743652,0.000000,4.000000,,,,0.000000,4.000000,4.000000,4.000000,4.000000,4.000000,,,,,,,,,,,,,,,,,,,,,,,,,
1577421845.621080,28.000000,0.000000,4284.102539,4282.051270,4155.384766,4219.487305,4244.102539,0.000000,4.000000,,,,0.000000,4.000000,4.000000,4.000000,4.000000,4.000000,,,,,,,,,,,,,,,,,,,,,,,,,
1577421845.628897,29.000000,0.000000,4265.128418,4262.563965,4107.179688,4184.615234,4217.436035,0.000000,4.000000,,,,0.000000,4.000000,4.000000,4.000000,4.000000,4.000000,,,,,,,,,,,,,,,,,,,,,,,,,
1577421845.636610,30.000000,0.000000,4242.563965,4226.153809,4064.102539,4153.333496,4193.846191,0.000000,4.000000,,,,0.000000,4.000000,4.000000,4.000000,4.000000,4.000000,,,,,,,,,,,,,,,,,,,,,,,,,
1577421845.644326,31.000000,0.000000,4241.025879,4211.282227,4065.641113,4174.358887,4191.282227,0.000000,4.000000,,,,0.000000,4.000000,4.000000,4.000000,4.000000,4.000000,,,,,,,,,,,,,,,,,,,,,,,,,
1577421845.652143,32.000000,0.000000,4244.615234,4208.717773,4070.256348,4200.512695,4193.333496,0.000000,4.000000,,,,0.000000,4.000000,4.000000,4.000000,4.000000,4.000000,,,,,,,,,,,,,,,,,,,,,,,,,
1577421845.659859,33.000000,0.000000,4251.794922,4196.410156,4068.205078,4197.436035,4199.487305,0.000000,4.000000,,,,0.000000,4.000000,4.000000,4.000000,4.000000,4.000000,5.661249,3.231061,1.589958,1.523444,1.593783,11.418666,6.699133,1.475518,0.779733,1.193551,129.890808,34.230362,10.692350,4.849582,2.580076,16.503918,5.244576,1.286593,1.494983,2.275896,2.330266,4.077348,2.146382,1.698767,1.648344
1577421845.667676,34.000000,0.000000,4260.512695,4189.230957,4078.974365,4194.358887,4205.128418,0.000000,4.000000,,,,0.000000,4.000000,4.000000,4.000000,4.000000,4.000000,,,,,,,,,,,,,,,,,,,,,,,,,
1577421845.675493,35.000000,0.000000,4266.666504,4188.205078,4097.436035,4212.820313,4214.871582,0.000000,4.000000,,,,0.000000,4.000000,4.000000,4.000000,4.000000,4.000000,,,,,,,,,,,,,,,,,,,,,,,,,
1577421845.683204,36.000000,0.000000,4270.256348,4186.153809,4105.641113,4231.282227,4221.538574,0.000000,4.000000,,,,0.000000,4.000000,4.000000,4.000000,4.000000,4.000000,,,,,,,,,,,,,,,,,,,,,,,,,
1577421845.690920,37.000000,0.000000,4263.589844,4185.128418,4095.897461,4223.077148,4217.948730,0.000000,4.000000,,,,0.000000,4.000000,4.000000,4.000000,4.000000,4.000000,,,,,,,,,,,,,,,,,,,,,,,,,
1577421845.698640,38.000000,0.000000,4258.974121,4189.230957,4086.153809,4212.307617,4217.436035,0.000000,4.000000,,,,0.000000,4.000000,4.000000,4.000000,4.000000,4.000000,,,,,,,,,,,,,,,,,,,,,,,,,
1577421845.706459,39.000000,0.000000,4265.641113,4191.794922,4089.743652,4225.641113,4223.077148,0.000000,4.000000,,,,0.000000,4.000000,4.000000,4.000000,4.000000,4.000000,,,,,,,,,,,,,,,,,,,,,,,,,
1577421845.714279,40.000000,0.000000,4266.153809,4187.179688,4085.641113,4234.871582,4223.589844,0.000000,4.000000,,,,0.000000,4.000000,4.000000,4.000000,4.000000,4.000000,,,,,,,,,,,,,,,,,,,,,,,,,
1577421845.721994,41.000000,0.000000,4258.974121,4189.743652,4068.718018,4223.589844,4214.871582,0.000000,4.000000,,,,0.000000,4.000000,4.000000,4.000000,4.000000,4.000000,,,,,,,,,,,,,,,,,,,,,,,,,
1577421845.729809,42.000000,0.000000,4249.230957,4190.256348,4054.358887,4207.692383,4205.641113,0.000000,4.000000,,,,0.000000,4.000000,4.000000,4.000000,4.000000,4.000000,,,,,,,,,,,,,,,,,,,,,,,,,
1577421845.737524,43.000000,0.000000,4243.589844,4180.000000,4058.461426,4193.846191,4204.615234,0.000000,4.000000,,,,0.000000,4.000000,4.000000,4.000000,4.000000,4.000000,,,,,,,,,,,,,,,,,,,,,,,,,
1577421845.745243,44.000000,0.000000,4245.128418,4178.461426,4060.512939,4186.153809,4208.205078,0.000000,4.000000,,,,0.000000,4.000000,4.000000,4.000000,4.000000,4.000000,,,,,,,,,,,,,,,,,,,,,,,,,
1577421845.753062,45.000000,0.000000,4250.769043,4185.641113,4043.589844,4197.436035,4211.794922,0.000000,4.000000,,,,0.000000,4.000000,4.000000,4.000000,4.000000,4.000000,,,,,,,,,,,,,,,,,,,,,,,,,
1577421845.760880,46.000000,0.000000,4258.974121,4190.256348,4034.871826,4220.000000,4219.487305,0.000000,4.000000,,,,0.000000,4.000000,4.000000,4.000000,4.000000,4.000000,,,,,,,,,,,,,,,,,,,,,,,,,
1577421845.768594,47.000000,0.000000,4245.128418,4189.743652,4026.153809,4215.897461,4213.846191,0.000000,4.000000,,,,0.000000,4.000000,4.000000,4.000000,4.000000,4.000000,,,,,,,,,,,,,,,,,,,,,,,,,
1577421845.776312,48.000000,0.000000,4229.230957,4192.820313,4015.384521,4206.153809,4205.128418,0.000000,4.000000,,,,0.000000,4.000000,4.000000,4.000000,4.000000,4.000000,,,,,,,,,,,,,,,,,,,,,,,,,
1577421845.784130,49.000000,0.000000,4243.077148,4187.692383,4018.974365,4212.820313,4215.897461,0.000000,4.000000,,,,0.000000,4.000000,4.000000,4.000000,4.000000,4.000000,7.243479,4.166385,1.623549,1.576407,1.800395,16.043522,5.720846,1.157631,0.735553,1.331235,150.060699,19.921904,6.637959,4.086528,2.211919,14.572111,6.481075,1.243124,1.652169,2.879423,2.851363,5.238657,2.494136,1.783158,1.908597
1577421845.791848,50.000000,0.000000,4251.282227,4172.307617,4017.948730,4215.897461,4226.666504,0.000000,4.000000,,,,0.000000,4.000000,4.000000,4.000000,4.000000,4.000000,,,,,,,,,,,,,,,,,,,,,,,,,
1577421845.799665,51.000000,0.000000,4241.538574,4179.487305,4008.205078,4223.589844,4224.102539,0.000000,4.000000,,,,0.000000,4.000000,4.000000,4.000000,4.000000,4.000000,,,,,,,,,,,,,,,,,,,,,,,,,
1577421845.807382,52.000000,0.000000,4240.512695,4195.897461,4006.153809,4227.692383,4218.461426,0.000000,4.000000,,,,0.000000,4.000000,4.000000,4.000000,4.000000,4.000000,,,,,,,,,,,,,,,,,,,,,,,,,
1577421845.815199,53.000000,0.000000,4247.692383,4188.205078,4011.794922,4217.436035,4222.563965,0.000000,4.000000,,,,0.000000,4.000000,4.000000,4.000000,4.000000,4.000000,,,,,,,,,,,,,,,,,,,,,,,,,
1577421845.822916,54.000000,0.000000,4245.128418,4169.743652,4013.846191,4208.205078,4225.128418,0.000000,4.000000,,,,0.000000,4.000000,4.000000,4.000000,4.000000,4.000000,,,,,,,,,,,,,,,,,,,,,,,,,
1577421845.830733,55.000000,0.000000,4235.897461,4164.102539,4010.769287,4198.974121,4214.871582,0.000000,4.000000,,,,0.000000,4.000000,4.000000,4.000000,4.000000,4.000000,,,,,,,,,,,,,,,,,,,,,,,,,
1577421845.838449,56.000000,0.000000,4240.512695,4178.974121,4018.461426,4198.974121,4214.358887,0.000000,4.000000,,,,0.000000,4.000000,4.000000,4.000000,4.000000,4.000000,,,,,,,,,,,,,,,,,,,,,,,,,
1577421845.846265,57.000000,0.000000,4246.666504,4190.256348,4042.564209,4209.743652,4224.102539,0.000000,4.000000,,,,0.000000,4.000000,4.000000,4.000000,4.000000,4.000000,,,,,,,,,,,,,,,,,,,,,,,,,
1577421845.853982,58.000000,0.000000,4229.743652,4178.974121,4063.076904,4204.615234,4214.871582,0.000000,4.000000,,,,0.000000,4.000000,4.000000,4.000000,4.000000,4.000000,,,,,,,,,,,,,,,,,,,,,,,,,
1577421845.861798,59.000000,0.000000,4219.487305,4185.641113,4084.102539,4196.922852,4197.436035,0.000000,4.000000,,,,0.000000,4.000000,4.000000,4.000000,4.000000,4.000000,,,,,,,,,,,,,,,,,,,,,,,,,
1577421845.869514,60.000000,0.000000,4239.487305,4220.512695,4131.794922,4212.820313,4206.153809,0.000000,4.000000,,,,0.000000,4.000000,4.000000,4.000000,4.000000,4.000000,,,,,,,,,,,,,,,,,,,,,,,,,
1577421845.877329,61.000000,0.000000,4256.410156,4235.897461,4185.128418,4223.589844,4224.102539,0.000000,4.000000,,,,0.000000,4.000000,4.000000,4.000000,4.000000,4.000000,,,,,,,,,,,,,,,,,,,,,,,,,
1577421845.885045,62.000000,0.000000,4252.820313,4230.256348,4227.692383,4218.974121,4220.000000,0.000000,4.000000,,,,0.000000,4.000000,4.000000,4.000000,4.000000,4.000000,,,,,,,,,,,,,,,,,,,,,,,,,
1577421845.892861,63.000000,0.000000,4261.538574,4242.563965,4278.974121,4239.487305,4227.179688,0.000000,4.000000,,,,0.000000,4.000000,4.000000,4.000000,4.000000,4.000000,,,,,,,,,,,,,,,,,,,,,,,,,
1577421845.900576,64.000000,0.000000,4288.717773,4262.563965,4310.769043,4269.230957,4258.974121,450.000000,4.000000,,,,0.000000,4.000000,4.000000,4.000000,4.000000,4.000000,,,,,,,,,,,,,,,,,,,,,,,,,
1577421845.908391,65.000000,0.000000,4286.666504,4247.692383,4292.820313,4252.307617,4263.077148,450.000000,4.000000,,,,0.000000,4.000000,4.000000,4.000000,4.000000,4.000000,8.778632,4.883211,1.653909,1.537030,1.886056,24.042343,5.286792,1.055450,0.703290,1.418576,174.426666,12.688914,4.274786,3.653664,1.920741,14.678765,7.539457,1.347907,1.783403,3.361964,3.503275,6.187879,2.807390,1.785696,2.030252
1577421845.916106,66.000000,0.000000,4263.077148,4214.871582,4277.948730,4219.487305,4246.153809,16218.000000,4.000000,,,,0.000000,4.000000,4.000000,4.000000,4.000000,4.000000,,,,,,,,,,,,,,,,,,,,,,,,,
1577421845.923920,67.000000,0.000000,4247.692383,4196.922852,4276.922852,4229.743652,4237.436035,450.000000,4.000000,,,,0.000000,4.000000,4.000000,4.000000,4.000000,4.000000,,,,,,,,,,,,,,,,,,,,,,,,,
1577421845.931634,68.000000,0.000000,4233.333496,4200.512695,4251.282227,4229.230957,4226.666504,16196.000000,4.000000,,,,0.000000,4.000000,4.000000,4.000000,4.000000,4.000000,,,,,,,,,,,,,,,,,,,,,,,,,
1577421845.939353,69.000000,0.000000,4208.205078,4199.487305,4215.897461,4189.230957,4207.179688,450.000000,4.000000,,,,0.000000,4.000000,4.000000,4.000000,4.000000,4.000000,,,,,,,,,,,,,,,,,,,,,,,,,
1577421845.947171,70.000000,0.000000,4197.948730,4192.307617,4205.641113,4191.282227,4200.512695,16158.000000,4.000000,,,,0.000000,4.000000,4.000000,4.000000,4.000000,4.000000,,,,,,,,,,,,,,,,,,,,,,,,,
1577421845.954889,71.000000,0.000000,4211.794922,4209.230957,4207.179688,4231.794922,4213.333496,450.000000,4.000000,,,,0.000000,4.000000,4.000000,4.000000,4.000000,4.000000,,,,,,,,,,,,,,,,,,,,,,,,,
1577421845.962706,72.000000,0.000000,4206.153809,4228.205078,4198.974121,4229.230957,4204.102539,450.000000,4.000000,,,,0.000000,4.000000,4.000000,4.000000,4.000000,4.000000,,,,,,,,,,,,,,,,,,,,,,,,,
1577421845.970424,73.000000,0.000000,4189.230957,4226.153809,4197.436035,4203.077148,4192.820313,16170.000000,4.000000,,,,0.000000,4.000000,4.000000,4.000000,4.000000,4.000000,,,,,,,,,,,,,,,,,,,,,,,,,
1577421845.978241,74.000000,0.000000,4190.256348,4226.666504,4202.563965,4200.000000,4200.000000,450.000000,4.000000,,,,0.000000,4.000000,4.000000,4.000000,4.000000,4.000000,,,,,,,,,,,,,,,,,,,,,,,,,
1577421845.985959,75.000000,0.000000,4199.487305,4247.179688,4211.794922,4220.512695,4203.077148,16218.000000,4.000000,,,,0.000000,4.000000,4.000000,4.000000,4.000000,4.000000,,,,,,,,,,,,,,,,,,,,,,,,,
1577421845.993776,76.000000,0.000000,4217.948730,4266.666504,4233.333496,4245.641113,4216.922852,450.000000,4.000000,,,,0.000000,4.000000,4.000000,4.000000,4.000000,4.000000,,,,,,,,,,,,,,,,,,,,,,,,,
1577421846.001493,77.000000,0.000000,4222.563965,4263.077148,4235.384766,4234.358887,4222.563965,450.000000,4.000000,,,,0.000000,4.000000,4.000000,4.000000,4.000000,4.000000,,,,,,,,,,,,,,,,,,,,,,,,,
1577421846.009309,78.000000,0.000000,4204.615234,4256.922852,4213.333496,4215.384766,4212.307617,450.000000,4.000000,,,,0.000000,4.000000,4.000000,4.000000,4.000000,4.000000,,,,,,,,,,,,,,,,,,,,,,,,,
1577421846.017026,79.000000,0.000000,4204.615234,4267.179688,4209.743652,4236.410156,4215.897461,16218.000000,4.000000,,,,0.000000,4.000000,4.000000,4.000000,4.000000,4.000000,,,,,,,,,,,,,,,,,,,,,,,,,
1577421846.024842,80.000000,0.000000,4222.563965,4272.820313,4215.384766,4238.461426,4223.589844,450.000000,4.000000,,,,0.000000,4.000000,4.000000,4.000000,4.000000,4.000000,,,,,,,,,,,,,,,,,,,,,,,,,
1577421846.032558,81.000000,0.000000,4226.666504,4270.769043,4208.205078,4220.512695,4224.615234,450.000000,4.000000,,,,0.000000,4.000000,4.000000,4.000000,4.000000,4.000000,9.863472,5.158813,1.647484,1.441335,1.820316,33.003452,4.958116,1.154288,0.704301,1.439115,193.549377,10.838284,3.452958,3.419407,1.682175,15.094047,8.239704,1.522118,1.886183,3.620533,4.017926,6.681445,3.001176,1.724988,1.977076
1577421846.040374,82.000000,0.000000,4225.128418,4283.589844,4205.641113,4231.794922,4225.641113,450.000000,4.000000,,,,0.000000,4.000000,4.000000,4.000000,4.000000,4.000000,,,,,,,,,,,,,,,,,,,,,,,,,
1577421846.048190,83.000000,0.000000,4221.538574,4282.563965,4198.974121,4227.692383,4222.051270,16218.000000,4.000000,,,,0.000000,4.000000,4.000000,4.000000,4.000000,4.000000,,,,,,,,,,,,,,,,,,,,,,,,,
1577421846.055902,84.000000,0.000000,4211.282227,4259.487305,4186.153809,4209.743652,4220.000000,450.000000,4.000000,,,,0.000000,4.000000,4.000000,4.000000,4.000000,4.000000,,,,,,,,,,,,,,,,,,,,,,,,,
1577421846.063617,85.000000,0.000000,4207.692383,4248.205078,4181.025879,4213.333496,4220.512695,450.000000,4.000000,,,,0.000000,4.000000,4.000000,4.000000,4.000000,4.000000,,,,,,,,,,,,,,,,,,,,,,,,,
1577421846.071433,86.000000,0.000000,4227.692383,4258.974121,4189.743652,4224.102539,4225.128418,450.000000,4.000000,,,,0.000000,4.000000,4.000000,4.000000,4.000000,4.000000,,,,,,,,,,,,,,,,,,,,,,,,,
1577421846.079148,87.000000,0.000000,4260.000000,4280.512695,4213.333496,4242.051270,4248.717773,16218.000000,4.000000,,,,0.000000,4.000000,4.000000,4.000000,4.000000,4.000000,,,,,,,,,,,,,,,,,,,,,,,,,
1577421846.086963,88.000000,0.000000,4261.538574,4284.615234,4224.615234,4224.615234,4253.846191,450.000000,4.000000,,,,0.000000,4.000000,4.000000,4.000000,4.000000,4.000000,,,,,,,,,,,,,,,,,,,,,,,,,
1577421846.094677,89.000000,0.000000,4245.128418,4288.205078,4229.743652,4190.769043,4234.358887,450.000000,4.000000,,,,0.000000,4.000000,4.000000,4.000000,4.000000,4.000000,,,,,,,,,,,,,,,,,,,,,,,,,
1577421846.102396,90.000000,0.000000,4248.205078,4311.794922,4245.641113,4224.615234,4228.717773,450.000000,4.000000,,,,0.000000,4.000000,4.000000,4.000000,4.000000,4.000000,,,,,,,,,,,,,,,,,,,,,,,,,
1577421846.110215,91.000000,0.000000,4249.230957,4322.563965,4254.871582,4233.333496,4230.769043,16218.000000,4.000000,,,,0.000000,4.000000,4.000000,4.000000,4.000000,4.000000,,,,,,,,,,,,,,,,,,,,,,,,,
1577421846.117933,92.000000,0.000000,4234.871582,4315.897461,4257.948730,4179.487305,4220.000000,450.000000,4.000000,,,,0.000000,4.000000,4.000000,4.000000,4.000000,4.000000,,,,,,,,,,,,,,,,,,,,,,,,,
1577421846.125751,93.000000,0.000000,4220.000000,4313.846191,4254.871582,4193.333496,4201.538574,450.000000,4.000000,,,,0.000000,4.000000,4.000000,4.000000,4.000000,4.000000,,,,,,,,,,,,,,,,,,,,,,,,,
1577421846.133469,94.000000,0.000000,4220.000000,4317.948730,4253.846191,4252.820313,4207.692383,450.000000,4.000000,,,,0.000000,4.000000,4.000000,4.000000,4.000000,4.000000,,,,,,,,,,,,,,,,,,,,,,,,,
1577421846.141287,95.000000,0.000000,4228.717773,4333.333496,4265.641113,4240.000000,4224.615234,16218.000000,4.000000,,,,0.000000,4.000000,4.000000,4.000000,4.000000,4.000000,,,,,,,,,,,,,,,,,,,,,,,,,
1577421846.149105,96.000000,0.000000,4213.333496,4341.538574,4254.871582,4195.384766,4209.743652,450.000000,4.000000,,,,0.000000,4.000000,4.000000,4.000000,4.000000,4.000000,,,,,,,,,,,,,,,,,,,,,,,,,
1577421846.156818,97.000000,0.000000,4192.820313,4322.051270,4229.230957,4192.820313,4188.717773,450.000000,4.000000,,,,0.000000,4.000000,4.000000,4.000000,4.000000,4.000000,10.266058,4.935673,1.599902,1.338023,1.624258,40.178654,4.571465,1.377928,0.740216,1.393712,199.053406,11.739156,3.439558,3.212945,1.471417,14.736058,8.540133,1.641258,1.961078,3.614562,4.256751,6.639664,3.008268,1.624422,1.769763
1577421846.164536,98.000000,0.000000,4201.025879,4296.410156,4216.922852,4186.153809,4195.897461,450.000000,4.000000,,,,0.000000,4.000000,4.000000,4.000000,4.000000,4.000000,,,,,,,,,,,,,,,,,,,,,,,,,
1577421846.172353,99.000000,0.000000,4203.589844,4287.179688,4198.974121,4178.461426,4193.846191,16218.000000,4.000000,,,,0.000000,4.000000,4.000000,4.000000,4.000000,4.000000,,,,,,,,,,,,,,,,,,,,,,,,,
1577421846.180070,100.000000,0.000000,4202.051270,4295.897461,4185.128418,4191.794922,4184.102539,450.000000,4.000000,,,,0.000000,4.000000,4.000000,4.000000,4.000000,4.000000,,,,,,,,,,,,,,,,,,,,,,,,,
1577421846.187887,101.000000,0.000000,4226.153809,4300.000000,4193.846191,4190.256348,4203.077148,450.000000,4.000000,,,,0.000000,4.000000,4.000000,4.000000,4.000000,4.000000,,,,,,,,,,,,,,,,,,,,,,,,,
1577421846.195603,102.000000,0.000000,4240.000000,4277.436035,4200.512695,4182.563965,4215.384766,450.000000,4.000000,,,,0.000000,4.000000,4.000000,4.000000,4.000000,4.000000,,,,,,,,,,,,,,,,,,,,,,,,,
1577421846.203419,103.000000,0.000000,4220.000000,4251.794922,4184.615234,4183.589844,4197.436035,16218.000000,4.000000,,,,0.000000,4.000000,4.000000,4.000000,4.000000,4.000000,,,,,,,,,,,,,,,,,,,,,,,,,
1577421846.211136,104.000000,0.000000,4217.948730,4254.358887,4177.436035,4193.846191,4203.077148,450.000000,4.000000,,,,0.000000,4.000000,4.000000,4.000000,4.000000,4.000000,,,,,,,,,,,,,,,,,,,,,,,,,
1577421846.218953,105.000000,0.000000,4242.563965,4257.436035,4183.589844,4206.153809,4228.717773,450.000000,4.000000,,,,0.000000,4.000000,4.000000,4.000000,4.000000,4.000000,,,,,,,,,,,,,,,,,,,,,,,,,
1577421846.226668,106.000000,0.000000,4238.974121,4240.512695,4176.410156,4204.102539,4218.461426,450.000000,4.000000,,,,0.000000,4.000000,4.000000,4.000000,4.000000,4.000000,,,,,,,,,,,,,,,,,,,,,,,,,
1577421846.234484,107.000000,0.000000,4231.794922,4251.794922,4175.897461,4204.102539,4212.820313,16218.000000,4.000000,,,,0.000000,4.000000,4.000000,4.000000,4.000000,4.000000,,,,,,,,,,,,,,,,,,,,,,,,,
1577421846.242200,108.000000,0.000000,4240.512695,4263.589844,4178.461426,4209.230957,4221.538574,450.000000,4.000000,,,,0.000000,4.000000,4.000000,4.000000,4.000000,4.000000,,,,,,,,,,,,,,,,,,,,,,,,,
1577421846.249920,109.000000,0.000000,4227.692383,4248.717773,4168.717773,4194.358887,4206.666504,450.000000,4.000000,,,,0.000000,4.000000,4.000000,4.000000,4.000000,4.000000,,,,,,,,,,,,,,,,,,,,,,,,,
1577421846.257739,110.000000,0.000000,4223.077148,4266.666504,4172.307617,4200.512695,4200.000000,450.000000,4.000000,,,,0.000000,4.000000,4.000000,4.000000,4.000000,4.000000,,,,,,,,,,,,,,,,,,,,,,,,,
1577421846.265559,111.000000,0.000000,4237.436035,4301.025879,4189.230957,4232.307617,4214.358887,16218.000000,4.000000,,,,0.000000,4.000000,4.000000,4.000000,4.000000,4.000000,,,,,,,,,,,,,,,,,,,,,,,,,
1577421846.273274,112.000000,0.000000,4241.025879,4301.025879,4197.948730,4207.179688,4223.077148,450.000000,4.000000,,,,0.000000,4.000000,4.000000,4.000000,4.000000,4.000000,,,,,,,,,,,,,,,,,,,,,,,,,
1577421846.281088,113.000000,0.000000,4229.743652,4282.051270,4197.436035,4165.641113,4215.897461,450.000000,4.000000,,,,0.000000,4.000000,4.000000,4.000000,4.000000,4.000000,10.083425,4.427573,1.518992,1.260368,1.357060,43.347378,4.302366,1.640290,0.789486,1.298910,188.987747,13.807285,3.683837,2.927723,1.266314,12.919749,8.504537,1.634620,2.004056,3.381658,4.226707,6.201054,2.817045,1.499596,1.471028
1577421846.288803,114.000000,0.000000,4223.589844,4284.102539,4206.666504,4192.307617,4213.333496,450.000000,4.000000,,,,0.000000,4.000000,4.000000,4.000000,4.000000,4.000000,,,,,,,,,,,,,,,,,,,,,,,,,
1577421846.296617,115.000000,0.000000,4234.358887,4299.487305,4226.666504,4224.615234,4224.102539,16218.000000,4.000000,,,,0.000000,4.000000,4.000000,4.000000,4.000000,4.000000,,,,,,,,,,,,,,,,,,,,,,,,,
1577421846.304331,116.000000,0.000000,4244.615234,4293.333496,4241.538574,4205.128418,4230.769043,450.000000,4.000000,,,,0.000000,4.000000,4.000000,4.000000,4.000000,4.000000,,,,,,,,,,,,,,,,,,,,,,,,,
1577421846.312145,117.000000,0.000000,4240.000000,4267.692383,4248.205078,4192.820313,4228.717773,450.000000,4.000000,,,,0.000000,4.000000,4.000000,4.000000,4.000000,4.000000,,,,,,,,,,,,,,,,,,,,,,,,,
1577421846.319859,118.000000,0.000000,4223.589844,4239.487305,4237.436035,4182.563965,4209.743652,450.000000,4.000000,,,,0.000000,4.000000,4.000000,4.000000,4.000000,4.000000,,,,,,,,,,,,,,,,,,,,,,,,,
1577421846.327672,119.000000,0.000000,4215.384766,4223.589844,4224.102539,4165.128418,4197.436035,16218.000000,4.000000,,,,0.000000,4.000000,4.000000,4.000000,4.000000,4.000000,,,,,,,,,,,,,,,,,,,,,,,,,
1577421846.335386,120.000000,0.000000,4230.256348,4231.794922,4231.794922,4190.256348,4213.333496,450.000000,4.000000,,,,0.000000,4.000000,4.000000,4.000000,4.000000,4.000000,,,,,,,,,,,,,,,,,,,,,,,,,
1577421846.343199,121.000000,0.000000,4231.794922,4222.563965,4216.410156,4191.282227,4210.256348,450.000000,4.000000,,,,0.000000,4.000000,4.000000,4.000000,4.000000,4.000000,,,,,,,,,,,,,,,,,,,,,,,,,
1577421846.350912,122.000000,0.000000,4204.615234,4190.769043,4168.205078,4144.615234,4180.512695,450.000000,4.000000,,,,0.000000,4.000000,4.000000,4.000000,4.000000,4.000000,,,,,,,,,,,,,,,,,,,,,,,,,
1577421846.358629,123.000000,0.000000,4187.692383,4201.025879,4152.307617,4135.384766,4171.282227,16218.000000,4.000000,,,,0.000000,4.000000,4.000000,4.000000,4.000000,4.000000,,,,,,,,,,,,,,,,,,,,,,,,,
1577421846.366446,124.000000,0.000000,4205.128418,4246.666504,4171.794922,4162.563965,4194.358887,450.000000,4.000000,,,,0.000000,4.000000,4.000000,4.000000,4.000000,4.000000,,,,,,,,,,,,,,,,,,,,,,,,,
1577421846.374263,125.000000,0.000000,4230.769043,4274.871582,4190.256348,4184.615234,4214.358887,450.000000,4.000000,,,,0.000000,4.000000,4.000000,4.000000,4.000000,4.000000,,,,,,,,,,,,,,,,,,,,,,,,,
1577421846.381975,126.000000,0.000000,4220.512695,4283.589844,4200.512695,4186.666504,4198.974121,450.000000,4.000000,,,,0.000000,4.000000,4.000000,4.000000,4.000000,4.000000,,,,,,,,,,,,,,,,,,,,,,,,,
1577421846.389692,127.000000,0.000000,4183.077148,4278.461426,4210.769043,4167.692383,4170.769043,234.000000,4.000000,,,,0.000000,4.000000,4.000000,4.000000,4.000000,4.000000,,,,,,,,,,,,,,,,,,,,,,,,,
1577421846.397508,0.000000,0.000000,4159.487305,4273.333496,4240.000000,4155.384766,4158.461426,450.000000,4.000000,,,,0.000000,4.000000,4.000000,4.000000,4.000000,4.000000,,,,,,,,,,,,,,,,,,,,,,,,,
1577421846.405224,1.000000,0.000000,4159.487305,4290.769043,4303.589844,4169.230957,4157.948730,450.000000,4.000000,,,,0.000000,4.000000,4.000000,4.000000,4.000000,4.000000,9.789425,4.000947,1.428196,1.226717,1.095180,42.624657,4.360695,1.844832,0.828382,1.181878,167.741119,16.399778,3.866894,2.538769,1.066760,10.053175,8.289413,1.508874,2.008822,3.032342,4.147210,5.624158,2.488265,1.365846,1.161765
1577421846.413040,2.000000,0.000000,4167.179688,4302.051270,4382.051270,4177.948730,4160.000000,16220.000000,4.000000,,,,0.000000,4.000000,4.000000,4.000000,4.000000,4.000000,,,,,,,,,,,,,,,,,,,,,,,,,
1577421846.420756,3.000000,0.000000,4174.358887,4292.307617,4441.025879,4157.948730,4159.487305,450.000000,4.000000,,,,0.000000,4.000000,4.000000,4.000000,4.000000,4.000000,,,,,,,,,,,,,,,,,,,,,,,,,
1577421846.428572,4.000000,0.000000,4183.077148,4288.717773,4481.538574,4124.615234,4160.000000,16186.000000,4.000000,,,,0.000000,4.000000,4.000000,4.000000,4.000000,4.000000,,,,,,,,,,,,,,,,,,,,,,,,,
1577421846.436287,5.000000,0.000000,4187.692383,4285.641113,4520.000000,4099.487305,4158.974121,450.000000,4.000000,,,,0.000000,4.000000,4.000000,4.000000,4.000000,4.000000,,,,,,,,,,,,,,,,,,,,,,,,,
1577421846.444102,6.000000,0.000000,4200.000000,4287.179688,4564.102539,4107.179688,4168.717773,16153.000000,4.000000,,,,0.000000,4.000000,4.000000,4.000000,4.000000,4.000000,,,,,,,,,,,,,,,,,,,,,,,,,
1577421846.451817,7.000000,0.000000,4223.077148,4300.512695,4590.769043,4141.025879,4187.179688,450.000000,4.000000,,,,0.000000,4.000000,4.000000,4.000000,4.000000,4.000000,,,,,,,,,,,,,,,,,,,,,,,,,
1577421846.459632,8.000000,0.000000,4230.256348,4290.769043,4588.717773,4159.487305,4191.282227,450.000000,4.000000,,,,0.000000,4.000000,4.000000,4.000000,4.000000,4.000000,,,,,,,,,,,,,,,,,,,,,,,,,
1577421846.467346,9.000000,0.000000,4217.436035,4262.051270,4578.461426,4152.307617,4192.820313,16171.000000,4.000000,,,,0.000000,4.000000,4.000000,4.000000,4.000000,4.000000,,,,,,,,,,,,,,,,,,,,,,,,,
1577421846.475161,10.000000,0.000000,4212.820313,4255.384766,4546.153809,4140.000000,4192.307617,450.000000,4.000000,,,,0.000000,4.000000,4.000000,4.000000,4.000000,4.000000,,,,,,,,,,,,,,,,,,,,,,,,,
1577421846.482875,11.000000,0.000000,4222.563965,4264.102539,4491.794922,4137.948730,4186.153809,16217.000000,4.000000,,,,0.000000,4.000000,4.000000,4.000000,4.000000,4.000000,,,,,,,,,,,,,,,,,,,,,,,,,
1577421846.490689,12.000000,0.000000,4229.743652,4269.230957,4448.717773,4139.487305,4189.230957,450.000000,4.000000,,,,0.000000,4.000000,4.000000,4.000000,4.000000,4.000000,,,,,,,,,,,,,,,,,,,,,,,,,
1577421846.498404,13.000000,0.000000,4219.487305,4260.000000,4417.436035,4125.641113,4185.128418,450.000000,4.000000,,,,0.000000,4.000000,4.000000,4.000000,4.000000,4.000000,,,,,,,,,,,,,,,,,,,,,,,,,
1577421846.506122,14.000000,0.000000,4200.000000,4257.436035,4380.512695,4104.102539,4165.641113,450.000000,4.000000,,,,0.000000,4.000000,4.000000,4.000000,4.000000,4.000000,,,,,,,,,,,,,,,,,,,,,,,,,
1577421846.513940,15.000000,0.000000,4187.692383,4289.743652,4362.051270,4107.179688,4155.384766,16217.000000,4.000000,,,,0.000000,4.000000,4.000000,4.000000,4.000000,4.000000,,,,,,,,,,,,,,,,,,,,,,,,,
1577421846.521658,16.000000,0.000000,4161.538574,4302.051270,4355.897461,4101.538574,4136.922852,0.000000,4.000000,,,,0.000000,4.000000,4.000000,4.000000,4.000000,4.000000,,,,,,,,,,,,,,,,,,,,,,,,,
1577421846.529476,17.000000,0.000000,4125.128418,4282.563965,4331.794922,4065.641113,4102.051270,0.000000,4.000000,,,,0.000000,4.000000,4.000000,4.000000,4.000000,4.000000,9.718799,3.952816,1.343520,1.229614,0.904802,38.206524,4.842160,1.967922,0.849794,1.078684,144.876785,19.513918,3.911946,2.109449,0.901168,7.147512,8.037708,1.333696,1.969990,2.705015,4.247465,5.133229,2.121236,1.230568,0.912817
1577421846.537193,18.000000,0.000000,4135.384766,4309.230957,4324.615234,4092.820557,4110.256348,0.000000,4.000000,,,,0.000000,4.000000,4.000000,4.000000,4.000000,4.000000,,,,,,,,,,,,,,,,,,,,,,,,,
1577421846.545010,19.000000,0.000000,4186.666504,4354.358887,4327.179688,4172.820313,4163.589844,0.000000,4.000000,,,,0.000000,4.000000,4.000000,4.000000,4.000000,4.000000,,,,,,,,,,,,,,,,,,,,,,,,,
1577421846.552728,20.000000,0.000000,4217.436035,4360.512695,4292.820313,4178.974121,4192.307617,0.000000,4.000000,,,,0.000000,4.000000,4.000000,4.000000,4.000000,4.000000,,,,,,,,,,,,,,,,,,,,,,,,,
1577421846.560545,21.000000,0.000000,4198.461426,4351.794922,4222.563965,4134.871582,4169.230957,0.000000,4.000000,,,,0.000000,4.000000,4.000000,4.000000,4.000000,4.000000,,,,,,,,,,,,,,,,,,,,,,,,,
1577421846.568261,22.000000,0.000000,4165.641113,4340.512695,4160.512695,4130.769043,4144.102539,0.000000,4.000000,,,,0.000000,4.000000,4.000000,4.000000,4.000000,4.000000,,,,,,,,,,,,,,,,,,,,,,,,,
1577421846.576078,23.000000,0.000000,4164.102539,4332.820313,4131.794922,4147.692383,4146.666504,0.000000,4.000000,,,,0.000000,4.000000,4.000000,4.000000,4.000000,4.000000,,,,,,,,,,,,,,,,,,,,,,,,,
1577421846.583894,24.000000,0.000000,4171.282227,4333.846191,4109.743652,4142.051270,4144.102539,0.000000,4.000000,,,,0.000000,4.000000,4.000000,4.000000,4.000000,4.000000,,,,,,,,,,,,,,,,,,,,,,,,,
1577421846.591606,25.000000,0.000000,4173.846191,4323.589844,4096.410156,4137.948730,4142.563965,0.000000,4.000000,,,,0.000000,4.000000,4.000000,4.000000,4.000000,4.000000,,,,,,,,,,,,,,,,,,,,,,,,,
1577421846.599322,26.000000,0.000000,4183.589844,4304.102539,4099.487305,4147.692383,4151.282227,0.000000,4.000000,,,,0.000000,4.000000,4.000000,4.000000,4.000000,4.000000,,,,,,,,,,,,,,,,,,,,,,,,,
1577421846.607138,27.000000,0.000000,4183.077148,4296.410156,4099.487305,4142.051270,4153.333496,0.000000,4.000000,,,,0.000000,4.000000,4.000000,4.000000,4.000000,4.000000,,,,,,,,,,,,,,,,,,,,,,,,,
1577421846.614854,28.000000,0.000000,4170.256348,4293.846191,4093.333252,4126.153809,4143.589844,0.000000,4.000000,,,,0.000000,4.000000,4.000000,4.000000,4.000000,4.000000,,,,,,,,,,,,,,,,,,,,,,,,,
1577421846.622670,29.000000,0.000000,4152.820313,4262.563965,4082.051270,4120.512695,4123.589844,0.000000,4.000000,,,,0.000000,4.000000,4.000000,4.000000,4.000000,4.000000,,,,,,,,,,,,,,,,,,,,,,,,,
1577421846.630385,30.000000,0.000000,4150.769043,4232.820313,4082.564209,4129.743652,4123.077148,0.000000,4.000000,,,,0.000000,4.000000,4.000000,4.000000,4.000000,4.000000,,,,,,,,,,,,,,,,,,,,,,,,,
1577421846.638200,31.000000,0.000000,4173.846191,4239.487305,4101.538574,4137.948730,4148.205078,0.000000,4.000000,,,,0.000000,4.000000,4.000000,4.000000,4.000000,4.000000,,,,,,,,,,,,,,,,,,,,,,,,,
1577421846.645915,32.000000,0.000000,4184.615234,4234.871582,4113.846191,4133.333496,4165.128418,0.000000,4.000000,,,,0.000000,4.000000,4.000000,4.000000,4.000000,4.000000,,,,,,,,,,,,,,,,,,,,,,,,,
1577421846.653730,33.000000,0.000000,4174.871582,4207.692383,4108.205078,4132.307617,4161.025879,0.000000,4.000000,,,,0.000000,4.000000,4.000000,4.000000,4.000000,4.000000,10.222552,4.381678,1.276420,1.259870,0.821692,32.871075,5.664180,2.030612,0.861957,1.025611,129.373672,22.600077,3.797003,1.706683,0.793131,4.772412,7.785549,1.213103,1.910932,2.514774,4.775165,4.804516,1.828101,1.108595,0.766266
1577421846.661444,34.000000,0.000000,4174.871582,4196.410156,4097.948730,4141.025879,4158.461426,0.000000,4.000000,,,,0.000000,4.000000,4.000000,4.000000,4.000000,4.000000,,,,,,,,,,,,,,,,,,,,,,,,,
1577421846.669259,35.000000,0.000000,4190.769043,4204.615234,4098.461426,4146.666504,4172.820313,0.000000,4.000000,,,,0.000000,4.000000,4.000000,4.000000,4.000000,4.000000,,,,,,,,,,,,,,,,,,,,,,,,,
1577421846.676973,36.000000,0.000000,4203.077148,4214.871582,4102.563965,4145.128418,4184.615234,0.000000,4.000000,,,,0.000000,4.000000,4.000000,4.000000,4.000000,4.000000,,,,,,,,,,,,,,,,,,,,,,,,,
1577421846.684691,37.000000,0.000000,4198.461426,4221.025879,4098.974121,4146.153809,4181.025879,0.000000,4.000000,,,,0.000000,4.000000,4.000000,4.000000,4.000000,4.000000,,,,,,,,,,,,,,,,,,,,,,,,,
1577421846.692508,38.000000,0.000000,4193.333496,4228.205078,4099.487305,4157.948730,4176.410156,0.000000,4.000000,,,,0.000000,4.000000,4.000000,4.000000,4.000000,4.000000,,,,,,,,,,,,,,,,,,,,,,,,,
1577421846.700326,39.000000,0.000000,4196.922852,4246.666504,4109.230957,4163.077148,4174.358887,0.000000,4.000000,,,,0.000000,4.000000,4.000000,4.000000,4.000000,4.000000,,,,,,,,,,,,,,,,,,,,,,,,,
1577421846.708039,40.000000,0.000000,4198.461426,4270.256348,4120.512695,4160.000000,4174.358887,0.000000,4.000000,,,,0.000000,4.000000,4.000000,4.000000,4.000000,4.000000,,,,,,,,,,,,,,,,,,,,,,,,,
1577421846.715853,41.000000,0.000000,4199.487305,4281.025879,4140.000000,4165.641113,4176.410156,0.000000,4.000000,,,,0.000000,4.000000,4.000000,4.000000,4.000000,4.000000,,,,,,,,,,,,,,,,,,,,,,,,,
1577421846.723566,42.000000,0.000000,4213.846191,4287.692383,4172.307617,4177.436035,4187.692383,0.000000,4.000000,,,,0.000000,4.000000,4.000000,4.000000,4.000000,4.000000,,,,,,,,,,,,,,,,,,,,,,,,,
1577421846.731379,43.000000,0.000000,4228.717773,4306.153809,4201.538574,4185.128418,4205.128418,0.000000,4.000000,,,,0.000000,4.000000,4.000000,4.000000,4.000000,4.000000,,,,,,,,,,,,,,,,,,,,,,,,,
1577421846.739092,44.000000,0.000000,4220.512695,4318.974121,4206.153809,4174.871582,4204.102539,0.000000,4.000000,,,,0.000000,4.000000,4.000000,4.000000,4.000000,4.000000,,,,,,,,,,,,,,,,,,,,,,,,,
1577421846.746905,45.000000,0.000000,4207.179688,4328.205078,4202.563965,4161.025879,4198.974121,0.000000,4.000000,,,,0.000000,4.000000,4.000000,4.000000,4.000000,4.000000,,,,,,,,,,,,,,,,,,,,,,,,,
1577421846.754617,46.000000,0.000000,4205.128418,4331.794922,4201.538574,4155.384766,4202.051270,0.000000,4.000000,,,,0.000000,4.000000,4.000000,4.000000,4.000000,4.000000,,,,,,,,,,,,,,,,,,,,,,,,,
1577421846.762429,47.000000,0.000000,4208.205078,4317.436035,4195.897461,4143.589844,4203.589844,0.000000,4.000000,,,,0.000000,4.000000,4.000000,4.000000,4.000000,4.000000,,,,,,,,,,,,,,,,,,,,,,,,,
1577421846.770141,48.000000,0.000000,4213.333496,4313.333496,4192.820313,4133.846191,4203.589844,0.000000,4.000000,,,,0.000000,4.000000,4.000000,4.000000,4.000000,4.000000,,,,,,,,,,,,,,,,,,,,,,,,,
1577421846.777857,49.000000,0.000000,4219.487305,4323.077148,4186.666504,4132.307617,4199.487305,0.000000,4.000000,,,,0.000000,4.000000,4.000000,4.000000,4.000000,4.000000,11.257108,5.197051,1.223397,1.344595,0.837189,28.774834,6.517498,2.067211,0.877023,1.042410,128.581619,25.752100,3.608088,1.392665,0.740040,3.391499,7.536099,1.282048,1.895085,2.503344,5.667379,4.649716,1.661575,1.037821,0.720733
1577421846.785673,50.000000,0.000000,4228.205078,4308.717773,4178.461426,4139.487305,4198.974121,0.000000,4.000000,,,,0.000000,4.000000,4.000000,4.000000,4.000000,4.000000,,,,,,,,,,,,,,,,,,,,,,,,,
1577421846.793389,51.000000,0.000000,4242.563965,4288.205078,4178.974121,4161.538574,4207.692383,0.000000,4.000000,,,,0.000000,4.000000,4.000000,4.000000,4.000000,4.000000,,,,,,,,,,,,,,,,,,,,,,,,,
1577421846.801204,52.000000,0.000000,4238.974121,4281.538574,4166.153809,4164.102539,4207.692383,0.000000,4.000000,,,,0.000000,4.000000,4.000000,4.000000,4.000000,4.000000,,,,,,,,,,,,,,,,,,,,,,,,,
1577421846.808920,53.000000,0.000000,4215.897461,4264.102539,4140.000000,4142.051270,4196.410156,0.000000,4.000000,,,,0.000000,4.000000,4.000000,4.000000,4.000000,4.000000,,,,,,,,,,,,,,,,,,,,,,,,,
1577421846.816735,54.000000,0.000000,4210.256348,4244.615234,4125.128418,4131.794922,4193.846191,0.000000,4.000000,,,,0.000000,4.000000,4.000000,4.000000,4.000000,4.000000,,,,,,,,,,,,,,,,,,,,,,,,,
1577421846.824450,55.000000,0.000000,4219.487305,4244.615234,4113.333496,4127.692383,4197.436035,0.000000,4.000000,,,,0.000000,4.000000,4.000000,4.000000,4.000000,4.000000,,,,,,,,,,,,,,,,,,,,,,,,,
1577421846.832265,56.000000,0.000000,4229.230957,4245.128418,4101.025879,4118.461426,4200.512695,0.000000,4.000000,,,,0.000000,4.000000,4.000000,4.000000,4.000000,4.000000,,,,,,,,,,,,,,,,,,,,,,,,,
1577421846.839980,57.000000,0.000000,4230.256348,4224.615234,4086.153809,4095.384521,4186.153809,0.000000,4.000000,,,,0.000000,4.000000,4.000000,4.000000,4.000000,4.000000,,,,,,,,,,,,,,,,,,,,,,,,,
1577421846.847794,58.000000,0.000000,4229.743652,4207.179688,4073.846191,4077.948730,4176.410156,0.000000,4.000000,,,,0.000000,4.000000,4.000000,4.000000,4.000000,4.000000,,,,,,,,,,,,,,,,,,,,,,,,,
1577421846.855509,59.000000,0.000000,4251.794922,4222.563965,4086.666748,4116.410156,4202.563965,0.000000,4.000000,,,,0.000000,4.000000,4.000000,4.000000,4.000000,4.000000,,,,,,,,,,,,,,,,,,,,,,,,,
1577421846.863323,60.000000,0.000000,4270.769043,4237.436035,4103.589844,4144.615234,4224.102539,0.000000,4.000000,,,,0.000000,4.000000,4.000000,4.000000,4.000000,4.000000,,,,,,,,,,,,,,,,,,,,,,,,,
1577421846.871037,61.000000,0.000000,4262.051270,4229.230957,4101.025879,4122.563965,4214.871582,0.000000,4.000000,,,,0.000000,4.000000,4.000000,4.000000,4.000000,4.000000,,,,,,,,,,,,,,,,,,,,,,,,,
1577421846.878851,62.000000,0.000000,4237.948730,4210.769043,4088.718018,4125.128418,4196.922852,0.000000,4.000000,,,,0.000000,4.000000,4.000000,4.000000,4.000000,4.000000,,,,,,,,,,,,,,,,,,,,,,,,,
1577421846.886565,63.000000,0.000000,4225.641113,4192.307617,4079.487061,4154.871582,4191.794922,0.000000,4.000000,,,,0.000000,4.000000,4.000000,4.000000,4.000000,4.000000,,,,,,,,,,,,,,,,,,,,,,,,,
1577421846.894378,64.000000,0.000000,4232.307617,4186.153809,4078.974365,4156.410156,4196.922852,450.000000,4.000000,,,,0.000000,4.000000,4.000000,4.000000,4.000000,4.000000,,,,,,,,,,,,,,,,,,,,,,,,,
1577421846.902091,65.000000,0.000000,4234.358887,4192.307617,4078.461426,4146.153809,4195.897461,450.000000,4.000000,,,,0.000000,4.000000,4.000000,4.000000,4.000000,4.000000,12.634884,6.208218,1.165786,1.555336,0.912455,28.012569,7.243727,2.095608,0.904324,1.125890,144.901459,29.199556,3.432468,1.215371,0.723413,2.817954,7.322373,1.664276,1.996130,2.627789,6.822058,4.689585,1.602489,1.079748,0.747458
1577421846.909905,66.000000,0.000000,4228.205078,4183.589844,4065.641113,4151.282227,4192.307617,16205.000000,4.000000,,,,0.000000,4.000000,4.000000,4.000000,4.000000,4.000000,,,,,,,,,,,,,,,,,,,,,,,,,
1577421846.917617,67.000000,0.000000,4226.666504,4164.615234,4052.820557,4155.384766,4189.230957,450.000000,4.000000,,,,0.000000,4.000000,4.000000,4.000000,4.000000,4.000000,,,,,,,,,,,,,,,,,,,,,,,,,
1577421846.925430,68.000000,0.000000,4243.077148,4169.230957,4055.897461,4161.538574,4201.025879,16191.000000,4.000000,,,,0.000000,4.000000,4.000000,4.000000,4.000000,4.000000,,,,,,,,,,,,,,,,,,,,,,,,,
1577421846.933143,69.000000,0.000000,4252.820313,4169.230957,4065.128174,4156.922852,4209.230957,450.000000,4.000000,,,,0.000000,4.000000,4.000000,4.000000,4.000000,4.000000,,,,,,,,,,,,,,,,,,,,,,,,,
1577421846.940956,70.000000,0.000000,4230.256348,4128.205078,4044.615479,4123.589844,4183.077148,16168.000000,4.000000,,,,0.000000,4.000000,4.000000,4.000000,4.000000,4.000000,,,,,,,,,,,,,,,,,,,,,,,,,
1577421846.948669,71.000000,0.000000,4200.512695,4093.846191,4007.692383,4104.102539,4157.948730,450.000000,4.000000,,,,0.000000,4.000000,4.000000,4.000000,4.000000,4.000000,,,,,,,,,,,,,,,,,,,,,,,,,
1577421846.956385,72.000000,0.000000,4200.000000,4100.512695,4000.000000,4126.666504,4164.102539,450.000000,4.000000,,,,0.000000,4.000000,4.000000,4.000000,4.000000,4.000000,,,,,,,,,,,,,,,,,,,,,,,,,
1577421846.964201,73.000000,0.000000,4224.102539,4105.641113,4012.820557,4155.384766,4184.615234,16175.000000,4.000000,,,,0.000000,4.000000,4.000000,4.000000,4.000000,4.000000,,,,,,,,,,,,,,,,,,,,,,,,,
1577421846.971917,74.000000,0.000000,4242.563965,4100.512695,4016.410156,4163.077148,4197.948730,450.000000,4.000000,,,,0.000000,4.000000,4.000000,4.000000,4.000000,4.000000,,,,,,,,,,,,,,,,,,,,,,,,,
1577421846.979733,75.000000,0.000000,4249.743652,4105.128418,4004.102539,4170.769043,4200.512695,16227.000000,4.000000,,,,0.000000,4.000000,4.000000,4.000000,4.000000,4.000000,,,,,,,,,,,,,,,,,,,,,,,,,
1577421846.987448,76.000000,0.000000,4263.589844,4102.051270,3994.358887,4182.563965,4215.897461,450.000000,4.000000,,,,0.000000,4.000000,4.000000,4.000000,4.000000,4.000000,,,,,,,,,,,,,,,,,,,,,,,,,
1577421846.995264,77.000000,0.000000,4281.025879,4088.718018,3993.846191,4178.974121,4236.410156,450.000000,4.000000,,,,0.000000,4.000000,4.000000,4.000000,4.000000,4.000000,,,,,,,,,,,,,,,,,,,,,,,,,
1577421847.002979,78.000000,0.000000,4280.000000,4079.487061,3978.461426,4164.615234,4228.717773,450.000000,4.000000,,,,0.000000,4.000000,4.000000,4.000000,4.000000,4.000000,,,,,,,,,,,,,,,,,,,,,,,,,
1577421847.010795,79.000000,0.000000,4284.102539,4086.666748,3962.051270,4178.461426,4221.025879,16227.000000,4.000000,,,,0.000000,4.000000,4.000000,4.000000,4.000000,4.000000,,,,,,,,,,,,,,,,,,,,,,,,,
1577421847.018509,80.000000,0.000000,4298.461426,4096.410156,3963.589844,4199.487305,4228.717773,450.000000,4.000000,,,,0.000000,4.000000,4.000000,4.000000,4.000000,4.000000,,,,,,,,,,,,,,,,,,,,,,,,,
1577421847.026324,81.000000,0.000000,4280.000000,4089.230713,3961.538574,4175.897461,4221.025879,450.000000,4.000000,,,,0.000000,4.000000,4.000000,4.000000,4.000000,4.000000,13.977238,7.164778,1.100388,1.953436,1.004961,31.797428,7.651249,2.093131,0.942575,1.250144,169.083023,33.262497,3.392501,1.187205,0.723407,2.871909,7.220936,2.421425,2.239999,2.791898,7.921211,4.941918,1.592206,1.279660,0.811787
1577421847.034039,82.000000,0.000000,4262.563965,4086.666748,3955.897461,4151.282227,4208.205078,450.000000,4.000000,,,,0.000000,4.000000,4.000000,4.000000,4.000000,4.000000,,,,,,,,,,,,,,,,,,,,,,,,,
1577421847.041853,83.000000,0.000000,4277.436035,4101.538574,3970.256348,4167.179688,4213.333496,16227.000000,4.000000,,,,0.000000,4.000000,4.000000,4.000000,4.000000,4.000000,,,,,,,,,,,,,,,,,,,,,,,,,
1577421847.049567,84.000000,0.000000,4285.128418,4115.897461,3992.307617,4193.846191,4221.025879,450.000000,4.000000,,,,0.000000,4.000000,4.000000,4.000000,4.000000,4.000000,,,,,,,,,,,,,,,,,,,,,,,,,
1577421847.057285,85.000000,0.000000,4284.102539,4113.846191,4004.102539,4211.794922,4222.563965,450.000000,4.000000,,,,0.000000,4.000000,4.000000,4.000000,4.000000,4.000000,,,,,,,,,,,,,,,,,,,,,,,,,
1577421847.065103,86.000000,0.000000,4292.820313,4108.717773,4015.384521,4220.000000,4229.230957,450.000000,4.000000,,,,0.000000,4.000000,4.000000,4.000000,4.000000,4.000000,,,,,,,,,,,,,,,,,,,,,,,,,
1577421847.072821,87.000000,0.000000,4283.077148,4116.410156,4029.743652,4210.769043,4226.666504,16227.000000,4.000000,,,,0.000000,4.000000,4.000000,4.000000,4.000000,4.000000,,,,,,,,,,,,,,,,,,,,,,,,,
1577421847.080639,88.000000,0.000000,4258.461426,4123.077148,4040.512939,4208.205078,4208.205078,450.000000,4.000000,,,,0.000000,4.000000,4.000000,4.000000,4.000000,4.000000,,,,,,,,,,,,,,,,,,,,,,,,,
1577421847.088356,89.000000,0.000000,4257.948730,4123.589844,4050.256348,4217.436035,4203.589844,450.000000,4.000000,,,,0.000000,4.000000,4.000000,4.000000,4.000000,4.000000,,,,,,,,,,,,,,,,,,,,,,,,,
1577421847.096174,90.000000,0.000000,4271.282227,4136.410156,4069.743652,4219.487305,4217.948730,450.000000,4.000000,,,,0.000000,4.000000,4.000000,4.000000,4.000000,4.000000,,,,,,,,,,,,,,,,,,,,,,,,,
1577421847.103890,91.000000,0.000000,4281.025879,4155.897461,4097.948730,4229.743652,4235.897461,16227.000000,4.000000,,,,0.000000,4.000000,4.000000,4.000000,4.000000,4.000000,,,,,,,,,,,,,,,,,,,,,,,,,
1577421847.111707,92.000000,0.000000,4293.333496,4167.692383,4114.358887,4252.820313,4250.256348,450.000000,4.000000,,,,0.000000,4.000000,4.000000,4.000000,4.000000,4.000000,,,,,,,,,,,,,,,,,,,,,,,,,
1577421847.119424,93.000000,0.000000,4281.025879,4156.922852,4102.563965,4240.512695,4234.358887,450.000000,4.000000,,,,0.000000,4.000000,4.000000,4.000000,4.000000,4.000000,,,,,,,,,,,,,,,,,,,,,,,,,
1577421847.127240,94.000000,0.000000,4257.948730,4144.102539,4089.743652,4218.461426,4212.307617,450.000000,4.000000,,,,0.000000,4.000000,4.000000,4.000000,4.000000,4.000000,,,,,,,,,,,,,,,,,,,,,,,,,
1577421847.135057,95.000000,0.000000,4268.717773,4162.051270,4107.179688,4240.512695,4225.641113,16227.000000,4.000000,,,,0.000000,4.000000,4.000000,4.000000,4.000000,4.000000,,,,,,,,,,,,,,,,,,,,,,,,,
1577421847.142769,96.000000,0.000000,4273.333496,4172.820313,4116.410156,4245.641113,4233.846191,450.000000,4.000000,,,,0.000000,4.000000,4.000000,4.000000,4.000000,4.000000,,,,,,,,,,,,,,,,,,,,,,,,,
1577421847.150485,97.000000,0.000000,4259.487305,4160.000000,4111.282227,4223.589844,4222.563965,450.000000,4.000000,,,,0.000000,4.000000,4.000000,4.000000,4.000000,4.000000,14.832169,7.828088,1.102590,2.525486,1.082736,40.010750,7.594935,2.019225,0.983125,1.373072,196.058273,37.558662,3.603209,1.270003,0.727728,3.264642,7.351357,3.488734,2.577836,2.893600,8.710721,5.373739,1.594603,1.627389,0.884659
1577421847.158301,98.000000,0.000000,4254.871582,4153.333496,4115.384766,4229.230957,4219.487305,450.000000,4.000000,,,,0.000000,4.000000,4.000000,4.000000,4.000000,4.000000,,,,,,,,,,,,,,,,,,,,,,,,,
1577421847.166117,99.000000,0.000000,4256.410156,4155.897461,4121.538574,4240.512695,4227.692383,16227.000000,4.000000,,,,0.000000,4.000000,4.000000,4.000000,4.000000,4.000000,,,,,,,,,,,,,,,,,,,,,,,,,
1577421847.173829,100.000000,0.000000,4265.641113,4154.871582,4127.179688,4236.922852,4238.461426,450.000000,4.000000,,,,0.000000,4.000000,4.000000,4.000000,4.000000,4.000000,,,,,,,,,,,,,,,,,,,,,,,,,
1577421847.181544,101.000000,0.000000,4265.128418,4143.077148,4129.230957,4234.358887,4229.743652,450.000000,4.000000,,,,0.000000,4.000000,4.000000,4.000000,4.000000,4.000000,,,,,,,,,,,,,,,,,,,,,,,,,
1577421847.189359,102.000000,0.000000,4250.256348,4127.179688,4130.256348,4235.384766,4208.205078,450.000000,4.000000,,,,0.000000,4.000000,4.000000,4.000000,4.000000,4.000000,,,,,,,,,,,,,,,,,,,,,,,,,
1577421847.197074,103.000000,0.000000,4236.922852,4118.461426,4124.102539,4229.743652,4192.820313,16227.000000,4.000000,,,,0.000000,4.000000,4.000000,4.000000,4.000000,4.000000,,,,,,,,,,,,,,,,,,,,,,,,,
1577421847.204888,104.000000,0.000000,4230.256348,4118.461426,4107.692383,4222.563965,4193.333496,450.000000,4.000000,,,,0.000000,4.000000,4.000000,4.000000,4.000000,4.000000,,,,,,,,,,,,,,,,,,,,,,,,,
1577421847.212603,105.000000,0.000000,4243.077148,4122.563965,4106.153809,4230.769043,4207.692383,450.000000,4.000000,,,,0.000000,4.000000,4.000000,4.000000,4.000000,4.000000,,,,,,,,,,,,,,,,,,,,,,,,,
1577421847.220417,106.000000,0.000000,4258.974121,4127.692383,4118.461426,4244.615234,4216.922852,450.000000,4.000000,,,,0.000000,4.000000,4.000000,4.000000,4.000000,4.000000,,,,,,,,,,,,,,,,,,,,,,,,,
1577421847.228132,107.000000,0.000000,4241.538574,4117.436035,4110.769043,4231.282227,4206.153809,16227.000000,4.000000,,,,0.000000,4.000000,4.000000,4.000000,4.000000,4.000000,,,,,,,,,,,,,,,,,,,,,,,,,
1577421847.235849,108.000000,0.000000,4206.153809,4090.256348,4078.461426,4205.128418,4185.128418,450.000000,4.000000,,,,0.000000,4.000000,4.000000,4.000000,4.000000,4.000000,,,,,,,,,,,,,,,,,,,,,,,,,
1577421847.243667,109.000000,0.000000,4193.333496,4068.718018,4062.564209,4208.717773,4172.820313,450.000000,4.000000,,,,0.000000,4.000000,4.000000,4.000000,4.000000,4.000000,,,,,,,,,,,,,,,,,,,,,,,,,
1577421847.251485,110.000000,0.000000,4201.538574,4078.974365,4080.000000,4233.846191,4178.974121,450.000000,4.000000,,,,0.000000,4.000000,4.000000,4.000000,4.000000,4.000000,,,,,,,,,,,,,,,,,,,,,,,,,
1577421847.259198,111.000000,0.000000,4218.974121,4100.000000,4081.025635,4229.230957,4201.025879,16227.000000,4.000000,,,,0.000000,4.000000,4.000000,4.000000,4.000000,4.000000,,,,,,,,,,,,,,,,,,,,,,,,,
1577421847.267011,112.000000,0.000000,4226.153809,4094.871826,4053.333252,4216.922852,4214.358887,450.000000,4.000000,,,,0.000000,4.000000,4.000000,4.000000,4.000000,4.000000,,,,,,,,,,,,,,,,,,,,,,,,,
1577421847.274725,113.000000,0.000000,4216.922852,4086.153809,4042.051270,4230.256348,4209.230957,450.000000,4.000000,,,,0.000000,4.000000,4.000000,4.000000,4.000000,4.000000,14.863079,8.039401,1.307656,3.169520,1.123311,50.443920,7.092965,1.862459,1.026389,1.450163,216.455261,40.926384,4.043716,1.410847,0.727169,3.805986,7.803659,4.654267,2.921059,2.859083,8.880200,5.874375,1.628189,2.056072,0.940189
1577421847.282538,114.000000,0.000000,4222.051270,4090.256348,4047.179443,4233.333496,4213.846191,450.000000,4.000000,,,,0.000000,4.000000,4.000000,4.000000,4.000000,4.000000,,,,,,,,,,,,,,,,,,,,,,,,,
1577421847.290251,115.000000,0.000000,4244.102539,4096.922852,4041.025635,4240.512695,4234.871582,16227.000000,4.000000,,,,0.000000,4.000000,4.000000,4.000000,4.000000,4.000000,,,,,,,,,,,,,,,,,,,,,,,,,
1577421847.298064,116.000000,0.000000,4236.922852,4094.871826,4026.153809,4262.051270,4230.256348,450.000000,4.000000,,,,0.000000,4.000000,4.000000,4.000000,4.000000,4.000000,,,,,,,,,,,,,,,,,,,,,,,,,
1577421847.305777,117.000000,0.000000,4203.077148,4090.769287,4014.871826,4246.153809,4204.102539,450.000000,4.000000,,,,0.000000,4.000000,4.000000,4.000000,4.000000,4.000000,,,,,,,,,,,,,,,,,,,,,,,,,
1577421847.313589,118.000000,0.000000,4194.871582,4088.718018,4008.718018,4211.794922,4200.512695,450.000000,4.000000,,,,0.000000,4.000000,4.000000,4.000000,4.000000,4.000000,,,,,,,,,,,,,,,,,,,,,,,,,
1577421847.321302,119.000000,0.000000,4200.512695,4080.000000,4005.128174,4210.769043,4206.153809,16227.000000,4.000000,,,,0.000000,4.000000,4.000000,4.000000,4.000000,4.000000,,,,,,,,,,,,,,,,,,,,,,,,,
