title:ang5, start timestamp:2019-12-27T07:44:42.546706+03:00, stop timestamp:2019-12-27T07:45:13.247983+03:00, headset type:INSIGHT, headset serial:A2D200FB, headset firmware:930, subject name:Qasim, channels:44, sampling rate:eeg_128;pow_8, samples:3938      , version:2.0
Timestamp,EEG.Counter,EEG.Interpolated,EEG.AF3,EEG.T7,EEG.Pz,EEG.T8,EEG.AF4,EEG.RawCq,EEG.Battery,MarkerIndex,MarkerType,MarkerValueInt,EEG.MarkerHardware,CQ.AF3,CQ.T7,CQ.Pz,CQ.T8,CQ.AF4,POW.AF3.Theta,POW.AF3.Alpha,POW.AF3.BetaL,POW.AF3.BetaH,POW.AF3.Gamma,POW.T7.Theta,POW.T7.Alpha,POW.T7.BetaL,POW.T7.BetaH,POW.T7.Gamma,POW.Pz.Theta,POW.Pz.Alpha,POW.Pz.BetaL,POW.Pz.BetaH,POW.Pz.Gamma,POW.T8.Theta,POW.T8.Alpha,POW.T8.BetaL,POW.T8.BetaH,POW.T8.Gamma,POW.AF4.Theta,POW.AF4.Alpha,POW.AF4.BetaL,POW.AF4.BetaH,POW.AF4.Gamma
1577421882.546706,31.000000,0.000000,4208.205078,4256.410156,4087.179443,4126.666504,4228.205078,0.000000,4.000000,,,,0.000000,4.000000,4.000000,4.000000,4.000000,4.000000,,,,,,,,,,,,,,,,,,,,,,,,,
1577421882.554610,32.000000,0.000000,4168.205078,4215.384766,4046.153809,4095.384521,4188.717773,0.000000,4.000000,,,,0.000000,4.000000,4.000000,4.000000,4.000000,4.000000,,,,,,,,,,,,,,,,,,,,,,,,,
1577421882.562414,33.000000,0.000000,4146.153809,4217.948730,4031.794922,4087.692383,4176.922852,0.000000,4.000000,,,,0.000000,4.000000,4.000000,4.000000,4.000000,4.000000,13.124189,8.802121,7.815670,13.113764,7.919323,15.588722,6.830412,4.401853,7.550527,6.316745,292.058777,20.289890,5.719694,2.723190,3.698008,4.432989,2.633763,3.932730,1.367570,8.350863,9.726880,5.165589,5.728281,7.643306,6.129691
1577421882.570317,34.000000,0.000000,4160.000000,4249.230957,4022.564209,4097.436035,4202.563965,0.000000,4.000000,,,,0.000000,4.000000,4.000000,4.000000,4.000000,4.000000,,,,,,,,,,,,,,,,,,,,,,,,,
1577421882.578121,35.000000,0.000000,4201.538574,4276.922852,4040.512939,4136.410156,4245.128418,0.000000,4.000000,,,,0.000000,4.000000,4.000000,4.000000,4.000000,4.000000,,,,,,,,,,,,,,,,,,,,,,,,,
1577421882.585825,36.000000,0.000000,4231.282227,4282.051270,4055.897461,4147.692383,4257.436035,0.000000,4.000000,,,,0.000000,4.000000,4.000000,4.000000,4.000000,4.000000,,,,,,,,,,,,,,,,,,,,,,,,,
1577421882.593628,37.000000,0.000000,4204.615234,4255.897461,4031.281982,4121.025879,4226.666504,0.000000,4.000000,,,,0.000000,4.000000,4.000000,4.000000,4.000000,4.000000,,,,,,,,,,,,,,,,,,,,,,,,,
1577421882.601332,38.000000,0.000000,4203.077148,4261.025879,4018.974365,4130.769043,4226.666504,0.000000,4.000000,,,,0.000000,4.000000,4.000000,4.000000,4.000000,4.000000,,,,,,,,,,,,,,,,,,,,,,,,,
1577421882.609136,39.000000,0.000000,4210.769043,4265.128418,4006.153809,4130.769043,4230.256348,0.000000,4.000000,,,,0.000000,4.000000,4.000000,4.000000,4.000000,4.000000,,,,,,,,,,,,,,,,,,,,,,,,,
1577421882.616839,40.000000,0.000000,4192.307617,4251.794922,3997.948730,4133.846191,4216.922852,0.000000,4.000000,,,,0.000000,4.000000,4.000000,4.000000,4.000000,4.000000,,,,,,,,,,,,,,,,,,,,,,,,,
1577421882.624643,41.000000,0.000000,4194.871582,4249.743652,4014.358887,4148.205078,4215.897461,0.000000,4.000000,,,,0.000000,4.000000,4.000000,4.000000,4.000000,4.000000,,,,,,,,,,,,,,,,,,,,,,,,,
1577421882.632346,42.000000,0.000000,4188.717773,4225.641113,4027.179443,4138.461426,4213.846191,0.000000,4.000000,,,,0.000000,4.000000,4.000000,4.000000,4.000000,4.000000,,,,,,,,,,,,,,,,,,,,,,,,,
1577421882.640150,43.000000,0.000000,4193.846191,4227.179688,4042.051270,4154.358887,4228.205078,0.000000,4.000000,,,,0.000000,4.000000,4.000000,4.000000,4.000000,4.000000,,,,,,,,,,,,,,,,,,,,,,,,,
1577421882.647853,44.000000,0.000000,4204.615234,4243.077148,4048.718018,4164.102539,4230.256348,0.000000,4.000000,,,,0.000000,4.000000,4.000000,4.000000,4.000000,4.000000,,,,,,,,,,,,,,,,,,,,,,,,,
1577421882.655757,45.000000,0.000000,4204.102539,4231.794922,4058.974365,4169.230957,4228.717773,0.000000,4.000000,,,,0.000000,4.000000,4.000000,4.000000,4.000000,4.000000,,,,,,,,,,,,,,,,,,,,,,,,,
1577421882.663562,46.000000,0.000000,4221.025879,4232.307617,4062.564209,4180.512695,4242.563965,0.000000,4.000000,,,,0.000000,4.000000,4.000000,4.000000,4.000000,4.000000,,,,,,,,,,,,,,,,,,,,,,,,,
1577421882.671466,47.000000,0.000000,4204.615234,4225.641113,4026.666748,4154.358887,4225.128418,0.000000,4.000000,,,,0.000000,4.000000,4.000000,4.000000,4.000000,4.000000,,,,,,,,,,,,,,,,,,,,,,,,,
1577421882.679271,48.000000,0.000000,4196.922852,4236.410156,4030.769287,4158.461426,4230.256348,0.000000,4.000000,,,,0.000000,4.000000,4.000000,4.000000,4.000000,4.000000,,,,,,,,,,,,,,,,,,,,,,,,,
1577421882.687075,49.000000,0.000000,4205.128418,4255.897461,4031.281982,4155.384766,4232.307617,0.000000,4.000000,,,,0.000000,4.000000,4.000000,4.000000,4.000000,4.000000,14.158646,9.516162,8.715997,10.166604,6.897225,19.198587,6.531769,4.635284,5.705600,5.420516,339.157471,20.634361,5.296344,2.197620,3.259477,5.461280,2.867562,4.457678,1.298811,7.548414,9.524742,5.639196,6.530825,5.731109,5.488870
1577421882.694778,50.000000,0.000000,4186.153809,4247.179688,3982.051270,4126.666504,4205.641113,0.000000,4.000000,,,,0.000000,4.000000,4.000000,4.000000,4.000000,4.000000,,,,,,,,,,,,,,,,,,,,,,,,,
1577421882.702581,51.000000,0.000000,4190.769043,4244.615234,3973.846191,4146.153809,4214.358887,0.000000,4.000000,,,,0.000000,4.000000,4.000000,4.000000,4.000000,4.000000,,,,,,,,,,,,,,,,,,,,,,,,,
1577421882.710285,52.000000,0.000000,4188.205078,4225.128418,3971.281982,4149.230957,4213.333496,0.000000,4.000000,,,,0.000000,4.000000,4.000000,4.000000,4.000000,4.000000,,,,,,,,,,,,,,,,,,,,,,,,,
1577421882.718087,53.000000,0.000000,4191.794922,4229.743652,3969.743652,4153.846191,4217.436035,0.000000,4.000000,,,,0.000000,4.000000,4.000000,4.000000,4.000000,4.000000,,,,,,,,,,,,,,,,,,,,,,,,,
1577421882.725790,54.000000,0.000000,4210.256348,4263.589844,3972.820557,4162.051270,4224.615234,0.000000,4.000000,,,,0.000000,4.000000,4.000000,4.000000,4.000000,4.000000,,,,,,,,,,,,,,,,,,,,,,,,,
1577421882.733593,55.000000,0.000000,4209.743652,4257.948730,3975.897461,4155.897461,4218.974121,0.000000,4.000000,,,,0.000000,4.000000,4.000000,4.000000,4.000000,4.000000,,,,,,,,,,,,,,,,,,,,,,,,,
1577421882.741296,56.000000,0.000000,4314.871582,4305.128418,4052.820557,4215.384766,4298.461426,0.000000,4.000000,,,,0.000000,4.000000,4.000000,4.000000,4.000000,4.000000,,,,,,,,,,,,,,,,,,,,,,,,,
1577421882.749200,57.000000,0.000000,4303.077148,4251.794922,4018.461426,4146.153809,4251.282227,0.000000,4.000000,,,,0.000000,4.000000,4.000000,4.000000,4.000000,4.000000,,,,,,,,,,,,,,,,,,,,,,,,,
1577421882.757004,58.000000,0.000000,4262.563965,4210.769043,4006.153809,4150.256348,4256.410156,0.000000,4.000000,,,,0.000000,4.000000,4.000000,4.000000,4.000000,4.000000,,,,,,,,,,,,,,,,,,,,,,,,,
1577421882.764907,59.000000,0.000000,4551.794922,4416.922852,4149.230957,4289.230957,4457.436035,0.000000,4.000000,,,,0.000000,4.000000,4.000000,4.000000,4.000000,4.000000,,,,,,,,,,,,,,,,,,,,,,,,,
1577421882.772711,60.000000,0.000000,4356.410156,4171.282227,3934.358887,4009.230713,4190.769043,0.000000,4.000000,,,,0.000000,4.000000,4.000000,4.000000,4.000000,4.000000,,,,,,,,,,,,,,,,,,,,,,,,,
1577421882.780415,61.000000,0.000000,4164.615234,3986.153809,3898.461426,4096.410156,4183.589844,0.000000,4.000000,,,,0.000000,4.000000,4.000000,4.000000,4.000000,4.000000,,,,,,,,,,,,,,,,,,,,,,,,,
1577421882.788219,62.000000,0.000000,4569.743652,4298.461426,4084.102539,4366.153809,4505.641113,0.000000,4.000000,,,,0.000000,4.000000,4.000000,4.000000,4.000000,4.000000,,,,,,,,,,,,,,,,,,,,,,,,,
1577421882.796022,63.000000,0.000000,4456.410156,4152.307617,3844.102539,3987.692383,4206.153809,0.000000,4.000000,,,,0.000000,4.000000,4.000000,4.000000,4.000000,4.000000,,,,,,,,,,,,,,,,,,,,,,,,,
1577421882.803725,64.000000,0.000000,4390.256348,4078.974365,3887.179443,4028.205078,4212.820313,450.000000,4.000000,,,,0.000000,4.000000,4.000000,4.000000,4.000000,4.000000,,,,,,,,,,,,,,,,,,,,,,,,,
1577421882.811428,65.000000,0.000000,4642.051270,4269.743652,4058.974365,4240.512695,4450.256348,450.000000,4.000000,,,,0.000000,4.000000,4.000000,4.000000,4.000000,4.000000,15.430717,9.685306,9.031176,7.247118,5.702366,23.419493,6.080629,4.681353,4.166085,4.339262,380.908569,19.718607,4.631146,1.765857,2.723248,6.414658,3.048554,4.620595,1.229249,6.365808,9.962542,5.949325,6.850533,4.084375,4.721006
1577421882.819232,66.000000,0.000000,4569.743652,4206.666504,3968.718018,4107.692383,4350.256348,16211.000000,4.000000,,,,0.000000,4.000000,4.000000,4.000000,4.000000,4.000000,,,,,,,,,,,,,,,,,,,,,,,,,
1577421882.826935,67.000000,0.000000,4595.384766,4222.051270,4016.410156,4165.641113,4411.282227,450.000000,4.000000,,,,0.000000,4.000000,4.000000,4.000000,4.000000,4.000000,,,,,,,,,,,,,,,,,,,,,,,,,
1577421882.834739,68.000000,0.000000,4670.256348,4252.307617,4049.230713,4201.025879,4463.077148,16145.000000,4.000000,,,,0.000000,4.000000,4.000000,4.000000,4.000000,4.000000,,,,,,,,,,,,,,,,,,,,,,,,,
1577421882.842442,69.000000,0.000000,4665.641113,4237.436035,4045.128174,4177.436035,4450.256348,450.000000,4.000000,,,,0.000000,4.000000,4.000000,4.000000,4.000000,4.000000,,,,,,,,,,,,,,,,,,,,,,,,,
1577421882.850246,70.000000,0.000000,4664.615234,4243.077148,4052.307617,4176.922852,4455.897461,16172.000000,4.000000,,,,0.000000,4.000000,4.000000,4.000000,4.000000,4.000000,,,,,,,,,,,,,,,,,,,,,,,,,
1577421882.857949,71.000000,0.000000,4645.641113,4226.153809,4042.051270,4161.025879,4437.948730,450.000000,4.000000,,,,0.000000,4.000000,4.000000,4.000000,4.000000,4.000000,,,,,,,,,,,,,,,,,,,,,,,,,
1577421882.865752,72.000000,0.000000,4664.615234,4231.282227,4066.666748,4172.820313,4448.717773,450.000000,4.000000,,,,0.000000,4.000000,4.000000,4.000000,4.000000,4.000000,,,,,,,,,,,,,,,,,,,,,,,,,
1577421882.873456,73.000000,0.000000,4680.000000,4244.615234,4100.000000,4180.512695,4457.948730,16183.000000,4.000000,,,,0.000000,4.000000,4.000000,4.000000,4.000000,4.000000,,,,,,,,,,,,,,,,,,,,,,,,,
1577421882.881259,74.000000,0.000000,4682.563965,4255.897461,4129.230957,4190.769043,4469.230957,450.000000,4.000000,,,,0.000000,4.000000,4.000000,4.000000,4.000000,4.000000,,,,,,,,,,,,,,,,,,,,,,,,,
1577421882.888962,75.000000,0.000000,4683.589844,4256.922852,4143.077148,4193.846191,4467.179688,16196.000000,4.000000,,,,0.000000,4.000000,4.000000,4.000000,4.000000,4.000000,,,,,,,,,,,,,,,,,,,,,,,,,
1577421882.896765,76.000000,0.000000,4671.794922,4250.769043,4153.333496,4180.000000,4452.820313,450.000000,4.000000,,,,0.000000,4.000000,4.000000,4.000000,4.000000,4.000000,,,,,,,,,,,,,,,,,,,,,,,,,
1577421882.904468,77.000000,0.000000,4664.615234,4252.820313,4177.948730,4174.358887,4461.025879,450.000000,4.000000,,,,0.000000,4.000000,4.000000,4.000000,4.000000,4.000000,,,,,,,,,,,,,,,,,,,,,,,,,
1577421882.912372,78.000000,0.000000,4664.615234,4257.436035,4197.436035,4177.948730,4481.025879,450.000000,4.000000,,,,0.000000,4.000000,4.000000,4.000000,4.000000,4.000000,,,,,,,,,,,,,,,,,,,,,,,,,
1577421882.920176,79.000000,0.000000,4668.717773,4261.538574,4209.230957,4181.538574,4501.025879,16196.000000,4.000000,,,,0.000000,4.000000,4.000000,4.000000,4.000000,4.000000,,,,,,,,,,,,,,,,,,,,,,,,,
1577421882.928079,80.000000,0.000000,4652.820313,4262.051270,4207.179688,4162.051270,4487.692383,450.000000,4.000000,,,,0.000000,4.000000,4.000000,4.000000,4.000000,4.000000,,,,,,,,,,,,,,,,,,,,,,,,,
1577421882.935883,81.000000,0.000000,4621.538574,4260.000000,4206.666504,4145.641113,4462.051270,450.000000,4.000000,,,,0.000000,4.000000,4.000000,4.000000,4.000000,4.000000,17.092388,9.204328,8.744313,4.788756,4.581748,27.845730,5.673201,4.467739,3.055102,3.355241,412.839935,18.128300,3.956596,1.466369,2.214798,7.343770,3.162540,4.442401,1.196224,5.087426,11.276323,6.163824,6.551093,2.822980,3.943373
1577421882.943787,82.000000,0.000000,4637.948730,4282.563965,4245.128418,4178.461426,4498.461426,450.000000,4.000000,,,,0.000000,4.000000,4.000000,4.000000,4.000000,4.000000,,,,,,,,,,,,,,,,,,,,,,,,,
1577421882.951591,83.000000,0.000000,4667.179688,4304.102539,4271.282227,4205.641113,4536.922852,16196.000000,4.000000,,,,0.000000,4.000000,4.000000,4.000000,4.000000,4.000000,,,,,,,,,,,,,,,,,,,,,,,,,
1577421882.959495,84.000000,0.000000,4651.282227,4295.384766,4258.461426,4191.794922,4523.077148,450.000000,4.000000,,,,0.000000,4.000000,4.000000,4.000000,4.000000,4.000000,,,,,,,,,,,,,,,,,,,,,,,,,
1577421882.967298,85.000000,0.000000,4631.282227,4286.153809,4245.128418,4180.000000,4505.641113,450.000000,4.000000,,,,0.000000,4.000000,4.000000,4.000000,4.000000,4.000000,,,,,,,,,,,,,,,,,,,,,,,,,
1577421882.975202,86.000000,0.000000,4626.666504,4289.743652,4238.461426,4172.820313,4500.512695,450.000000,4.000000,,,,0.000000,4.000000,4.000000,4.000000,4.000000,4.000000,,,,,,,,,,,,,,,,,,,,,,,,,
1577421882.983006,87.000000,0.000000,4623.589844,4295.897461,4238.461426,4169.230957,4506.666504,16196.000000,4.000000,,,,0.000000,4.000000,4.000000,4.000000,4.000000,4.000000,,,,,,,,,,,,,,,,,,,,,,,,,
1577421882.990709,88.000000,0.000000,4632.307617,4302.563965,4249.230957,4185.641113,4524.102539,450.000000,4.000000,,,,0.000000,4.000000,4.000000,4.000000,4.000000,4.000000,,,,,,,,,,,,,,,,,,,,,,,,,
1577421882.998513,89.000000,0.000000,4650.256348,4301.025879,4252.820313,4203.589844,4538.461426,450.000000,4.000000,,,,0.000000,4.000000,4.000000,4.000000,4.000000,4.000000,,,,,,,,,,,,,,,,,,,,,,,,,
1577421883.006216,90.000000,0.000000,4646.153809,4293.333496,4232.307617,4191.282227,4531.282227,450.000000,4.000000,,,,0.000000,4.000000,4.000000,4.000000,4.000000,4.000000,,,,,,,,,,,,,,,,,,,,,,,,,
1577421883.014020,91.000000,0.000000,4627.179688,4285.641113,4207.179688,4169.743652,4511.794922,16196.000000,4.000000,,,,0.000000,4.000000,4.000000,4.000000,4.000000,4.000000,,,,,,,,,,,,,,,,,,,,,,,,,
1577421883.021723,92.000000,0.000000,4633.846191,4284.615234,4217.948730,4180.000000,4520.000000,450.000000,4.000000,,,,0.000000,4.000000,4.000000,4.000000,4.000000,4.000000,,,,,,,,,,,,,,,,,,,,,,,,,
1577421883.029527,93.000000,0.000000,4649.743652,4280.512695,4242.051270,4196.922852,4540.000000,450.000000,4.000000,,,,0.000000,4.000000,4.000000,4.000000,4.000000,4.000000,,,,,,,,,,,,,,,,,,,,,,,,,
1577421883.037230,94.000000,0.000000,4642.563965,4278.461426,4230.769043,4183.077148,4538.461426,450.000000,4.000000,,,,0.000000,4.000000,4.000000,4.000000,4.000000,4.000000,,,,,,,,,,,,,,,,,,,,,,,,,
1577421883.045134,95.000000,0.000000,4652.307617,4295.897461,4224.102539,4177.948730,4537.436035,16196.000000,4.000000,,,,0.000000,4.000000,4.000000,4.000000,4.000000,4.000000,,,,,,,,,,,,,,,,,,,,,,,,,
1577421883.052939,96.000000,0.000000,4670.256348,4300.000000,4234.871582,4190.256348,4543.589844,450.000000,4.000000,,,,0.000000,4.000000,4.000000,4.000000,4.000000,4.000000,,,,,,,,,,,,,,,,,,,,,,,,,
1577421883.060843,97.000000,0.000000,4665.641113,4284.615234,4219.487305,4185.128418,4540.000000,450.000000,4.000000,,,,0.000000,4.000000,4.000000,4.000000,4.000000,4.000000,20.271004,8.326699,8.181275,3.085714,4.151184,32.048420,5.518376,4.207116,2.377264,3.016324,429.454681,16.534643,3.581671,1.330929,2.017057,8.480701,3.283339,4.085500,1.239798,4.401874,13.619730,6.452447,5.819240,1.977370,3.659900
1577421883.068647,98.000000,0.000000,4666.153809,4287.692383,4203.589844,4181.025879,4536.922852,450.000000,4.000000,,,,0.000000,4.000000,4.000000,4.000000,4.000000,4.000000,,,,,,,,,,,,,,,,,,,,,,,,,
1577421883.076551,99.000000,0.000000,4676.410156,4294.358887,4209.230957,4186.153809,4548.205078,16196.000000,4.000000,,,,0.000000,4.000000,4.000000,4.000000,4.000000,4.000000,,,,,,,,,,,,,,,,,,,,,,,,,
1577421883.084355,100.000000,0.000000,4687.179688,4295.897461,4213.846191,4190.256348,4571.794922,450.000000,4.000000,,,,0.000000,4.000000,4.000000,4.000000,4.000000,4.000000,,,,,,,,,,,,,,,,,,,,,,,,,
1577421883.092259,101.000000,0.000000,4692.307617,4292.820313,4201.025879,4183.589844,4580.512695,450.000000,4.000000,,,,0.000000,4.000000,4.000000,4.000000,4.000000,4.000000,,,,,,,,,,,,,,,,,,,,,,,,,
1577421883.100063,102.000000,0.000000,4685.128418,4287.692383,4192.307617,4170.256348,4571.282227,450.000000,4.000000,,,,0.000000,4.000000,4.000000,4.000000,4.000000,4.000000,,,,,,,,,,,,,,,,,,,,,,,,,
1577421883.107967,103.000000,0.000000,4689.230957,4305.641113,4211.794922,4183.077148,4573.333496,16196.000000,4.000000,,,,0.000000,4.000000,4.000000,4.000000,4.000000,4.000000,,,,,,,,,,,,,,,,,,,,,,,,,
1577421883.115771,104.000000,0.000000,4700.000000,4314.871582,4234.358887,4207.692383,4592.820313,450.000000,4.000000,,,,0.000000,4.000000,4.000000,4.000000,4.000000,4.000000,,,,,,,,,,,,,,,,,,,,,,,,,
1577421883.123675,105.000000,0.000000,4688.205078,4289.743652,4241.025879,4206.153809,4595.897461,450.000000,4.000000,,,,0.000000,4.000000,4.000000,4.000000,4.000000,4.000000,,,,,,,,,,,,,,,,,,,,,,,,,
1577421883.131479,106.000000,0.000000,4663.589844,4277.436035,4250.769043,4184.102539,4570.256348,450.000000,4.000000,,,,0.000000,4.000000,4.000000,4.000000,4.000000,4.000000,,,,,,,,,,,,,,,,,,,,,,,,,
1577421883.139382,107.000000,0.000000,4652.820313,4292.307617,4269.230957,4174.358887,4554.871582,16196.000000,4.000000,,,,0.000000,4.000000,4.000000,4.000000,4.000000,4.000000,,,,,,,,,,,,,,,,,,,,,,,,,
1577421883.147186,108.000000,0.000000,4653.333496,4295.384766,4294.871582,4185.641113,4565.641113,450.000000,4.000000,,,,0.000000,4.000000,4.000000,4.000000,4.000000,4.000000,,,,,,,,,,,,,,,,,,,,,,,,,
1577421883.154990,109.000000,0.000000,4644.102539,4274.358887,4307.179688,4182.563965,4558.461426,450.000000,4.000000,,,,0.000000,4.000000,4.000000,4.000000,4.000000,4.000000,,,,,,,,,,,,,,,,,,,,,,,,,
1577421883.162693,110.000000,0.000000,4617.436035,4261.538574,4293.333496,4155.384766,4530.769043,450.000000,4.000000,,,,0.000000,4.000000,4.000000,4.000000,4.000000,4.000000,,,,,,,,,,,,,,,,,,,,,,,,,
1577421883.170397,111.000000,0.000000,4595.384766,4278.974121,4294.358887,4145.641113,4515.897461,16196.000000,4.000000,,,,0.000000,4.000000,4.000000,4.000000,4.000000,4.000000,,,,,,,,,,,,,,,,,,,,,,,,,
1577421883.178200,112.000000,0.000000,4601.025879,4298.974121,4325.641113,4160.000000,4527.692383,450.000000,4.000000,,,,0.000000,4.000000,4.000000,4.000000,4.000000,4.000000,,,,,,,,,,,,,,,,,,,,,,,,,
1577421883.186004,113.000000,0.000000,4630.256348,4309.230957,4354.358887,4175.897461,4556.922852,450.000000,4.000000,,,,0.000000,4.000000,4.000000,4.000000,4.000000,4.000000,24.197050,7.408326,7.835123,2.243042,5.169706,35.657131,5.867139,4.344595,2.049845,3.920004,426.139801,15.692917,3.829357,1.368786,2.467136,9.848972,3.535559,3.763662,1.405049,5.137706,15.766893,7.028358,5.084022,1.536435,4.581025
1577421883.193706,114.000000,0.000000,4638.461426,4331.794922,4361.025879,4182.563965,4567.692383,450.000000,4.000000,,,,0.000000,4.000000,4.000000,4.000000,4.000000,4.000000,,,,,,,,,,,,,,,,,,,,,,,,,
1577421883.201410,115.000000,0.000000,4597.436035,4335.384766,4340.512695,4164.615234,4537.436035,16196.000000,4.000000,,,,0.000000,4.000000,4.000000,4.000000,4.000000,4.000000,,,,,,,,,,,,,,,,,,,,,,,,,
1577421883.209213,116.000000,0.000000,4557.436035,4302.051270,4308.717773,4129.743652,4495.384766,450.000000,4.000000,,,,0.000000,4.000000,4.000000,4.000000,4.000000,4.000000,,,,,,,,,,,,,,,,,,,,,,,,,
1577421883.216917,117.000000,0.000000,4554.871582,4290.256348,4297.436035,4123.077148,4479.487305,450.000000,4.000000,,,,0.000000,4.000000,4.000000,4.000000,4.000000,4.000000,,,,,,,,,,,,,,,,,,,,,,,,,
1577421883.224821,118.000000,0.000000,4549.230957,4319.487305,4311.794922,4141.538574,4481.025879,450.000000,4.000000,,,,0.000000,4.000000,4.000000,4.000000,4.000000,4.000000,,,,,,,,,,,,,,,,,,,,,,,,,
1577421883.232626,119.000000,0.000000,4518.461426,4332.820313,4309.230957,4135.384766,4469.743652,16196.000000,4.000000,,,,0.000000,4.000000,4.000000,4.000000,4.000000,4.000000,,,,,,,,,,,,,,,,,,,,,,,,,
1577421883.240530,120.000000,0.000000,4490.256348,4307.692383,4283.077148,4114.871582,4450.256348,450.000000,4.000000,,,,0.000000,4.000000,4.000000,4.000000,4.000000,4.000000,,,,,,,,,,,,,,,,,,,,,,,,,
1577421883.248334,121.000000,0.000000,4464.615234,4287.179688,4273.333496,4114.358887,4427.692383,450.000000,4.000000,,,,0.000000,4.000000,4.000000,4.000000,4.000000,4.000000,,,,,,,,,,,,,,,,,,,,,,,,,
1577421883.256139,122.000000,0.000000,4436.922852,4301.025879,4274.358887,4124.102539,4409.743652,450.000000,4.000000,,,,0.000000,4.000000,4.000000,4.000000,4.000000,4.000000,,,,,,,,,,,,,,,,,,,,,,,,,
1577421883.263842,123.000000,0.000000,4446.153809,4324.102539,4263.589844,4142.563965,4423.077148,16196.000000,4.000000,,,,0.000000,4.000000,4.000000,4.000000,4.000000,4.000000,,,,,,,,,,,,,,,,,,,,,,,,,
1577421883.271645,124.000000,0.000000,4469.230957,4320.000000,4248.717773,4162.051270,4434.871582,450.000000,4.000000,,,,0.000000,4.000000,4.000000,4.000000,4.000000,4.000000,,,,,,,,,,,,,,,,,,,,,,,,,
1577421883.279348,125.000000,0.000000,4437.948730,4297.436035,4232.820313,4154.358887,4413.333496,450.000000,4.000000,,,,0.000000,4.000000,4.000000,4.000000,4.000000,4.000000,,,,,,,,,,,,,,,,,,,,,,,,,
1577421883.287151,126.000000,0.000000,4401.025879,4303.077148,4217.436035,4140.512695,4398.974121,450.000000,4.000000,,,,0.000000,4.000000,4.000000,4.000000,4.000000,4.000000,,,,,,,,,,,,,,,,,,,,,,,,,
1577421883.294854,127.000000,0.000000,4411.282227,4322.563965,4206.666504,4142.051270,4402.563965,234.000000,4.000000,,,,0.000000,4.000000,4.000000,4.000000,4.000000,4.000000,,,,,,,,,,,,,,,,,,,,,,,,,
1577421883.302657,0.000000,0.000000,4414.871582,4317.948730,4206.153809,4143.589844,4403.077148,450.000000,4.000000,,,,0.000000,4.000000,4.000000,4.000000,4.000000,4.000000,,,,,,,,,,,,,,,,,,,,,,,,,
1577421883.310360,1.000000,0.000000,4401.025879,4309.743652,4215.384766,4144.615234,4407.179688,450.000000,4.000000,,,,0.000000,4.000000,4.000000,4.000000,4.000000,4.000000,31.428377,6.803929,8.037473,2.148971,7.985582,38.152283,6.819481,5.171647,1.947887,6.281249,401.229980,15.870547,4.926340,1.561364,3.720093,11.177390,3.992779,3.604275,1.729768,7.696500,17.840422,8.022416,4.719248,1.467169,7.100539
1577421883.318264,2.000000,0.000000,4393.333496,4307.692383,4221.025879,4143.589844,4404.615234,16197.000000,4.000000,,,,0.000000,4.000000,4.000000,4.000000,4.000000,4.000000,,,,,,,,,,,,,,,,,,,,,,,,,
1577421883.326068,3.000000,0.000000,4374.358887,4294.358887,4216.922852,4140.000000,4384.615234,450.000000,4.000000,,,,0.000000,4.000000,4.000000,4.000000,4.000000,4.000000,,,,,,,,,,,,,,,,,,,,,,,,,
1577421883.333971,4.000000,0.000000,4348.717773,4276.922852,4211.794922,4143.077148,4363.589844,16175.000000,4.000000,,,,0.000000,4.000000,4.000000,4.000000,4.000000,4.000000,,,,,,,,,,,,,,,,,,,,,,,,,
1577421883.341775,5.000000,0.000000,4329.743652,4273.333496,4209.230957,4147.179688,4348.205078,450.000000,4.000000,,,,0.000000,4.000000,4.000000,4.000000,4.000000,4.000000,,,,,,,,,,,,,,,,,,,,,,,,,
1577421883.349679,6.000000,0.000000,4303.077148,4273.333496,4206.666504,4141.538574,4322.051270,16166.000000,4.000000,,,,0.000000,4.000000,4.000000,4.000000,4.000000,4.000000,,,,,,,,,,,,,,,,,,,,,,,,,
1577421883.357482,7.000000,0.000000,4275.897461,4261.538574,4200.512695,4134.358887,4285.641113,450.000000,4.000000,,,,0.000000,4.000000,4.000000,4.000000,4.000000,4.000000,,,,,,,,,,,,,,,,,,,,,,,,,
1577421883.365286,8.000000,0.000000,4279.487305,4264.102539,4207.179688,4146.153809,4285.128418,450.000000,4.000000,,,,0.000000,4.000000,4.000000,4.000000,4.000000,4.000000,,,,,,,,,,,,,,,,,,,,,,,,,
1577421883.373090,9.000000,0.000000,4284.615234,4285.641113,4222.563965,4150.256348,4300.000000,16163.000000,4.000000,,,,0.000000,4.000000,4.000000,4.000000,4.000000,4.000000,,,,,,,,,,,,,,,,,,,,,,,,,
1577421883.380793,10.000000,0.000000,4263.589844,4287.179688,4210.769043,4122.563965,4277.436035,450.000000,4.000000,,,,0.000000,4.000000,4.000000,4.000000,4.000000,4.000000,,,,,,,,,,,,,,,,,,,,,,,,,
1577421883.388597,11.000000,0.000000,4257.436035,4277.436035,4188.205078,4114.358887,4251.282227,16204.000000,4.000000,,,,0.000000,4.000000,4.000000,4.000000,4.000000,4.000000,,,,,,,,,,,,,,,,,,,,,,,,,
1577421883.396300,12.000000,0.000000,4272.820313,4277.948730,4189.230957,4132.820313,4256.922852,450.000000,4.000000,,,,0.000000,4.000000,4.000000,4.000000,4.000000,4.000000,,,,,,,,,,,,,,,,,,,,,,,,,
1577421883.404104,13.000000,0.000000,4280.000000,4281.538574,4188.717773,4135.384766,4269.743652,450.000000,4.000000,,,,0.000000,4.000000,4.000000,4.000000,4.000000,4.000000,,,,,,,,,,,,,,,,,,,,,,,,,
1577421883.411807,14.000000,0.000000,4279.487305,4289.230957,4159.487305,4125.128418,4264.615234,450.000000,4.000000,,,,0.000000,4.000000,4.000000,4.000000,4.000000,4.000000,,,,,,,,,,,,,,,,,,,,,,,,,
1577421883.419611,15.000000,0.000000,4267.179688,4290.256348,4126.666504,4120.000000,4258.461426,16204.000000,4.000000,,,,0.000000,4.000000,4.000000,4.000000,4.000000,4.000000,,,,,,,,,,,,,,,,,,,,,,,,,
1577421883.427314,16.000000,0.000000,4257.948730,4287.179688,4126.666504,4127.179688,4266.666504,0.000000,4.000000,,,,0.000000,4.000000,4.000000,4.000000,4.000000,4.000000,,,,,,,,,,,,,,,,,,,,,,,,,
1577421883.435117,17.000000,0.000000,4267.692383,4297.948730,4134.358887,4138.974121,4268.205078,0.000000,4.000000,,,,0.000000,4.000000,4.000000,4.000000,4.000000,4.000000,39.177994,6.610705,8.734657,2.518110,12.160006,38.837261,8.282079,6.629429,1.954558,9.675625,356.298309,16.705284,6.766489,1.869278,5.588826,12.207651,4.578722,3.588741,2.195003,11.681532,18.236969,9.357092,4.811634,1.689462,10.905139
1577421883.442820,18.000000,0.000000,4273.846191,4295.897461,4119.487305,4140.000000,4263.589844,0.000000,4.000000,,,,0.000000,4.000000,4.000000,4.000000,4.000000,4.000000,,,,,,,,,,,,,,,,,,,,,,,,,
1577421883.450624,19.000000,0.000000,4267.692383,4278.461426,4109.230957,4139.487305,4262.563965,0.000000,4.000000,,,,0.000000,4.000000,4.000000,4.000000,4.000000,4.000000,,,,,,,,,,,,,,,,,,,,,,,,,
1577421883.458327,20.000000,0.000000,4265.128418,4277.948730,4114.871582,4146.666504,4261.025879,0.000000,4.000000,,,,0.000000,4.000000,4.000000,4.000000,4.000000,4.000000,,,,,,,,,,,,,,,,,,,,,,,,,
1577421883.466231,21.000000,0.000000,4258.974121,4271.794922,4111.794922,4144.615234,4257.436035,0.000000,4.000000,,,,0.000000,4.000000,4.000000,4.000000,4.000000,4.000000,,,,,,,,,,,,,,,,,,,,,,,,,
1577421883.474035,22.000000,0.000000,4228.717773,4243.589844,4084.615479,4118.461426,4234.871582,0.000000,4.000000,,,,0.000000,4.000000,4.000000,4.000000,4.000000,4.000000,,,,,,,,,,,,,,,,,,,,,,,,,
1577421883.481939,23.000000,0.000000,4207.179688,4242.563965,4068.718018,4101.025879,4210.256348,0.000000,4.000000,,,,0.000000,4.000000,4.000000,4.000000,4.000000,4.000000,,,,,,,,,,,,,,,,,,,,,,,,,
1577421883.489743,24.000000,0.000000,4230.256348,4267.692383,4093.846191,4122.051270,4224.615234,0.000000,4.000000,,,,0.000000,4.000000,4.000000,4.000000,4.000000,4.000000,,,,,,,,,,,,,,,,,,,,,,,,,
1577421883.497647,25.000000,0.000000,4249.230957,4266.153809,4108.717773,4140.000000,4243.077148,0.000000,4.000000,,,,0.000000,4.000000,4.000000,4.000000,4.000000,4.000000,,,,,,,,,,,,,,,,,,,,,,,,,
1577421883.505451,26.000000,0.000000,4230.769043,4246.153809,4084.615479,4127.692383,4231.282227,0.000000,4.000000,,,,0.000000,4.000000,4.000000,4.000000,4.000000,4.000000,,,,,,,,,,,,,,,,,,,,,,,,,
1577421883.513355,27.000000,0.000000,4207.692383,4235.897461,4058.974365,4113.333496,4212.820313,0.000000,4.000000,,,,0.000000,4.000000,4.000000,4.000000,4.000000,4.000000,,,,,,,,,,,,,,,,,,,,,,,,,
1577421883.521159,28.000000,0.000000,4213.846191,4238.461426,4051.794922,4116.922852,4209.230957,0.000000,4.000000,,,,0.000000,4.000000,4.000000,4.000000,4.000000,4.000000,,,,,,,,,,,,,,,,,,,,,,,,,
1577421883.529062,29.000000,0.000000,4227.692383,4240.000000,4043.076904,4117.948730,4202.051270,0.000000,4.000000,,,,0.000000,4.000000,4.000000,4.000000,4.000000,4.000000,,,,,,,,,,,,,,,,,,,,,,,,,
1577421883.536866,30.000000,0.000000,4216.922852,4232.307617,4032.307617,4108.205078,4190.256348,0.000000,4.000000,,,,0.000000,4.000000,4.000000,4.000000,4.000000,4.000000,,,,,,,,,,,,,,,,,,,,,,,,,
1577421883.544770,31.000000,0.000000,4207.692383,4231.794922,4036.923096,4109.743652,4203.077148,0.000000,4.000000,,,,0.000000,4.000000,4.000000,4.000000,4.000000,4.000000,,,,,,,,,,,,,,,,,,,,,,,,,
1577421883.552573,32.000000,0.000000,4221.025879,4245.128418,4049.743652,4118.461426,4207.179688,0.000000,4.000000,,,,0.000000,4.000000,4.000000,4.000000,4.000000,4.000000,,,,,,,,,,,,,,,,,,,,,,,,,
1577421883.560477,33.000000,0.000000,4218.974121,4243.077148,4054.358887,4114.871582,4185.128418,0.000000,4.000000,,,,0.000000,4.000000,4.000000,4.000000,4.000000,4.000000,47.604298,6.787494,9.569923,3.014238,16.509941,36.900974,9.986823,8.278482,1.991114,13.128892,297.135864,17.358919,8.850060,2.227100,7.559655,12.502160,5.128291,3.599287,2.713899,15.949659,17.605801,10.794269,5.199157,2.075320,14.957976
1577421883.568281,34.000000,0.000000,4202.051270,4238.974121,4061.538574,4110.256348,4177.436035,0.000000,4.000000,,,,0.000000,4.000000,4.000000,4.000000,4.000000,4.000000,,,,,,,,,,,,,,,,,,,,,,,,,
1577421883.575985,35.000000,0.000000,4205.641113,4247.692383,4074.871826,4115.384766,4186.666504,0.000000,4.000000,,,,0.000000,4.000000,4.000000,4.000000,4.000000,4.000000,,,,,,,,,,,,,,,,,,,,,,,,,
1577421883.583788,36.000000,0.000000,4219.487305,4252.307617,4080.000000,4117.948730,4196.410156,0.000000,4.000000,,,,0.000000,4.000000,4.000000,4.000000,4.000000,4.000000,,,,,,,,,,,,,,,,,,,,,,,,,
1577421883.591492,37.000000,0.000000,4228.205078,4263.589844,4089.743652,4118.974121,4198.461426,0.000000,4.000000,,,,0.000000,4.000000,4.000000,4.000000,4.000000,4.000000,,,,,,,,,,,,,,,,,,,,,,,,,
1577421883.599295,38.000000,0.000000,4247.179688,4277.436035,4121.025879,4135.897461,4200.512695,0.000000,4.000000,,,,0.000000,4.000000,4.000000,4.000000,4.000000,4.000000,,,,,,,,,,,,,,,,,,,,,,,,,
1577421883.606999,39.000000,0.000000,4256.410156,4270.769043,4150.769043,4161.538574,4212.307617,0.000000,4.000000,,,,0.000000,4.000000,4.000000,4.000000,4.000000,4.000000,,,,,,,,,,,,,,,,,,,,,,,,,
1577421883.614802,40.000000,0.000000,4230.256348,4252.307617,4143.077148,4159.487305,4202.051270,0.000000,4.000000,,,,0.000000,4.000000,4.000000,4.000000,4.000000,4.000000,,,,,,,,,,,,,,,,,,,,,,,,,
1577421883.622505,41.000000,0.000000,4213.333496,4244.615234,4122.563965,4138.461426,4181.025879,0.000000,4.000000,,,,0.000000,4.000000,4.000000,4.000000,4.000000,4.000000,,,,,,,,,,,,,,,,,,,,,,,,,
1577421883.630309,42.000000,0.000000,4230.256348,4241.025879,4120.000000,4138.974121,4185.641113,0.000000,4.000000,,,,0.000000,4.000000,4.000000,4.000000,4.000000,4.000000,,,,,,,,,,,,,,,,,,,,,,,,,
1577421883.638012,43.000000,0.000000,4223.589844,4230.769043,4104.615234,4141.025879,4178.461426,0.000000,4.000000,,,,0.000000,4.000000,4.000000,4.000000,4.000000,4.000000,,,,,,,,,,,,,,,,,,,,,,,,,
1577421883.645916,44.000000,0.000000,4217.436035,4230.256348,4081.538574,4127.179688,4159.487305,0.000000,4.000000,,,,0.000000,4.000000,4.000000,4.000000,4.000000,4.000000,,,,,,,,,,,,,,,,,,,,,,,,,
1577421883.653720,45.000000,0.000000,4300.512695,4221.538574,4069.743652,4112.820313,4167.692383,0.000000,4.000000,,,,0.000000,4.000000,4.000000,4.000000,4.000000,4.000000,,,,,,,,,,,,,,,,,,,,,,,,,
1577421883.661624,46.000000,0.000000,4470.256348,4167.179688,4056.410156,4088.205078,4175.897461,0.000000,4.000000,,,,0.000000,4.000000,4.000000,4.000000,4.000000,4.000000,,,,,,,,,,,,,,,,,,,,,,,,,
1577421883.669428,47.000000,0.000000,4694.871582,4145.641113,4047.179443,4048.718018,4153.846191,0.000000,4.000000,,,,0.000000,4.000000,4.000000,4.000000,4.000000,4.000000,,,,,,,,,,,,,,,,,,,,,,,,,
1577421883.677332,48.000000,0.000000,4982.563965,4180.512695,4046.666748,4017.435791,4136.410156,0.000000,4.000000,,,,0.000000,4.000000,4.000000,4.000000,4.000000,4.000000,,,,,,,,,,,,,,,,,,,,,,,,,
1577421883.685137,49.000000,0.000000,5270.769043,4014.358887,4056.923096,4010.256348,4155.897461,0.000000,4.000000,,,,0.000000,4.000000,4.000000,4.000000,4.000000,4.000000,53.265816,7.287908,9.952863,3.380023,19.541384,32.355148,11.507053,9.447062,2.019425,15.477506,233.032730,17.207478,10.444404,2.550296,8.973450,11.945285,5.429163,3.517372,3.145885,19.023649,15.942595,12.068959,5.504379,2.478191,17.881336
1577421883.692941,50.000000,0.000000,5454.358887,3642.564209,4072.307617,4009.230713,4169.743652,0.000000,4.000000,,,,0.000000,4.000000,4.000000,4.000000,4.000000,4.000000,,,,,,,,,,,,,,,,,,,,,,,,,
1577421883.700644,51.000000,0.000000,5511.794922,3485.128174,4087.179443,4004.102539,4161.025879,0.000000,4.000000,,,,0.000000,4.000000,4.000000,4.000000,4.000000,4.000000,,,,,,,,,,,,,,,,,,,,,,,,,
1577421883.708547,52.000000,0.000000,5488.717773,3611.281982,4110.769043,4013.333252,4167.692383,0.000000,4.000000,,,,0.000000,4.000000,4.000000,4.000000,4.000000,4.000000,,,,,,,,,,,,,,,,,,,,,,,,,
1577421883.716351,53.000000,0.000000,5432.307617,3687.692383,4118.461426,4023.589844,4187.179688,0.000000,4.000000,,,,0.000000,4.000000,4.000000,4.000000,4.000000,4.000000,,,,,,,,,,,,,,,,,,,,,,,,,
1577421883.724155,54.000000,0.000000,5365.128418,3690.256348,4102.051270,4011.281982,4190.256348,0.000000,4.000000,,,,0.000000,4.000000,4.000000,4.000000,4.000000,4.000000,,,,,,,,,,,,,,,,,,,,,,,,,
1577421883.731858,55.000000,0.000000,5279.487305,3743.589844,4088.718018,3987.179443,4177.436035,0.000000,4.000000,,,,0.000000,4.000000,4.000000,4.000000,4.000000,4.000000,,,,,,,,,,,,,,,,,,,,,,,,,
1577421883.739761,56.000000,0.000000,5171.794922,3757.435791,4074.358887,3972.307617,4173.333496,0.000000,4.000000,,,,0.000000,4.000000,4.000000,4.000000,4.000000,4.000000,,,,,,,,,,,,,,,,,,,,,,,,,
1577421883.747565,57.000000,0.000000,5041.538574,3740.512939,4048.205078,3965.128174,4173.333496,0.000000,4.000000,,,,0.000000,4.000000,4.000000,4.000000,4.000000,4.000000,,,,,,,,,,,,,,,,,,,,,,,,,
1577421883.755269,58.000000,0.000000,4882.051270,3746.666748,4014.871826,3941.025635,4157.436035,0.000000,4.000000,,,,0.000000,4.000000,4.000000,4.000000,4.000000,4.000000,,,,,,,,,,,,,,,,,,,,,,,,,
1577421883.763073,59.000000,0.000000,4754.358887,3763.076904,3995.384521,3920.512939,4152.820313,0.000000,4.000000,,,,0.000000,4.000000,4.000000,4.000000,4.000000,4.000000,,,,,,,,,,,,,,,,,,,,,,,,,
1577421883.770776,60.000000,0.000000,4683.589844,3792.820557,4003.076904,3930.769287,4169.743652,0.000000,4.000000,,,,0.000000,4.000000,4.000000,4.000000,4.000000,4.000000,,,,,,,,,,,,,,,,,,,,,,,,,
1577421883.778681,61.000000,0.000000,4599.487305,3805.641113,4006.153809,3929.230713,4160.000000,0.000000,4.000000,,,,0.000000,4.000000,4.000000,4.000000,4.000000,4.000000,,,,,,,,,,,,,,,,,,,,,,,,,
1577421883.786485,62.000000,0.000000,4502.051270,3815.897461,3993.333252,3912.307617,4132.307617,0.000000,4.000000,,,,0.000000,4.000000,4.000000,4.000000,4.000000,4.000000,,,,,,,,,,,,,,,,,,,,,,,,,
1577421883.794290,63.000000,0.000000,4432.307617,3860.000000,4000.512939,3929.743652,4128.717773,0.000000,4.000000,,,,0.000000,4.000000,4.000000,4.000000,4.000000,4.000000,,,,,,,,,,,,,,,,,,,,,,,,,
1577421883.801993,64.000000,0.000000,4384.102539,3899.487061,4013.846191,3955.897461,4129.230957,450.000000,4.000000,,,,0.000000,4.000000,4.000000,4.000000,4.000000,4.000000,,,,,,,,,,,,,,,,,,,,,,,,,
1577421883.809796,65.000000,0.000000,4351.282227,3902.051270,4001.025635,3943.589844,4114.871582,450.000000,4.000000,,,,0.000000,4.000000,4.000000,4.000000,4.000000,4.000000,53.185333,8.890176,9.628409,3.539512,20.113949,25.750515,12.167461,9.667523,2.042302,15.870063,171.891464,16.003147,10.885856,2.762670,9.309600,10.615677,5.382089,3.312808,3.354385,19.713943,14.095154,12.862630,5.419000,2.772887,18.573277
1577421883.817500,66.000000,0.000000,4297.948730,3913.333252,3992.820557,3927.692383,4110.769043,16220.000000,4.000000,,,,0.000000,4.000000,4.000000,4.000000,4.000000,4.000000,,,,,,,,,,,,,,,,,,,,,,,,,
1577421883.825303,67.000000,0.000000,4178.461426,3959.487061,4001.025635,3932.820557,4114.358887,450.000000,4.000000,,,,0.000000,4.000000,4.000000,4.000000,4.000000,4.000000,,,,,,,,,,,,,,,,,,,,,,,,,
1577421883.833007,68.000000,0.000000,4025.641113,4010.256348,3997.435791,3925.641113,4099.487305,16189.000000,4.000000,,,,0.000000,4.000000,4.000000,4.000000,4.000000,4.000000,,,,,,,,,,,,,,,,,,,,,,,,,
1577421883.840810,69.000000,0.000000,3931.281982,4059.487061,3980.000000,3896.923096,4068.205078,450.000000,4.000000,,,,0.000000,4.000000,4.000000,4.000000,4.000000,4.000000,,,,,,,,,,,,,,,,,,,,,,,,,
1577421883.848513,70.000000,0.000000,3956.923096,4132.820313,3970.256348,3880.512939,4042.564209,16159.000000,4.000000,,,,0.000000,4.000000,4.000000,4.000000,4.000000,4.000000,,,,,,,,,,,,,,,,,,,,,,,,,
1577421883.856316,71.000000,0.000000,4056.923096,4228.205078,3996.410156,3907.692383,4061.025635,450.000000,4.000000,,,,0.000000,4.000000,4.000000,4.000000,4.000000,4.000000,,,,,,,,,,,,,,,,,,,,,,,,,
1577421883.864019,72.000000,0.000000,4106.153809,4277.436035,4022.051270,3935.897461,4086.666748,450.000000,4.000000,,,,0.000000,4.000000,4.000000,4.000000,4.000000,4.000000,,,,,,,,,,,,,,,,,,,,,,,,,
1577421883.871822,73.000000,0.000000,4054.358887,4258.461426,3982.564209,3903.589844,4036.410156,16162.000000,4.000000,,,,0.000000,4.000000,4.000000,4.000000,4.000000,4.000000,,,,,,,,,,,,,,,,,,,,,,,,,
1577421883.879525,74.000000,0.000000,3987.179443,4251.282227,3933.846191,3864.102539,3973.846191,450.000000,4.000000,,,,0.000000,4.000000,4.000000,4.000000,4.000000,4.000000,,,,,,,,,,,,,,,,,,,,,,,,,
1577421883.887328,75.000000,0.000000,4007.179443,4296.922852,3964.615479,3905.641113,4005.641113,16212.000000,4.000000,,,,0.000000,4.000000,4.000000,4.000000,4.000000,4.000000,,,,,,,,,,,,,,,,,,,,,,,,,
1577421883.895031,76.000000,0.000000,4068.718018,4327.179688,3991.794922,3954.871826,4056.410156,450.000000,4.000000,,,,0.000000,4.000000,4.000000,4.000000,4.000000,4.000000,,,,,,,,,,,,,,,,,,,,,,,,,
1577421883.902935,77.000000,0.000000,4079.487061,4302.051270,3957.435791,3944.102539,4044.615479,450.000000,4.000000,,,,0.000000,4.000000,4.000000,4.000000,4.000000,4.000000,,,,,,,,,,,,,,,,,,,,,,,,,
1577421883.910840,78.000000,0.000000,4084.615479,4283.589844,3940.512939,3933.846191,4032.307617,450.000000,4.000000,,,,0.000000,4.000000,4.000000,4.000000,4.000000,4.000000,,,,,,,,,,,,,,,,,,,,,,,,,
1577421883.918645,79.000000,0.000000,4131.794922,4294.871582,3948.718018,3942.564209,4053.333252,16212.000000,4.000000,,,,0.000000,4.000000,4.000000,4.000000,4.000000,4.000000,,,,,,,,,,,,,,,,,,,,,,,,,
1577421883.926549,80.000000,0.000000,4181.025879,4308.717773,3948.205078,3951.794922,4084.615479,450.000000,4.000000,,,,0.000000,4.000000,4.000000,4.000000,4.000000,4.000000,,,,,,,,,,,,,,,,,,,,,,,,,
1577421883.934354,81.000000,0.000000,4200.000000,4317.948730,3943.076904,3956.410156,4095.897461,450.000000,4.000000,,,,0.000000,4.000000,4.000000,4.000000,4.000000,4.000000,75.624191,18.735588,9.677887,3.656311,17.979424,23.313578,12.977811,9.714837,2.516119,14.274618,122.007980,14.029140,9.939636,2.807347,8.434436,9.398195,5.022262,3.001694,3.262635,17.703419,12.620447,12.839619,4.830411,2.866205,16.740442
1577421883.942259,82.000000,0.000000,4204.615234,4316.922852,3933.333252,3947.179443,4090.769287,450.000000,4.000000,,,,0.000000,4.000000,4.000000,4.000000,4.000000,4.000000,,,,,,,,,,,,,,,,,,,,,,,,,
1577421883.950064,83.000000,0.000000,4222.563965,4318.461426,3933.333252,3944.615479,4103.589844,16212.000000,4.000000,,,,0.000000,4.000000,4.000000,4.000000,4.000000,4.000000,,,,,,,,,,,,,,,,,,,,,,,,,
1577421883.957968,84.000000,0.000000,4232.820313,4320.512695,3944.102539,3948.205078,4119.487305,450.000000,4.000000,,,,0.000000,4.000000,4.000000,4.000000,4.000000,4.000000,,,,,,,,,,,,,,,,,,,,,,,,,
1577421883.965773,85.000000,0.000000,4228.205078,4315.897461,3951.281982,3948.718018,4122.051270,450.000000,4.000000,,,,0.000000,4.000000,4.000000,4.000000,4.000000,4.000000,,,,,,,,,,,,,,,,,,,,,,,,,
1577421883.973677,86.000000,0.000000,4224.615234,4321.025879,3951.794922,3950.769287,4115.384766,450.000000,4.000000,,,,0.000000,4.000000,4.000000,4.000000,4.000000,4.000000,,,,,,,,,,,,,,,,,,,,,,,,,
1577421883.981482,87.000000,0.000000,4216.410156,4329.230957,3956.923096,3955.384521,4114.871582,16212.000000,4.000000,,,,0.000000,4.000000,4.000000,4.000000,4.000000,4.000000,,,,,,,,,,,,,,,,,,,,,,,,,
1577421883.989386,88.000000,0.000000,4197.948730,4327.692383,3960.000000,3955.897461,4108.717773,450.000000,4.000000,,,,0.000000,4.000000,4.000000,4.000000,4.000000,4.000000,,,,,,,,,,,,,,,,,,,,,,,,,
1577421883.997191,89.000000,0.000000,4162.563965,4319.487305,3947.692383,3952.307617,4077.948730,450.000000,4.000000,,,,0.000000,4.000000,4.000000,4.000000,4.000000,4.000000,,,,,,,,,,,,,,,,,,,,,,,,,
1577421884.005095,90.000000,0.000000,4126.153809,4328.205078,3942.051270,3956.410156,4065.128174,450.000000,4.000000,,,,0.000000,4.000000,4.000000,4.000000,4.000000,4.000000,,,,,,,,,,,,,,,,,,,,,,,,,
1577421884.013000,91.000000,0.000000,4110.256348,4347.692383,3952.307617,3963.589844,4077.948730,16212.000000,4.000000,,,,0.000000,4.000000,4.000000,4.000000,4.000000,4.000000,,,,,,,,,,,,,,,,,,,,,,,,,
1577421884.020806,92.000000,0.000000,4107.179688,4348.717773,3957.948730,3965.641113,4081.538574,450.000000,4.000000,,,,0.000000,4.000000,4.000000,4.000000,4.000000,4.000000,,,,,,,,,,,,,,,,,,,,,,,,,
1577421884.028711,93.000000,0.000000,4097.948730,4341.538574,3953.333252,3966.153809,4072.820557,450.000000,4.000000,,,,0.000000,4.000000,4.000000,4.000000,4.000000,4.000000,,,,,,,,,,,,,,,,,,,,,,,,,
1577421884.036516,94.000000,0.000000,4071.794922,4333.846191,3939.487061,3956.923096,4055.384521,450.000000,4.000000,,,,0.000000,4.000000,4.000000,4.000000,4.000000,4.000000,,,,,,,,,,,,,,,,,,,,,,,,,
1577421884.044422,95.000000,0.000000,4055.897461,4343.589844,3929.743652,3952.307617,4045.641113,16212.000000,4.000000,,,,0.000000,4.000000,4.000000,4.000000,4.000000,4.000000,,,,,,,,,,,,,,,,,,,,,,,,,
1577421884.052227,96.000000,0.000000,4068.205078,4365.641113,3946.153809,3976.410156,4053.333252,450.000000,4.000000,,,,0.000000,4.000000,4.000000,4.000000,4.000000,4.000000,,,,,,,,,,,,,,,,,,,,,,,,,
1577421884.060132,97.000000,0.000000,4072.307617,4363.589844,3971.281982,4003.076904,4058.461426,450.000000,4.000000,,,,0.000000,4.000000,4.000000,4.000000,4.000000,4.000000,210.232513,50.420559,12.190277,4.329378,13.905918,38.855831,17.898514,11.815795,4.443867,11.575972,89.165619,12.164001,7.947547,2.681907,6.666688,8.995742,4.636916,2.632826,2.903957,13.702576,11.516057,11.912239,3.884072,2.738476,13.042432
1577421884.067937,98.000000,0.000000,4058.461426,4357.948730,3978.974365,4005.128174,4054.871826,450.000000,4.000000,,,,0.000000,4.000000,4.000000,4.000000,4.000000,4.000000,,,,,,,,,,,,,,,,,,,,,,,,,
1577421884.075742,99.000000,0.000000,4044.102539,4369.743652,3969.230713,3997.948730,4048.718018,16212.000000,4.000000,,,,0.000000,4.000000,4.000000,4.000000,4.000000,4.000000,,,,,,,,,,,,,,,,,,,,,,,,,
1577421884.083646,100.000000,0.000000,4037.948730,4367.692383,3965.128174,4005.641113,4051.794922,450.000000,4.000000,,,,0.000000,4.000000,4.000000,4.000000,4.000000,4.000000,,,,,,,,,,,,,,,,,,,,,,,,,
1577421884.091551,101.000000,0.000000,4042.051270,4356.410156,3980.512939,4029.743652,4061.025635,450.000000,4.000000,,,,0.000000,4.000000,4.000000,4.000000,4.000000,4.000000,,,,,,,,,,,,,,,,,,,,,,,,,
1577421884.099356,102.000000,0.000000,4033.333252,4362.051270,3986.666748,4036.410156,4052.820557,450.000000,4.000000,,,,0.000000,4.000000,4.000000,4.000000,4.000000,4.000000,,,,,,,,,,,,,,,,,,,,,,,,,
1577421884.107261,103.000000,0.000000,4016.410156,4352.820313,3979.487061,4016.923096,4041.538574,16212.000000,4.000000,,,,0.000000,4.000000,4.000000,4.000000,4.000000,4.000000,,,,,,,,,,,,,,,,,,,,,,,,,
1577421884.115066,104.000000,0.000000,4010.256348,4331.282227,3981.025635,4003.076904,4034.871826,450.000000,4.000000,,,,0.000000,4.000000,4.000000,4.000000,4.000000,4.000000,,,,,,,,,,,,,,,,,,,,,,,,,
1577421884.122971,105.000000,0.000000,4002.564209,4333.333496,3987.179443,4003.589844,4024.615479,450.000000,4.000000,,,,0.000000,4.000000,4.000000,4.000000,4.000000,4.000000,,,,,,,,,,,,,,,,,,,,,,,,,
1577421884.130776,106.000000,0.000000,3988.205078,4336.410156,3990.256348,4006.666748,4016.410156,450.000000,4.000000,,,,0.000000,4.000000,4.000000,4.000000,4.000000,4.000000,,,,,,,,,,,,,,,,,,,,,,,,,
1577421884.138680,107.000000,0.000000,3973.333252,4322.563965,3989.230713,4002.051270,4005.641113,16212.000000,4.000000,,,,0.000000,4.000000,4.000000,4.000000,4.000000,4.000000,,,,,,,,,,,,,,,,,,,,,,,,,
1577421884.146485,108.000000,0.000000,3962.564209,4314.358887,3987.179443,3997.435791,3996.410156,450.000000,4.000000,,,,0.000000,4.000000,4.000000,4.000000,4.000000,4.000000,,,,,,,,,,,,,,,,,,,,,,,,,
1577421884.154390,109.000000,0.000000,3952.820557,4320.512695,3993.846191,4004.615479,3992.820557,450.000000,4.000000,,,,0.000000,4.000000,4.000000,4.000000,4.000000,4.000000,,,,,,,,,,,,,,,,,,,,,,,,,
1577421884.162194,110.000000,0.000000,3940.512939,4326.153809,3996.923096,4009.230713,3984.615479,450.000000,4.000000,,,,0.000000,4.000000,4.000000,4.000000,4.000000,4.000000,,,,,,,,,,,,,,,,,,,,,,,,,
1577421884.170099,111.000000,0.000000,3932.307617,4330.769043,3988.205078,4005.641113,3980.512939,16212.000000,4.000000,,,,0.000000,4.000000,4.000000,4.000000,4.000000,4.000000,,,,,,,,,,,,,,,,,,,,,,,,,
1577421884.177903,112.000000,0.000000,3933.846191,4337.948730,3992.307617,4010.256348,3985.128174,450.000000,4.000000,,,,0.000000,4.000000,4.000000,4.000000,4.000000,4.000000,,,,,,,,,,,,,,,,,,,,,,,,,
1577421884.185708,113.000000,0.000000,3948.205078,4355.384766,4020.000000,4032.307617,4005.641113,450.000000,4.000000,,,,0.000000,4.000000,4.000000,4.000000,4.000000,4.000000,553.371826,114.534218,18.769169,6.461537,9.284388,84.176781,30.868849,18.185045,8.652243,9.049741,69.613731,11.634379,5.636967,2.438719,4.606644,9.638213,4.645258,2.295338,2.408605,9.049645,11.626600,10.417262,2.851833,2.456967,8.734680
1577421884.193414,114.000000,0.000000,3957.948730,4374.871582,4042.564209,4048.205078,4025.128174,450.000000,4.000000,,,,0.000000,4.000000,4.000000,4.000000,4.000000,4.000000,,,,,,,,,,,,,,,,,,,,,,,,,
1577421884.201320,115.000000,0.000000,3948.205078,4370.769043,4037.948730,4042.051270,4023.589844,16212.000000,4.000000,,,,0.000000,4.000000,4.000000,4.000000,4.000000,4.000000,,,,,,,,,,,,,,,,,,,,,,,,,
1577421884.209127,116.000000,0.000000,3939.487061,4365.128418,4034.871826,4041.025635,4013.846191,450.000000,4.000000,,,,0.000000,4.000000,4.000000,4.000000,4.000000,4.000000,,,,,,,,,,,,,,,,,,,,,,,,,
1577421884.216933,117.000000,0.000000,3925.128174,4357.436035,4039.487061,4042.051270,4002.051270,450.000000,4.000000,,,,0.000000,4.000000,4.000000,4.000000,4.000000,4.000000,,,,,,,,,,,,,,,,,,,,,,,,,
1577421884.224740,118.000000,0.000000,3901.025635,4340.000000,4039.487061,4035.897461,3990.769287,450.000000,4.000000,,,,0.000000,4.000000,4.000000,4.000000,4.000000,4.000000,,,,,,,,,,,,,,,,,,,,,,,,,
1577421884.232644,119.000000,0.000000,3898.974365,4345.128418,4043.589844,4045.128174,3990.256348,16212.000000,4.000000,,,,0.000000,4.000000,4.000000,4.000000,4.000000,4.000000,,,,,,,,,,,,,,,,,,,,,,,,,
1577421884.240448,120.000000,0.000000,3894.871826,4355.384766,4043.076904,4052.820557,3987.179443,450.000000,4.000000,,,,0.000000,4.000000,4.000000,4.000000,4.000000,4.000000,,,,,,,,,,,,,,,,,,,,,,,,,
1577421884.248352,121.000000,0.000000,3879.487061,4343.589844,4036.410156,4044.102539,3981.538574,450.000000,4.000000,,,,0.000000,4.000000,4.000000,4.000000,4.000000,4.000000,,,,,,,,,,,,,,,,,,,,,,,,,
1577421884.256156,122.000000,0.000000,3870.769287,4331.794922,4029.743652,4039.487061,3977.948730,450.000000,4.000000,,,,0.000000,4.000000,4.000000,4.000000,4.000000,4.000000,,,,,,,,,,,,,,,,,,,,,,,,,
1577421884.264060,123.000000,0.000000,3859.487061,4335.897461,4022.051270,4041.538574,3976.923096,16212.000000,4.000000,,,,0.000000,4.000000,4.000000,4.000000,4.000000,4.000000,,,,,,,,,,,,,,,,,,,,,,,,,
1577421884.271965,124.000000,0.000000,3847.179443,4333.333496,4013.846191,4035.897461,3967.692383,450.000000,4.000000,,,,0.000000,4.000000,4.000000,4.000000,4.000000,4.000000,,,,,,,,,,,,,,,,,,,,,,,,,
1577421884.279770,125.000000,0.000000,3838.974365,4322.051270,4008.718018,4026.153809,3950.256348,450.000000,4.000000,,,,0.000000,4.000000,4.000000,4.000000,4.000000,4.000000,,,,,,,,,,,,,,,,,,,,,,,,,
1577421884.287575,126.000000,0.000000,3846.153809,4333.333496,4018.461426,4034.871826,3957.948730,450.000000,4.000000,,,,0.000000,4.000000,4.000000,4.000000,4.000000,4.000000,,,,,,,,,,,,,,,,,,,,,,,,,
1577421884.295479,127.000000,0.000000,3868.718018,4346.666504,4036.410156,4053.333252,3983.076904,234.000000,4.000000,,,,0.000000,4.000000,4.000000,4.000000,4.000000,4.000000,,,,,,,,,,,,,,,,,,,,,,,,,
1577421884.303384,0.000000,0.000000,3869.743652,4333.846191,4037.435791,4048.718018,3976.923096,450.000000,4.000000,,,,0.000000,4.000000,4.000000,4.000000,4.000000,4.000000,,,,,,,,,,,,,,,,,,,,,,,,,
1577421884.311189,1.000000,0.000000,3846.153809,4326.666504,4027.179443,4032.820557,3953.333252,450.000000,4.000000,,,,0.000000,4.000000,4.000000,4.000000,4.000000,4.000000,1125.448486,208.040710,29.220163,10.579324,5.482128,158.482803,52.477386,29.157261,15.009328,7.670501,57.901299,13.131266,3.718239,2.155928,2.861518,11.046995,5.317124,2.049134,1.934825,5.091494,13.381248,8.857079,1.981840,2.139945,5.086104
1577421884.319094,2.000000,0.000000,3839.487061,4336.410156,4033.846191,4038.974365,3960.000000,16233.000000,4.000000,,,,0.000000,4.000000,4.000000,4.000000,4.000000,4.000000,,,,,,,,,,,,,,,,,,,,,,,,,
1577421884.326899,3.000000,0.000000,3863.076904,4352.820313,4060.000000,4065.641113,3987.179443,450.000000,4.000000,,,,0.000000,4.000000,4.000000,4.000000,4.000000,4.000000,,,,,,,,,,,,,,,,,,,,,,,,,
1577421884.334804,4.000000,0.000000,3873.846191,4353.333496,4070.769287,4074.871826,3989.230713,16195.000000,4.000000,,,,0.000000,4.000000,4.000000,4.000000,4.000000,4.000000,,,,,,,,,,,,,,,,,,,,,,,,,
1577421884.342609,5.000000,0.000000,3860.000000,4330.769043,4052.307617,4058.461426,3974.871826,450.000000,4.000000,,,,0.000000,4.000000,4.000000,4.000000,4.000000,4.000000,,,,,,,,,,,,,,,,,,,,,,,,,
1577421884.350513,6.000000,0.000000,3851.794922,4328.205078,4038.974365,4049.743652,3972.307617,16167.000000,4.000000,,,,0.000000,4.000000,4.000000,4.000000,4.000000,4.000000,,,,,,,,,,,,,,,,,,,,,,,,,
1577421884.358318,7.000000,0.000000,3850.256348,4342.051270,4034.871826,4056.410156,3972.307617,450.000000,4.000000,,,,0.000000,4.000000,4.000000,4.000000,4.000000,4.000000,,,,,,,,,,,,,,,,,,,,,,,,,
1577421884.366222,8.000000,0.000000,3845.128174,4336.410156,4029.743652,4064.102539,3973.333252,450.000000,4.000000,,,,0.000000,4.000000,4.000000,4.000000,4.000000,4.000000,,,,,,,,,,,,,,,,,,,,,,,,,
1577421884.374027,9.000000,0.000000,3843.589844,4329.743652,4028.205078,4065.641113,3978.461426,16167.000000,4.000000,,,,0.000000,4.000000,4.000000,4.000000,4.000000,4.000000,,,,,,,,,,,,,,,,,,,,,,,,,
1577421884.381931,10.000000,0.000000,3841.025635,4337.436035,4023.076904,4063.076904,3981.025635,450.000000,4.000000,,,,0.000000,4.000000,4.000000,4.000000,4.000000,4.000000,,,,,,,,,,,,,,,,,,,,,,,,,
1577421884.389736,11.000000,0.000000,3836.923096,4335.384766,4017.948730,4063.076904,3979.487061,16225.000000,4.000000,,,,0.000000,4.000000,4.000000,4.000000,4.000000,4.000000,,,,,,,,,,,,,,,,,,,,,,,,,
1577421884.397640,12.000000,0.000000,3840.000000,4321.538574,4020.512939,4065.641113,3975.897461,450.000000,4.000000,,,,0.000000,4.000000,4.000000,4.000000,4.000000,4.000000,,,,,,,,,,,,,,,,,,,,,,,,,
1577421884.405444,13.000000,0.000000,3849.230713,4321.538574,4028.718018,4069.743652,3983.589844,450.000000,4.000000,,,,0.000000,4.000000,4.000000,4.000000,4.000000,4.000000,,,,,,,,,,,,,,,,,,,,,,,,,
1577421884.413348,14.000000,0.000000,3852.307617,4333.846191,4032.307617,4074.871826,3994.358887,450.000000,4.000000,,,,0.000000,4.000000,4.000000,4.000000,4.000000,4.000000,,,,,,,,,,,,,,,,,,,,,,,,,
1577421884.421152,15.000000,0.000000,3838.974365,4328.717773,4023.076904,4066.666748,3983.076904,16225.000000,4.000000,,,,0.000000,4.000000,4.000000,4.000000,4.000000,4.000000,,,,,,,,,,,,,,,,,,,,,,,,,
1577421884.429056,16.000000,0.000000,3826.153809,4314.358887,4014.358887,4056.410156,3968.205078,0.000000,4.000000,,,,0.000000,4.000000,4.000000,4.000000,4.000000,4.000000,,,,,,,,,,,,,,,,,,,,,,,,,
1577421884.436861,17.000000,0.000000,3829.743652,4321.025879,4015.384521,4063.589844,3970.256348,0.000000,4.000000,,,,0.000000,4.000000,4.000000,4.000000,4.000000,4.000000,1821.643066,310.948761,41.131569,16.233156,3.242801,245.170685,78.453636,42.366295,22.136124,7.622541,47.615704,16.127573,2.549438,1.897249,1.779484,12.603168,6.595837,1.873797,1.597254,2.604152,16.949070,7.690971,1.384852,1.894286,2.821593
1577421884.444765,18.000000,0.000000,3836.923096,4335.384766,4018.461426,4078.461426,3984.102539,0.000000,4.000000,,,,0.000000,4.000000,4.000000,4.000000,4.000000,4.000000,,,,,,,,,,,,,,,,,,,,,,,,,
1577421884.452569,19.000000,0.000000,3836.410156,4329.230957,4012.307617,4074.358887,3988.718018,0.000000,4.000000,,,,0.000000,4.000000,4.000000,4.000000,4.000000,4.000000,,,,,,,,,,,,,,,,,,,,,,,,,
1577421884.460373,20.000000,0.000000,3834.358887,4312.820313,3996.410156,4048.718018,3975.384521,0.000000,4.000000,,,,0.000000,4.000000,4.000000,4.000000,4.000000,4.000000,,,,,,,,,,,,,,,,,,,,,,,,,
1577421884.468177,21.000000,0.000000,3841.538574,4312.307617,3996.923096,4045.128174,3980.512939,0.000000,4.000000,,,,0.000000,4.000000,4.000000,4.000000,4.000000,4.000000,,,,,,,,,,,,,,,,,,,,,,,,,
1577421884.475881,22.000000,0.000000,3848.205078,4326.153809,4013.333252,4065.641113,3996.923096,0.000000,4.000000,,,,0.000000,4.000000,4.000000,4.000000,4.000000,4.000000,,,,,,,,,,,,,,,,,,,,,,,,,
1577421884.483786,23.000000,0.000000,3840.512939,4328.717773,4012.307617,4067.179443,3992.820557,0.000000,4.000000,,,,0.000000,4.000000,4.000000,4.000000,4.000000,4.000000,,,,,,,,,,,,,,,,,,,,,,,,,
1577421884.491591,24.000000,0.000000,3837.948730,4322.563965,3999.487061,4060.000000,3982.564209,0.000000,4.000000,,,,0.000000,4.000000,4.000000,4.000000,4.000000,4.000000,,,,,,,,,,,,,,,,,,,,,,,,,
1577421884.499496,25.000000,0.000000,3837.948730,4312.820313,3984.615479,4055.384521,3974.871826,0.000000,4.000000,,,,0.000000,4.000000,4.000000,4.000000,4.000000,4.000000,,,,,,,,,,,,,,,,,,,,,,,,,
1577421884.507300,26.000000,0.000000,3826.666748,4301.025879,3978.461426,4055.897461,3973.333252,0.000000,4.000000,,,,0.000000,4.000000,4.000000,4.000000,4.000000,4.000000,,,,,,,,,,,,,,,,,,,,,,,,,
1577421884.515205,27.000000,0.000000,3827.692383,4303.589844,3987.179443,4069.743652,3981.538574,0.000000,4.000000,,,,0.000000,4.000000,4.000000,4.000000,4.000000,4.000000,,,,,,,,,,,,,,,,,,,,,,,,,
1577421884.523010,28.000000,0.000000,3850.256348,4320.000000,3996.410156,4083.076904,3995.897461,0.000000,4.000000,,,,0.000000,4.000000,4.000000,4.000000,4.000000,4.000000,,,,,,,,,,,,,,,,,,,,,,,,,
1577421884.530915,29.000000,0.000000,3864.102539,4323.589844,4003.076904,4088.205078,4007.692383,0.000000,4.000000,,,,0.000000,4.000000,4.000000,4.000000,4.000000,4.000000,,,,,,,,,,,,,,,,,,,,,,,,,
1577421884.538719,30.000000,0.000000,3855.384521,4310.769043,4011.794922,4086.666748,4004.102539,0.000000,4.000000,,,,0.000000,4.000000,4.000000,4.000000,4.000000,4.000000,,,,,,,,,,,,,,,,,,,,,,,,,
1577421884.546624,31.000000,0.000000,3848.718018,4304.102539,4010.256348,4078.461426,3994.358887,0.000000,4.000000,,,,0.000000,4.000000,4.000000,4.000000,4.000000,4.000000,,,,,,,,,,,,,,,,,,,,,,,,,
1577421884.554428,32.000000,0.000000,3852.307617,4308.717773,3993.846191,4071.794922,3992.307617,0.000000,4.000000,,,,0.000000,4.000000,4.000000,4.000000,4.000000,4.000000,,,,,,,,,,,,,,,,,,,,,,,,,
1577421884.562233,33.000000,0.000000,3850.769287,4300.512695,3984.102539,4073.333252,3992.307617,0.000000,4.000000,,,,0.000000,4.000000,4.000000,4.000000,4.000000,4.000000,2452.816162,392.331116,50.526684,21.956165,2.475206,319.604889,101.088242,53.482044,27.853846,8.279944,37.420250,19.278545,2.025867,1.687538,1.350411,13.499578,8.011566,1.701347,1.423502,1.573832,22.165661,7.046597,1.016222,1.764924,1.913854
1577421884.569937,34.000000,0.000000,3854.358887,4295.897461,3989.743652,4077.948730,4003.589844,0.000000,4.000000,,,,0.000000,4.000000,4.000000,4.000000,4.000000,4.000000,,,,,,,,,,,,,,,,,,,,,,,,,
1577421884.577841,35.000000,0.000000,3865.128174,4309.743652,3991.794922,4074.358887,4010.769287,0.000000,4.000000,,,,0.000000,4.000000,4.000000,4.000000,4.000000,4.000000,,,,,,,,,,,,,,,,,,,,,,,,,
1577421884.585645,36.000000,0.000000,3865.128174,4315.897461,3984.615479,4064.615479,4005.128174,0.000000,4.000000,,,,0.000000,4.000000,4.000000,4.000000,4.000000,4.000000,,,,,,,,,,,,,,,,,,,,,,,,,
1577421884.593550,37.000000,0.000000,3870.256348,4312.307617,3983.076904,4070.256348,4012.820557,0.000000,4.000000,,,,0.000000,4.000000,4.000000,4.000000,4.000000,4.000000,,,,,,,,,,,,,,,,,,,,,,,,,
1577421884.601354,38.000000,0.000000,3887.179443,4309.743652,3980.512939,4078.461426,4018.974365,0.000000,4.000000,,,,0.000000,4.000000,4.000000,4.000000,4.000000,4.000000,,,,,,,,,,,,,,,,,,,,,,,,,
1577421884.609258,39.000000,0.000000,3894.358887,4298.974121,3965.128174,4071.794922,4012.307617,0.000000,4.000000,,,,0.000000,4.000000,4.000000,4.000000,4.000000,4.000000,,,,,,,,,,,,,,,,,,,,,,,,,
1577421884.617062,40.000000,0.000000,3904.102539,4276.410156,3949.230713,4067.179443,4014.358887,0.000000,4.000000,,,,0.000000,4.000000,4.000000,4.000000,4.000000,4.000000,,,,,,,,,,,,,,,,,,,,,,,,,
1577421884.624866,41.000000,0.000000,3931.794922,4266.666504,3934.871826,4067.692383,4028.718018,0.000000,4.000000,,,,0.000000,4.000000,4.000000,4.000000,4.000000,4.000000,,,,,,,,,,,,,,,,,,,,,,,,,
1577421884.632771,42.000000,0.000000,3963.589844,4274.871582,3929.743652,4076.410156,4049.743652,0.000000,4.000000,,,,0.000000,4.000000,4.000000,4.000000,4.000000,4.000000,,,,,,,,,,,,,,,,,,,,,,,,,
1577421884.640576,43.000000,0.000000,3985.128174,4264.615234,3933.333252,4082.051270,4064.102539,0.000000,4.000000,,,,0.000000,4.000000,4.000000,4.000000,4.000000,4.000000,,,,,,,,,,,,,,,,,,,,,,,,,
1577421884.648482,44.000000,0.000000,4007.179443,4245.128418,3942.051270,4082.051270,4075.897461,0.000000,4.000000,,,,0.000000,4.000000,4.000000,4.000000,4.000000,4.000000,,,,,,,,,,,,,,,,,,,,,,,,,
1577421884.656287,45.000000,0.000000,4030.769287,4249.230957,3954.871826,4087.179443,4084.615479,0.000000,4.000000,,,,0.000000,4.000000,4.000000,4.000000,4.000000,4.000000,,,,,,,,,,,,,,,,,,,,,,,,,
1577421884.664192,46.000000,0.000000,4041.538574,4256.922852,3960.512939,4085.641113,4089.230713,0.000000,4.000000,,,,0.000000,4.000000,4.000000,4.000000,4.000000,4.000000,,,,,,,,,,,,,,,,,,,,,,,,,
1577421884.671998,47.000000,0.000000,4051.281982,4253.333496,3972.820557,4083.589844,4098.461426,0.000000,4.000000,,,,0.000000,4.000000,4.000000,4.000000,4.000000,4.000000,,,,,,,,,,,,,,,,,,,,,,,,,
1577421884.679903,48.000000,0.000000,4070.256348,4251.794922,3985.641113,4090.256348,4109.230957,0.000000,4.000000,,,,0.000000,4.000000,4.000000,4.000000,4.000000,4.000000,,,,,,,,,,,,,,,,,,,,,,,,,
1577421884.687708,49.000000,0.000000,4106.666504,4258.974121,3990.769287,4105.641113,4135.384766,0.000000,4.000000,,,,0.000000,4.000000,4.000000,4.000000,4.000000,4.000000,2795.392578,424.372009,53.767368,25.860554,2.495265,355.605591,112.280159,58.291321,30.163122,8.666592,27.233664,20.774412,1.801257,1.519188,1.296503,13.498570,8.931793,1.490732,1.354350,1.409776,26.950161,6.817158,0.795910,1.718332,1.791106
1577421884.695612,50.000000,0.000000,4153.333496,4267.692383,4001.538574,4125.641113,4172.307617,0.000000,4.000000,,,,0.000000,4.000000,4.000000,4.000000,4.000000,4.000000,,,,,,,,,,,,,,,,,,,,,,,,,
1577421884.703417,51.000000,0.000000,4178.974121,4273.846191,4000.000000,4131.794922,4190.256348,0.000000,4.000000,,,,0.000000,4.000000,4.000000,4.000000,4.000000,4.000000,,,,,,,,,,,,,,,,,,,,,,,,,
1577421884.711222,52.000000,0.000000,4187.179688,4281.025879,3975.384521,4122.563965,4195.897461,0.000000,4.000000,,,,0.000000,4.000000,4.000000,4.000000,4.000000,4.000000,,,,,,,,,,,,,,,,,,,,,,,,,
1577421884.718926,53.000000,0.000000,4201.538574,4286.153809,3964.102539,4118.974121,4203.589844,0.000000,4.000000,,,,0.000000,4.000000,4.000000,4.000000,4.000000,4.000000,,,,,,,,,,,,,,,,,,,,,,,,,
1577421884.726831,54.000000,0.000000,4225.128418,4281.025879,3972.820557,4126.666504,4209.743652,0.000000,4.000000,,,,0.000000,4.000000,4.000000,4.000000,4.000000,4.000000,,,,,,,,,,,,,,,,,,,,,,,,,
1577421884.734635,55.000000,0.000000,4240.512695,4278.974121,3962.564209,4122.051270,4200.512695,0.000000,4.000000,,,,0.000000,4.000000,4.000000,4.000000,4.000000,4.000000,,,,,,,,,,,,,,,,,,,,,,,,,
1577421884.742540,56.000000,0.000000,4247.179688,4291.794922,3945.641113,4118.974121,4202.051270,0.000000,4.000000,,,,0.000000,4.000000,4.000000,4.000000,4.000000,4.000000,,,,,,,,,,,,,,,,,,,,,,,,,
1577421884.750344,57.000000,0.000000,4269.230957,4295.384766,3953.846191,4137.436035,4228.717773,0.000000,4.000000,,,,0.000000,4.000000,4.000000,4.000000,4.000000,4.000000,,,,,,,,,,,,,,,,,,,,,,,,,
1577421884.758249,58.000000,0.000000,4283.589844,4274.871582,3954.871826,4138.974121,4228.717773,0.000000,4.000000,,,,0.000000,4.000000,4.000000,4.000000,4.000000,4.000000,,,,,,,,,,,,,,,,,,,,,,,,,
1577421884.766053,59.000000,0.000000,4273.333496,4257.948730,3945.641113,4128.205078,4215.384766,0.000000,4.000000,,,,0.000000,4.000000,4.000000,4.000000,4.000000,4.000000,,,,,,,,,,,,,,,,,,,,,,,,,
1577421884.773958,60.000000,0.000000,4278.974121,4253.333496,3954.871826,4137.436035,4241.538574,0.000000,4.000000,,,,0.000000,4.000000,4.000000,4.000000,4.000000,4.000000,,,,,,,,,,,,,,,,,,,,,,,,,
1577421884.781762,61.000000,0.000000,4294.871582,4236.922852,3966.666748,4144.615234,4260.512695,0.000000,4.000000,,,,0.000000,4.000000,4.000000,4.000000,4.000000,4.000000,,,,,,,,,,,,,,,,,,,,,,,,,
1577421884.789666,62.000000,0.000000,4297.436035,4220.512695,3968.205078,4150.769043,4250.769043,0.000000,4.000000,,,,0.000000,4.000000,4.000000,4.000000,4.000000,4.000000,,,,,,,,,,,,,,,,,,,,,,,,,
1577421884.797471,63.000000,0.000000,4298.461426,4210.769043,3971.281982,4172.307617,4249.743652,0.000000,4.000000,,,,0.000000,4.000000,4.000000,4.000000,4.000000,4.000000,,,,,,,,,,,,,,,,,,,,,,,,,
1577421884.805375,64.000000,0.000000,4298.974121,4188.717773,3969.230713,4184.615234,4254.871582,450.000000,4.000000,,,,0.000000,4.000000,4.000000,4.000000,4.000000,4.000000,,,,,,,,,,,,,,,,,,,,,,,,,
1577421884.813180,65.000000,0.000000,4298.974121,4168.205078,3968.718018,4183.589844,4257.948730,450.000000,4.000000,,,,0.000000,4.000000,4.000000,4.000000,4.000000,4.000000,2739.812988,395.683167,49.599949,26.524372,2.587557,340.948883,107.560822,54.744884,28.188828,8.104353,18.759752,19.879860,1.578901,1.383052,1.310152,12.396532,8.937407,1.245631,1.304494,1.460647,30.116268,6.779969,0.683116,1.692572,1.829019
1577421884.820884,66.000000,0.000000,4297.436035,4163.589844,3982.564209,4183.077148,4248.205078,16231.000000,4.000000,,,,0.000000,4.000000,4.000000,4.000000,4.000000,4.000000,,,,,,,,,,,,,,,,,,,,,,,,,
1577421884.828688,67.000000,0.000000,4304.102539,4172.307617,4005.128174,4193.846191,4245.641113,450.000000,4.000000,,,,0.000000,4.000000,4.000000,4.000000,4.000000,4.000000,,,,,,,,,,,,,,,,,,,,,,,,,
1577421884.836392,68.000000,0.000000,4318.974121,4186.666504,4026.666748,4205.128418,4261.538574,16201.000000,4.000000,,,,0.000000,4.000000,4.000000,4.000000,4.000000,4.000000,,,,,,,,,,,,,,,,,,,,,,,,,
1577421884.844196,69.000000,0.000000,4313.333496,4192.820313,4037.948730,4189.743652,4255.384766,450.000000,4.000000,,,,0.000000,4.000000,4.000000,4.000000,4.000000,4.000000,,,,,,,,,,,,,,,,,,,,,,,,,
1577421884.851900,70.000000,0.000000,4304.615234,4213.846191,4057.948730,4177.436035,4238.461426,16172.000000,4.000000,,,,0.000000,4.000000,4.000000,4.000000,4.000000,4.000000,,,,,,,,,,,,,,,,,,,,,,,,,
1577421884.859704,71.000000,0.000000,4314.358887,4245.641113,4082.051270,4188.717773,4249.230957,450.000000,4.000000,,,,0.000000,4.000000,4.000000,4.000000,4.000000,4.000000,,,,,,,,,,,,,,,,,,,,,,,,,
1577421884.867408,72.000000,0.000000,4327.692383,4260.000000,4099.487305,4189.230957,4273.333496,450.000000,4.000000,,,,0.000000,4.000000,4.000000,4.000000,4.000000,4.000000,,,,,,,,,,,,,,,,,,,,,,,,,
1577421884.875212,73.000000,0.000000,4341.538574,4268.717773,4139.487305,4190.769043,4287.179688,16163.000000,4.000000,,,,0.000000,4.000000,4.000000,4.000000,4.000000,4.000000,,,,,,,,,,,,,,,,,,,,,,,,,
1577421884.882916,74.000000,0.000000,4336.922852,4266.666504,4167.692383,4182.051270,4278.974121,450.000000,4.000000,,,,0.000000,4.000000,4.000000,4.000000,4.000000,4.000000,,,,,,,,,,,,,,,,,,,,,,,,,
1577421884.890821,75.000000,0.000000,4311.282227,4266.666504,4160.000000,4142.563965,4253.846191,16209.000000,4.000000,,,,0.000000,4.000000,4.000000,4.000000,4.000000,4.000000,,,,,,,,,,,,,,,,,,,,,,,,,
1577421884.898626,76.000000,0.000000,4298.974121,4288.205078,4168.205078,4116.922852,4244.615234,450.000000,4.000000,,,,0.000000,4.000000,4.000000,4.000000,4.000000,4.000000,,,,,,,,,,,,,,,,,,,,,,,,,
1577421884.906530,77.000000,0.000000,4306.666504,4303.589844,4197.948730,4127.179688,4263.077148,450.000000,4.000000,,,,0.000000,4.000000,4.000000,4.000000,4.000000,4.000000,,,,,,,,,,,,,,,,,,,,,,,,,
1577421884.914335,78.000000,0.000000,4311.282227,4303.589844,4206.153809,4131.282227,4270.769043,450.000000,4.000000,,,,0.000000,4.000000,4.000000,4.000000,4.000000,4.000000,,,,,,,,,,,,,,,,,,,,,,,,,
1577421884.922239,79.000000,0.000000,4299.487305,4303.077148,4196.410156,4118.974121,4263.077148,16209.000000,4.000000,,,,0.000000,4.000000,4.000000,4.000000,4.000000,4.000000,,,,,,,,,,,,,,,,,,,,,,,,,
1577421884.930044,80.000000,0.000000,4281.538574,4295.384766,4192.820313,4117.436035,4261.025879,450.000000,4.000000,,,,0.000000,4.000000,4.000000,4.000000,4.000000,4.000000,,,,,,,,,,,,,,,,,,,,,,,,,
1577421884.937949,81.000000,0.000000,4273.333496,4285.641113,4190.256348,4124.615234,4254.871582,450.000000,4.000000,,,,0.000000,4.000000,4.000000,4.000000,4.000000,4.000000,2300.811523,316.616821,39.477097,23.638353,2.467965,280.572113,88.455650,43.968842,22.610718,6.609695,12.594751,17.054703,1.328851,1.269487,1.256321,10.485846,8.021137,0.984543,1.214817,1.449992,30.093456,6.702967,0.686056,1.633973,1.763930
1577421884.945753,82.000000,0.000000,4291.794922,4296.410156,4193.333496,4145.641113,4261.538574,450.000000,4.000000,,,,0.000000,4.000000,4.000000,4.000000,4.000000,4.000000,,,,,,,,,,,,,,,,,,,,,,,,,
1577421884.953658,83.000000,0.000000,4312.820313,4311.282227,4192.307617,4176.922852,4278.461426,16209.000000,4.000000,,,,0.000000,4.000000,4.000000,4.000000,4.000000,4.000000,,,,,,,,,,,,,,,,,,,,,,,,,
1577421884.961462,84.000000,0.000000,4299.487305,4304.102539,4167.692383,4177.948730,4270.256348,450.000000,4.000000,,,,0.000000,4.000000,4.000000,4.000000,4.000000,4.000000,,,,,,,,,,,,,,,,,,,,,,,,,
1577421884.969367,85.000000,0.000000,4280.512695,4293.846191,4146.666504,4160.000000,4257.948730,450.000000,4.000000,,,,0.000000,4.000000,4.000000,4.000000,4.000000,4.000000,,,,,,,,,,,,,,,,,,,,,,,,,
1577421884.977171,86.000000,0.000000,4284.102539,4298.461426,4142.563965,4156.922852,4256.922852,450.000000,4.000000,,,,0.000000,4.000000,4.000000,4.000000,4.000000,4.000000,,,,,,,,,,,,,,,,,,,,,,,,,
1577421884.985075,87.000000,0.000000,4292.307617,4300.512695,4132.820313,4155.897461,4257.436035,16209.000000,4.000000,,,,0.000000,4.000000,4.000000,4.000000,4.000000,4.000000,,,,,,,,,,,,,,,,,,,,,,,,,
1577421884.992880,88.000000,0.000000,4300.512695,4297.436035,4130.256348,4154.871582,4270.256348,450.000000,4.000000,,,,0.000000,4.000000,4.000000,4.000000,4.000000,4.000000,,,,,,,,,,,,,,,,,,,,,,,,,
1577421885.000584,89.000000,0.000000,4308.205078,4307.179688,4143.589844,4158.461426,4283.077148,450.000000,4.000000,,,,0.000000,4.000000,4.000000,4.000000,4.000000,4.000000,,,,,,,,,,,,,,,,,,,,,,,,,
1577421885.008388,90.000000,0.000000,4303.589844,4313.333496,4147.179688,4154.871582,4274.871582,450.000000,4.000000,,,,0.000000,4.000000,4.000000,4.000000,4.000000,4.000000,,,,,,,,,,,,,,,,,,,,,,,,,
1577421885.016092,91.000000,0.000000,4302.051270,4302.051270,4141.538574,4153.333496,4270.769043,16209.000000,4.000000,,,,0.000000,4.000000,4.000000,4.000000,4.000000,4.000000,,,,,,,,,,,,,,,,,,,,,,,,,
1577421885.023897,92.000000,0.000000,4318.974121,4297.436035,4142.563965,4163.589844,4289.743652,450.000000,4.000000,,,,0.000000,4.000000,4.000000,4.000000,4.000000,4.000000,,,,,,,,,,,,,,,,,,,,,,,,,
1577421885.031601,93.000000,0.000000,4336.922852,4313.333496,4153.846191,4187.179688,4312.307617,450.000000,4.000000,,,,0.000000,4.000000,4.000000,4.000000,4.000000,4.000000,,,,,,,,,,,,,,,,,,,,,,,,,
1577421885.039404,94.000000,0.000000,4332.307617,4316.922852,4151.282227,4192.820313,4307.692383,450.000000,4.000000,,,,0.000000,4.000000,4.000000,4.000000,4.000000,4.000000,,,,,,,,,,,,,,,,,,,,,,,,,
1577421885.047108,95.000000,0.000000,4314.358887,4309.230957,4131.794922,4170.256348,4285.128418,16209.000000,4.000000,,,,0.000000,4.000000,4.000000,4.000000,4.000000,4.000000,,,,,,,,,,,,,,,,,,,,,,,,,
1577421885.055013,96.000000,0.000000,4314.358887,4310.769043,4126.666504,4165.128418,4284.615234,450.000000,4.000000,,,,0.000000,4.000000,4.000000,4.000000,4.000000,4.000000,,,,,,,,,,,,,,,,,,,,,,,,,
1577421885.062818,97.000000,0.000000,4329.743652,4300.512695,4133.333496,4182.051270,4302.051270,450.000000,4.000000,,,,0.000000,4.000000,4.000000,4.000000,4.000000,4.000000,1649.300293,213.685425,26.957243,18.191257,2.130827,196.678009,61.689342,29.707294,15.347417,4.664546,9.032645,13.436548,1.121843,1.170235,1.122488,8.323372,6.519151,0.713377,1.081515,1.345822,27.520359,6.323550,0.808625,1.525346,1.574992
1577421885.070723,98.000000,0.000000,4328.205078,4292.307617,4129.743652,4182.563965,4306.153809,450.000000,4.000000,,,,0.000000,4.000000,4.000000,4.000000,4.000000,4.000000,,,,,,,,,,,,,,,,,,,,,,,,,
1577421885.078528,99.000000,0.000000,4320.000000,4305.128418,4117.436035,4166.666504,4295.384766,16209.000000,4.000000,,,,0.000000,4.000000,4.000000,4.000000,4.000000,4.000000,,,,,,,,,,,,,,,,,,,,,,,,,
1577421885.086433,100.000000,0.000000,4318.461426,4301.538574,4097.436035,4156.922852,4288.205078,450.000000,4.000000,,,,0.000000,4.000000,4.000000,4.000000,4.000000,4.000000,,,,,,,,,,,,,,,,,,,,,,,,,
1577421885.094237,101.000000,0.000000,4311.282227,4278.461426,4074.871826,4155.384766,4282.563965,450.000000,4.000000,,,,0.000000,4.000000,4.000000,4.000000,4.000000,4.000000,,,,,,,,,,,,,,,,,,,,,,,,,
1577421885.102142,102.000000,0.000000,4302.563965,4268.205078,4068.205078,4153.333496,4278.974121,450.000000,4.000000,,,,0.000000,4.000000,4.000000,4.000000,4.000000,4.000000,,,,,,,,,,,,,,,,,,,,,,,,,
1577421885.109947,103.000000,0.000000,4310.256348,4276.410156,4087.692383,4169.230957,4300.512695,16209.000000,4.000000,,,,0.000000,4.000000,4.000000,4.000000,4.000000,4.000000,,,,,,,,,,,,,,,,,,,,,,,,,
1577421885.117851,104.000000,0.000000,4320.512695,4289.743652,4120.512695,4187.692383,4312.820313,450.000000,4.000000,,,,0.000000,4.000000,4.000000,4.000000,4.000000,4.000000,,,,,,,,,,,,,,,,,,,,,,,,,
1577421885.125656,105.000000,0.000000,4304.615234,4281.025879,4141.025879,4177.948730,4288.205078,450.000000,4.000000,,,,0.000000,4.000000,4.000000,4.000000,4.000000,4.000000,,,,,,,,,,,,,,,,,,,,,,,,,
1577421885.133560,106.000000,0.000000,4276.922852,4264.102539,4148.205078,4158.461426,4262.563965,450.000000,4.000000,,,,0.000000,4.000000,4.000000,4.000000,4.000000,4.000000,,,,,,,,,,,,,,,,,,,,,,,,,
1577421885.141365,107.000000,0.000000,4243.589844,4263.077148,4150.256348,4143.077148,4231.794922,16209.000000,4.000000,,,,0.000000,4.000000,4.000000,4.000000,4.000000,4.000000,,,,,,,,,,,,,,,,,,,,,,,,,
1577421885.149269,108.000000,0.000000,4222.051270,4266.153809,4164.615234,4141.538574,4209.743652,450.000000,4.000000,,,,0.000000,4.000000,4.000000,4.000000,4.000000,4.000000,,,,,,,,,,,,,,,,,,,,,,,,,
1577421885.157074,109.000000,0.000000,4224.615234,4264.615234,4185.641113,4155.897461,4214.871582,450.000000,4.000000,,,,0.000000,4.000000,4.000000,4.000000,4.000000,4.000000,,,,,,,,,,,,,,,,,,,,,,,,,
1577421885.164978,110.000000,0.000000,4217.948730,4270.256348,4186.666504,4160.000000,4213.333496,450.000000,4.000000,,,,0.000000,4.000000,4.000000,4.000000,4.000000,4.000000,,,,,,,,,,,,,,,,,,,,,,,,,
1577421885.172782,111.000000,0.000000,4214.358887,4292.307617,4184.102539,4157.436035,4216.922852,16209.000000,4.000000,,,,0.000000,4.000000,4.000000,4.000000,4.000000,4.000000,,,,,,,,,,,,,,,,,,,,,,,,,
1577421885.180486,112.000000,0.000000,4225.641113,4310.256348,4185.128418,4155.897461,4226.666504,450.000000,4.000000,,,,0.000000,4.000000,4.000000,4.000000,4.000000,4.000000,,,,,,,,,,,,,,,,,,,,,,,,,
1577421885.188291,113.000000,0.000000,4232.307617,4310.769043,4173.333496,4145.641113,4224.102539,450.000000,4.000000,,,,0.000000,4.000000,4.000000,4.000000,4.000000,4.000000,976.980896,117.691124,15.565157,11.950326,1.660281,116.765076,35.641697,16.360682,8.591655,2.839258,8.412325,10.214375,0.979434,1.081249,0.935605,6.701953,4.920778,0.479138,0.941902,1.169669,22.304117,5.535915,1.020140,1.398163,1.306187
1577421885.195995,114.000000,0.000000,4249.743652,4308.717773,4167.692383,4149.230957,4235.384766,450.000000,4.000000,,,,0.000000,4.000000,4.000000,4.000000,4.000000,4.000000,,,,,,,,,,,,,,,,,,,,,,,,,
1577421885.203900,115.000000,0.000000,4273.846191,4320.000000,4176.410156,4168.205078,4263.589844,16209.000000,4.000000,,,,0.000000,4.000000,4.000000,4.000000,4.000000,4.000000,,,,,,,,,,,,,,,,,,,,,,,,,
1577421885.211705,116.000000,0.000000,4274.358887,4335.384766,4177.436035,4177.436035,4273.846191,450.000000,4.000000,,,,0.000000,4.000000,4.000000,4.000000,4.000000,4.000000,,,,,,,,,,,,,,,,,,,,,,,,,
1577421885.219611,117.000000,0.000000,4263.077148,4330.769043,4169.743652,4175.897461,4263.589844,450.000000,4.000000,,,,0.000000,4.000000,4.000000,4.000000,4.000000,4.000000,,,,,,,,,,,,,,,,,,,,,,,,,
1577421885.227416,118.000000,0.000000,4254.358887,4322.051270,4165.641113,4173.846191,4250.256348,450.000000,4.000000,,,,0.000000,4.000000,4.000000,4.000000,4.000000,4.000000,,,,,,,,,,,,,,,,,,,,,,,,,
1577421885.235221,119.000000,0.000000,4244.615234,4326.153809,4157.436035,4171.282227,4235.384766,16209.000000,4.000000,,,,0.000000,4.000000,4.000000,4.000000,4.000000,4.000000,,,,,,,,,,,,,,,,,,,,,,,,,
1577421885.242925,120.000000,0.000000,4229.230957,4313.333496,4127.692383,4164.615234,4213.846191,450.000000,4.000000,,,,0.000000,4.000000,4.000000,4.000000,4.000000,4.000000,,,,,,,,,,,,,,,,,,,,,,,,,
1577421885.250729,121.000000,0.000000,4203.077148,4285.128418,4084.102539,4150.256348,4194.871582,450.000000,4.000000,,,,0.000000,4.000000,4.000000,4.000000,4.000000,4.000000,,,,,,,,,,,,,,,,,,,,,,,,,
1577421885.258433,122.000000,0.000000,4184.615234,4283.589844,4062.051270,4141.025879,4177.948730,450.000000,4.000000,,,,0.000000,4.000000,4.000000,4.000000,4.000000,4.000000,,,,,,,,,,,,,,,,,,,,,,,,,
1577421885.266237,123.000000,0.000000,4187.692383,4294.358887,4059.487061,4140.000000,4167.179688,16209.000000,4.000000,,,,0.000000,4.000000,4.000000,4.000000,4.000000,4.000000,,,,,,,,,,,,,,,,,,,,,,,,,
1577421885.273941,124.000000,0.000000,4187.179688,4283.589844,4054.358887,4140.512695,4164.102539,450.000000,4.000000,,,,0.000000,4.000000,4.000000,4.000000,4.000000,4.000000,,,,,,,,,,,,,,,,,,,,,,,,,
1577421885.281745,125.000000,0.000000,4174.871582,4275.897461,4059.487061,4145.128418,4163.077148,450.000000,4.000000,,,,0.000000,4.000000,4.000000,4.000000,4.000000,4.000000,,,,,,,,,,,,,,,,,,,,,,,,,
1577421885.289449,126.000000,0.000000,4182.051270,4293.333496,4088.718018,4153.846191,4180.512695,450.000000,4.000000,,,,0.000000,4.000000,4.000000,4.000000,4.000000,4.000000,,,,,,,,,,,,,,,,,,,,,,,,,
1577421885.297353,127.000000,0.000000,4211.282227,4312.820313,4129.743652,4164.615234,4212.307617,234.000000,4.000000,,,,0.000000,4.000000,4.000000,4.000000,4.000000,4.000000,,,,,,,,,,,,,,,,,,,,,,,,,
1577421885.305158,0.000000,0.000000,4222.051270,4313.846191,4160.000000,4173.333496,4225.128418,450.000000,4.000000,,,,0.000000,4.000000,4.000000,4.000000,4.000000,4.000000,,,,,,,,,,,,,,,,,,,,,,,,,
1577421885.312962,1.000000,0.000000,4225.641113,4313.333496,4189.230957,4178.974121,4227.179688,450.000000,4.000000,,,,0.000000,4.000000,4.000000,4.000000,4.000000,4.000000,462.826019,50.265137,7.670165,6.657253,1.183568,60.946629,16.580545,7.014475,3.869536,1.536260,11.176356,8.221888,0.913342,1.006289,0.742701,6.268044,3.706957,0.391362,0.847435,0.974171,16.672201,4.522912,1.305923,1.307147,1.033420
1577421885.320666,2.000000,0.000000,4225.128418,4306.153809,4215.897461,4172.307617,4225.128418,16218.000000,4.000000,,,,0.000000,4.000000,4.000000,4.000000,4.000000,4.000000,,,,,,,,,,,,,,,,,,,,,,,,,
1577421885.328570,3.000000,0.000000,4206.666504,4282.051270,4224.102539,4162.563965,4213.846191,450.000000,4.000000,,,,0.000000,4.000000,4.000000,4.000000,4.000000,4.000000,,,,,,,,,,,,,,,,,,,,,,,,,
1577421885.336375,4.000000,0.000000,4214.871582,4286.666504,4249.743652,4182.051270,4217.948730,16194.000000,4.000000,,,,0.000000,4.000000,4.000000,4.000000,4.000000,4.000000,,,,,,,,,,,,,,,,,,,,,,,,,
1577421885.344279,5.000000,0.000000,4230.769043,4296.922852,4276.922852,4199.487305,4229.743652,450.000000,4.000000,,,,0.000000,4.000000,4.000000,4.000000,4.000000,4.000000,,,,,,,,,,,,,,,,,,,,,,,,,
1577421885.352084,6.000000,0.000000,4217.948730,4268.205078,4274.358887,4190.769043,4226.153809,16175.000000,4.000000,,,,0.000000,4.000000,4.000000,4.000000,4.000000,4.000000,,,,,,,,,,,,,,,,,,,,,,,,,
1577421885.359988,7.000000,0.000000,4215.384766,4245.128418,4271.282227,4185.641113,4214.358887,450.000000,4.000000,,,,0.000000,4.000000,4.000000,4.000000,4.000000,4.000000,,,,,,,,,,,,,,,,,,,,,,,,,
1577421885.367792,8.000000,0.000000,4227.692383,4248.717773,4271.794922,4186.153809,4203.077148,450.000000,4.000000,,,,0.000000,4.000000,4.000000,4.000000,4.000000,4.000000,,,,,,,,,,,,,,,,,,,,,,,,,
1577421885.375497,9.000000,0.000000,4215.384766,4230.256348,4256.410156,4176.922852,4192.820313,16156.000000,4.000000,,,,0.000000,4.000000,4.000000,4.000000,4.000000,4.000000,,,,,,,,,,,,,,,,,,,,,,,,,
1577421885.383301,10.000000,0.000000,4192.307617,4188.717773,4236.922852,4165.641113,4190.256348,450.000000,4.000000,,,,0.000000,4.000000,4.000000,4.000000,4.000000,4.000000,,,,,,,,,,,,,,,,,,,,,,,,,
1577421885.391005,11.000000,0.000000,4200.512695,4183.077148,4228.205078,4168.205078,4199.487305,16220.000000,4.000000,,,,0.000000,4.000000,4.000000,4.000000,4.000000,4.000000,,,,,,,,,,,,,,,,,,,,,,,,,
1577421885.398809,12.000000,0.000000,4218.461426,4193.846191,4207.179688,4170.256348,4196.410156,450.000000,4.000000,,,,0.000000,4.000000,4.000000,4.000000,4.000000,4.000000,,,,,,,,,,,,,,,,,,,,,,,,,
1577421885.406514,13.000000,0.000000,4219.487305,4181.025879,4180.512695,4164.615234,4192.307617,450.000000,4.000000,,,,0.000000,4.000000,4.000000,4.000000,4.000000,4.000000,,,,,,,,,,,,,,,,,,,,,,,,,
1577421885.414318,14.000000,0.000000,4214.871582,4179.487305,4165.128418,4161.025879,4194.871582,450.000000,4.000000,,,,0.000000,4.000000,4.000000,4.000000,4.000000,4.000000,,,,,,,,,,,,,,,,,,,,,,,,,
1577421885.422022,15.000000,0.000000,4212.307617,4189.230957,4149.230957,4161.538574,4188.205078,16220.000000,4.000000,,,,0.000000,4.000000,4.000000,4.000000,4.000000,4.000000,,,,,,,,,,,,,,,,,,,,,,,,,
1577421885.429826,16.000000,0.000000,4232.820313,4193.333496,4149.230957,4177.948730,4206.666504,0.000000,4.000000,,,,0.000000,4.000000,4.000000,4.000000,4.000000,4.000000,,,,,,,,,,,,,,,,,,,,,,,,,
1577421885.437530,17.000000,0.000000,4247.179688,4206.153809,4163.589844,4197.436035,4235.897461,0.000000,4.000000,,,,0.000000,4.000000,4.000000,4.000000,4.000000,4.000000,165.671936,16.056574,3.565405,3.294494,0.817217,35.070457,6.402594,2.337589,1.513377,0.847862,17.936546,7.588172,0.908858,0.967762,0.588540,7.212221,3.178957,0.529014,0.847211,0.812490,11.737577,3.726457,1.622660,1.307820,0.827085
1577421885.445334,18.000000,0.000000,4229.230957,4220.512695,4169.230957,4197.948730,4230.256348,0.000000,4.000000,,,,0.000000,4.000000,4.000000,4.000000,4.000000,4.000000,,,,,,,,,,,,,,,,,,,,,,,,,
1577421885.453038,19.000000,0.000000,4225.641113,4223.077148,4179.487305,4201.025879,4221.538574,0.000000,4.000000,,,,0.000000,4.000000,4.000000,4.000000,4.000000,4.000000,,,,,,,,,,,,,,,,,,,,,,,,,
1577421885.460942,20.000000,0.000000,4220.512695,4222.563965,4185.641113,4201.538574,4213.333496,0.000000,4.000000,,,,0.000000,4.000000,4.000000,4.000000,4.000000,4.000000,,,,,,,,,,,,,,,,,,,,,,,,,
1577421885.468747,21.000000,0.000000,4181.538574,4220.000000,4170.256348,4177.948730,4181.025879,0.000000,4.000000,,,,0.000000,4.000000,4.000000,4.000000,4.000000,4.000000,,,,,,,,,,,,,,,,,,,,,,,,,
1577421885.476652,22.000000,0.000000,4171.794922,4213.333496,4168.717773,4168.205078,4171.794922,0.000000,4.000000,,,,0.000000,4.000000,4.000000,4.000000,4.000000,4.000000,,,,,,,,,,,,,,,,,,,,,,,,,
1577421885.484456,23.000000,0.000000,4193.846191,4215.897461,4183.077148,4185.641113,4194.358887,0.000000,4.000000,,,,0.000000,4.000000,4.000000,4.000000,4.000000,4.000000,,,,,,,,,,,,,,,,,,,,,,,,,
1577421885.492361,24.000000,0.000000,4181.025879,4227.692383,4187.179688,4191.282227,4195.384766,0.000000,4.000000,,,,0.000000,4.000000,4.000000,4.000000,4.000000,4.000000,,,,,,,,,,,,,,,,,,,,,,,,,
1577421885.500166,25.000000,0.000000,4180.000000,4229.743652,4193.846191,4189.743652,4192.820313,0.000000,4.000000,,,,0.000000,4.000000,4.000000,4.000000,4.000000,4.000000,,,,,,,,,,,,,,,,,,,,,,,,,
1577421885.508070,26.000000,0.000000,4221.538574,4227.179688,4210.256348,4203.077148,4222.563965,0.000000,4.000000,,,,0.000000,4.000000,4.000000,4.000000,4.000000,4.000000,,,,,,,,,,,,,,,,,,,,,,,,,
1577421885.515875,27.000000,0.000000,4235.384766,4230.256348,4214.871582,4209.230957,4238.461426,0.000000,4.000000,,,,0.000000,4.000000,4.000000,4.000000,4.000000,4.000000,,,,,,,,,,,,,,,,,,,,,,,,,
1577421885.523779,28.000000,0.000000,4220.000000,4224.102539,4208.717773,4204.615234,4226.666504,0.000000,4.000000,,,,0.000000,4.000000,4.000000,4.000000,4.000000,4.000000,,,,,,,,,,,,,,,,,,,,,,,,,
1577421885.531584,29.000000,0.000000,4227.179688,4216.410156,4213.846191,4213.333496,4231.794922,0.000000,4.000000,,,,0.000000,4.000000,4.000000,4.000000,4.000000,4.000000,,,,,,,,,,,,,,,,,,,,,,,,,
1577421885.539488,30.000000,0.000000,4232.307617,4215.384766,4217.948730,4218.974121,4240.000000,0.000000,4.000000,,,,0.000000,4.000000,4.000000,4.000000,4.000000,4.000000,,,,,,,,,,,,,,,,,,,,,,,,,
1577421885.547293,31.000000,0.000000,4224.615234,4217.948730,4215.897461,4217.948730,4237.948730,0.000000,4.000000,,,,0.000000,4.000000,4.000000,4.000000,4.000000,4.000000,,,,,,,,,,,,,,,,,,,,,,,,,
1577421885.555197,32.000000,0.000000,4226.666504,4225.128418,4216.410156,4226.666504,4238.461426,0.000000,4.000000,,,,0.000000,4.000000,4.000000,4.000000,4.000000,4.000000,,,,,,,,,,,,,,,,,,,,,,,,,
1577421885.563001,33.000000,0.000000,4237.436035,4197.436035,4204.615234,4218.974121,4223.589844,0.000000,4.000000,,,,0.000000,4.000000,4.000000,4.000000,4.000000,4.000000,45.700584,5.443742,2.029517,1.824016,0.614605,30.555162,3.051664,0.934039,0.829502,0.597361,30.148520,7.879964,0.946338,0.982340,0.496260,9.084528,3.337099,0.888635,0.954354,0.710976,8.433285,3.734778,1.935242,1.413015,0.715690
1577421885.570806,34.000000,0.000000,4306.666504,4154.358887,4195.384766,4196.922852,4218.974121,0.000000,4.000000,,,,0.000000,4.000000,4.000000,4.000000,4.000000,4.000000,,,,,,,,,,,,,,,,,,,,,,,,,
1577421885.578509,35.000000,0.000000,4437.436035,4173.846191,4202.051270,4173.333496,4230.769043,0.000000,4.000000,,,,0.000000,4.000000,4.000000,4.000000,4.000000,4.000000,,,,,,,,,,,,,,,,,,,,,,,,,
1577421885.586213,36.000000,0.000000,4594.358887,4077.435791,4224.102539,4151.794922,4242.563965,0.000000,4.000000,,,,0.000000,4.000000,4.000000,4.000000,4.000000,4.000000,,,,,,,,,,,,,,,,,,,,,,,,,
1577421885.594017,37.000000,0.000000,4803.589844,3791.281982,4269.743652,4163.589844,4275.897461,0.000000,4.000000,,,,0.000000,4.000000,4.000000,4.000000,4.000000,4.000000,,,,,,,,,,,,,,,,,,,,,,,,,
1577421885.601722,38.000000,0.000000,4989.230957,3632.307617,4294.871582,4171.282227,4295.384766,0.000000,4.000000,,,,0.000000,4.000000,4.000000,4.000000,4.000000,4.000000,,,,,,,,,,,,,,,,,,,,,,,,,
1577421885.609526,39.000000,0.000000,5043.589844,3705.641113,4286.666504,4146.666504,4281.538574,0.000000,4.000000,,,,0.000000,4.000000,4.000000,4.000000,4.000000,4.000000,,,,,,,,,,,,,,,,,,,,,,,,,
1577421885.617230,40.000000,0.000000,5011.794922,3758.461426,4298.461426,4142.051270,4283.077148,0.000000,4.000000,,,,0.000000,4.000000,4.000000,4.000000,4.000000,4.000000,,,,,,,,,,,,,,,,,,,,,,,,,
1577421885.625135,41.000000,0.000000,4929.743652,3742.564209,4314.871582,4147.179688,4292.307617,0.000000,4.000000,,,,0.000000,4.000000,4.000000,4.000000,4.000000,4.000000,,,,,,,,,,,,,,,,,,,,,,,,,
1577421885.632940,42.000000,0.000000,4769.230957,3780.000000,4295.897461,4130.256348,4276.922852,0.000000,4.000000,,,,0.000000,4.000000,4.000000,4.000000,4.000000,4.000000,,,,,,,,,,,,,,,,,,,,,,,,,
1577421885.640845,43.000000,0.000000,4584.102539,3827.179443,4273.333496,4110.769043,4261.025879,0.000000,4.000000,,,,0.000000,4.000000,4.000000,4.000000,4.000000,4.000000,,,,,,,,,,,,,,,,,,,,,,,,,
1577421885.648650,44.000000,0.000000,4405.641113,3855.384521,4265.128418,4103.589844,4257.948730,0.000000,4.000000,,,,0.000000,4.000000,4.000000,4.000000,4.000000,4.000000,,,,,,,,,,,,,,,,,,,,,,,,,
1577421885.656554,45.000000,0.000000,4209.743652,3903.076904,4249.743652,4101.025879,4244.102539,0.000000,4.000000,,,,0.000000,4.000000,4.000000,4.000000,4.000000,4.000000,,,,,,,,,,,,,,,,,,,,,,,,,
1577421885.664359,46.000000,0.000000,4047.692383,3969.743652,4233.846191,4105.128418,4231.282227,0.000000,4.000000,,,,0.000000,4.000000,4.000000,4.000000,4.000000,4.000000,,,,,,,,,,,,,,,,,,,,,,,,,
1577421885.672164,47.000000,0.000000,3964.615479,4046.666748,4226.153809,4106.153809,4223.077148,0.000000,4.000000,,,,0.000000,4.000000,4.000000,4.000000,4.000000,4.000000,,,,,,,,,,,,,,,,,,,,,,,,,
1577421885.679868,48.000000,0.000000,3930.769287,4081.025635,4206.666504,4090.769287,4202.563965,0.000000,4.000000,,,,0.000000,4.000000,4.000000,4.000000,4.000000,4.000000,,,,,,,,,,,,,,,,,,,,,,,,,
1577421885.687773,49.000000,0.000000,3938.461426,4071.281982,4177.948730,4080.512939,4187.692383,0.000000,4.000000,,,,0.000000,4.000000,4.000000,4.000000,4.000000,4.000000,15.798412,4.971390,1.736387,1.508112,0.557455,33.967201,2.878248,0.748744,0.806971,0.535135,48.432777,8.401953,1.100014,1.052556,0.460443,11.141570,3.943649,1.401861,1.145927,0.661181,7.166903,5.004617,2.249753,1.604266,0.678078
1577421885.695577,50.000000,0.000000,3982.564209,4086.666748,4161.538574,4071.281982,4181.538574,0.000000,4.000000,,,,0.000000,4.000000,4.000000,4.000000,4.000000,4.000000,,,,,,,,,,,,,,,,,,,,,,,,,
1577421885.703382,51.000000,0.000000,4026.153809,4163.589844,4149.743652,4053.846191,4174.358887,0.000000,4.000000,,,,0.000000,4.000000,4.000000,4.000000,4.000000,4.000000,,,,,,,,,,,,,,,,,,,,,,,,,
1577421885.711086,52.000000,0.000000,4061.025635,4251.282227,4142.563965,4047.692383,4182.051270,0.000000,4.000000,,,,0.000000,4.000000,4.000000,4.000000,4.000000,4.000000,,,,,,,,,,,,,,,,,,,,,,,,,
1577421885.718990,53.000000,0.000000,4084.102539,4288.717773,4143.077148,4054.871826,4187.179688,0.000000,4.000000,,,,0.000000,4.000000,4.000000,4.000000,4.000000,4.000000,,,,,,,,,,,,,,,,,,,,,,,,,
1577421885.726795,54.000000,0.000000,4086.153809,4288.205078,4138.974121,4057.948730,4180.512695,0.000000,4.000000,,,,0.000000,4.000000,4.000000,4.000000,4.000000,4.000000,,,,,,,,,,,,,,,,,,,,,,,,,
1577421885.734699,55.000000,0.000000,4092.307617,4295.384766,4134.871582,4057.435791,4181.025879,0.000000,4.000000,,,,0.000000,4.000000,4.000000,4.000000,4.000000,4.000000,,,,,,,,,,,,,,,,,,,,,,,,,
1577421885.742503,56.000000,0.000000,4103.077148,4306.153809,4140.512695,4063.589844,4181.025879,0.000000,4.000000,,,,0.000000,4.000000,4.000000,4.000000,4.000000,4.000000,,,,,,,,,,,,,,,,,,,,,,,,,
1577421885.750308,57.000000,0.000000,4106.666504,4311.794922,4153.846191,4080.512939,4188.717773,0.000000,4.000000,,,,0.000000,4.000000,4.000000,4.000000,4.000000,4.000000,,,,,,,,,,,,,,,,,,,,,,,,,
1577421885.758011,58.000000,0.000000,4121.025879,4326.153809,4162.563965,4096.410156,4205.641113,0.000000,4.000000,,,,0.000000,4.000000,4.000000,4.000000,4.000000,4.000000,,,,,,,,,,,,,,,,,,,,,,,,,
1577421885.765715,59.000000,0.000000,4137.948730,4339.487305,4166.153809,4095.897461,4208.205078,0.000000,4.000000,,,,0.000000,4.000000,4.000000,4.000000,4.000000,4.000000,,,,,,,,,,,,,,,,,,,,,,,,,
1577421885.773620,60.000000,0.000000,4155.384766,4348.205078,4181.025879,4098.461426,4210.256348,0.000000,4.000000,,,,0.000000,4.000000,4.000000,4.000000,4.000000,4.000000,,,,,,,,,,,,,,,,,,,,,,,,,
1577421885.781426,61.000000,0.000000,4175.384766,4349.230957,4192.820313,4102.051270,4220.512695,0.000000,4.000000,,,,0.000000,4.000000,4.000000,4.000000,4.000000,4.000000,,,,,,,,,,,,,,,,,,,,,,,,,
1577421885.789231,62.000000,0.000000,4178.974121,4340.000000,4184.102539,4088.718018,4225.641113,0.000000,4.000000,,,,0.000000,4.000000,4.000000,4.000000,4.000000,4.000000,,,,,,,,,,,,,,,,,,,,,,,,,
1577421885.796935,63.000000,0.000000,4190.256348,4347.179688,4187.179688,4087.692383,4238.974121,0.000000,4.000000,,,,0.000000,4.000000,4.000000,4.000000,4.000000,4.000000,,,,,,,,,,,,,,,,,,,,,,,,,
1577421885.804739,64.000000,0.000000,4217.948730,4352.820313,4200.512695,4100.512695,4262.563965,450.000000,4.000000,,,,0.000000,4.000000,4.000000,4.000000,4.000000,4.000000,,,,,,,,,,,,,,,,,,,,,,,,,
1577421885.812443,65.000000,0.000000,4225.128418,4338.974121,4197.948730,4106.666504,4274.871582,450.000000,4.000000,,,,0.000000,4.000000,4.000000,4.000000,4.000000,4.000000,22.817194,11.436267,2.976835,1.591730,0.588346,40.950016,4.608577,0.983694,0.995696,0.583903,72.560883,8.733097,1.483649,1.159007,0.456335,12.759818,4.782917,1.939641,1.370054,0.634688,7.340522,7.596357,2.595944,1.829067,0.670205
1577421885.820247,66.000000,0.000000,4202.051270,4327.179688,4190.769043,4102.051270,4263.589844,16210.000000,4.000000,,,,0.000000,4.000000,4.000000,4.000000,4.000000,4.000000,,,,,,,,,,,,,,,,,,,,,,,,,
1577421885.827951,67.000000,0.000000,4183.589844,4316.922852,4177.948730,4092.307617,4243.589844,450.000000,4.000000,,,,0.000000,4.000000,4.000000,4.000000,4.000000,4.000000,,,,,,,,,,,,,,,,,,,,,,,,,
1577421885.835755,68.000000,0.000000,4182.051270,4297.948730,4160.000000,4089.230713,4233.846191,16206.000000,4.000000,,,,0.000000,4.000000,4.000000,4.000000,4.000000,4.000000,,,,,,,,,,,,,,,,,,,,,,,,,
1577421885.843459,69.000000,0.000000,4169.230957,4280.512695,4154.871582,4092.820557,4224.102539,450.000000,4.000000,,,,0.000000,4.000000,4.000000,4.000000,4.000000,4.000000,,,,,,,,,,,,,,,,,,,,,,,,,
1577421885.851263,70.000000,0.000000,4155.897461,4280.000000,4160.000000,4110.256348,4220.512695,16178.000000,4.000000,,,,0.000000,4.000000,4.000000,4.000000,4.000000,4.000000,,,,,,,,,,,,,,,,,,,,,,,,,
1577421885.858967,71.000000,0.000000,4166.153809,4284.102539,4160.512695,4140.512695,4225.128418,450.000000,4.000000,,,,0.000000,4.000000,4.000000,4.000000,4.000000,4.000000,,,,,,,,,,,,,,,,,,,,,,,,,
1577421885.866770,72.000000,0.000000,4173.846191,4283.077148,4154.871582,4156.410156,4218.974121,450.000000,4.000000,,,,0.000000,4.000000,4.000000,4.000000,4.000000,4.000000,,,,,,,,,,,,,,,,,,,,,,,,,
1577421885.874474,73.000000,0.000000,4169.743652,4291.282227,4156.410156,4160.512695,4206.666504,16156.000000,4.000000,,,,0.000000,4.000000,4.000000,4.000000,4.000000,4.000000,,,,,,,,,,,,,,,,,,,,,,,,,
1577421885.882379,74.000000,0.000000,4183.077148,4308.717773,4167.179688,4180.000000,4216.410156,450.000000,4.000000,,,,0.000000,4.000000,4.000000,4.000000,4.000000,4.000000,,,,,,,,,,,,,,,,,,,,,,,,,
1577421885.890183,75.000000,0.000000,4213.333496,4328.717773,4180.000000,4211.282227,4249.230957,16219.000000,4.000000,,,,0.000000,4.000000,4.000000,4.000000,4.000000,4.000000,,,,,,,,,,,,,,,,,,,,,,,,,
1577421885.898088,76.000000,0.000000,4227.179688,4339.487305,4186.153809,4223.077148,4261.025879,450.000000,4.000000,,,,0.000000,4.000000,4.000000,4.000000,4.000000,4.000000,,,,,,,,,,,,,,,,,,,,,,,,,
1577421885.905892,77.000000,0.000000,4237.436035,4345.128418,4187.692383,4224.102539,4260.512695,450.000000,4.000000,,,,0.000000,4.000000,4.000000,4.000000,4.000000,4.000000,,,,,,,,,,,,,,,,,,,,,,,,,
1577421885.913797,78.000000,0.000000,4255.897461,4353.333496,4186.666504,4234.871582,4276.410156,450.000000,4.000000,,,,0.000000,4.000000,4.000000,4.000000,4.000000,4.000000,,,,,,,,,,,,,,,,,,,,,,,,,
1577421885.921601,79.000000,0.000000,4248.205078,4352.307617,4168.717773,4225.128418,4264.615234,16219.000000,4.000000,,,,0.000000,4.000000,4.000000,4.000000,4.000000,4.000000,,,,,,,,,,,,,,,,,,,,,,,,,
1577421885.929505,80.000000,0.000000,4240.512695,4352.820313,4160.000000,4209.230957,4252.820313,450.000000,4.000000,,,,0.000000,4.000000,4.000000,4.000000,4.000000,4.000000,,,,,,,,,,,,,,,,,,,,,,,,,
1577421885.937310,81.000000,0.000000,4253.846191,4360.512695,4167.179688,4220.512695,4268.717773,450.000000,4.000000,,,,0.000000,4.000000,4.000000,4.000000,4.000000,4.000000,93.950447,36.634872,6.775116,1.765661,0.657649,64.897217,10.634001,2.467073,1.733626,0.864172,99.666725,8.770635,2.156659,1.264842,0.459947,13.463311,5.579836,2.400204,1.566565,0.605980,8.619757,11.060198,2.996632,2.021658,0.656214
1577421885.945014,82.000000,0.000000,4237.948730,4343.589844,4153.846191,4222.051270,4256.922852,450.000000,4.000000,,,,0.000000,4.000000,4.000000,4.000000,4.000000,4.000000,,,,,,,,,,,,,,,,,,,,,,,,,
1577421885.952819,83.000000,0.000000,4219.487305,4331.794922,4145.128418,4216.922852,4241.025879,16219.000000,4.000000,,,,0.000000,4.000000,4.000000,4.000000,4.000000,4.000000,,,,,,,,,,,,,,,,,,,,,,,,,
1577421885.960523,84.000000,0.000000,4235.384766,4353.846191,4162.051270,4235.897461,4258.461426,450.000000,4.000000,,,,0.000000,4.000000,4.000000,4.000000,4.000000,4.000000,,,,,,,,,,,,,,,,,,,,,,,,,
1577421885.968327,85.000000,0.000000,4243.077148,4361.025879,4174.871582,4254.358887,4268.717773,450.000000,4.000000,,,,0.000000,4.000000,4.000000,4.000000,4.000000,4.000000,,,,,,,,,,,,,,,,,,,,,,,,,
1577421885.976031,86.000000,0.000000,4233.333496,4353.333496,4183.077148,4250.256348,4258.974121,450.000000,4.000000,,,,0.000000,4.000000,4.000000,4.000000,4.000000,4.000000,,,,,,,,,,,,,,,,,,,,,,,,,
1577421885.983836,87.000000,0.000000,4207.692383,4354.358887,4184.102539,4232.820313,4243.077148,16219.000000,4.000000,,,,0.000000,4.000000,4.000000,4.000000,4.000000,4.000000,,,,,,,,,,,,,,,,,,,,,,,,,
1577421885.991540,88.000000,0.000000,4172.820313,4344.615234,4166.153809,4211.794922,4222.563965,450.000000,4.000000,,,,0.000000,4.000000,4.000000,4.000000,4.000000,4.000000,,,,,,,,,,,,,,,,,,,,,,,,,
1577421885.999344,89.000000,0.000000,4166.153809,4342.563965,4156.410156,4195.897461,4206.153809,450.000000,4.000000,,,,0.000000,4.000000,4.000000,4.000000,4.000000,4.000000,,,,,,,,,,,,,,,,,,,,,,,,,
1577421886.007048,90.000000,0.000000,4174.871582,4359.487305,4164.102539,4172.307617,4193.846191,450.000000,4.000000,,,,0.000000,4.000000,4.000000,4.000000,4.000000,4.000000,,,,,,,,,,,,,,,,,,,,,,,,,
1577421886.014852,91.000000,0.000000,4161.025879,4365.641113,4167.692383,4135.384766,4173.846191,16219.000000,4.000000,,,,0.000000,4.000000,4.000000,4.000000,4.000000,4.000000,,,,,,,,,,,,,,,,,,,,,,,,,
1577421886.022556,92.000000,0.000000,4143.077148,4364.615234,4182.563965,4108.717773,4158.974121,450.000000,4.000000,,,,0.000000,4.000000,4.000000,4.000000,4.000000,4.000000,,,,,,,,,,,,,,,,,,,,,,,,,
1577421886.030461,93.000000,0.000000,4145.641113,4381.538574,4216.410156,4107.692383,4167.692383,450.000000,4.000000,,,,0.000000,4.000000,4.000000,4.000000,4.000000,4.000000,,,,,,,,,,,,,,,,,,,,,,,,,
1577421886.038266,94.000000,0.000000,4143.077148,4384.102539,4237.436035,4106.153809,4168.717773,450.000000,4.000000,,,,0.000000,4.000000,4.000000,4.000000,4.000000,4.000000,,,,,,,,,,,,,,,,,,,,,,,,,
1577421886.046170,95.000000,0.000000,4121.538574,4365.641113,4247.692383,4090.256348,4151.794922,16219.000000,4.000000,,,,0.000000,4.000000,4.000000,4.000000,4.000000,4.000000,,,,,,,,,,,,,,,,,,,,,,,,,
1577421886.053975,96.000000,0.000000,4125.641113,4389.230957,4284.102539,4098.974121,4162.563965,450.000000,4.000000,,,,0.000000,4.000000,4.000000,4.000000,4.000000,4.000000,,,,,,,,,,,,,,,,,,,,,,,,,
1577421886.061880,97.000000,0.000000,4135.897461,4424.102539,4309.230957,4119.487305,4179.487305,450.000000,4.000000,,,,0.000000,4.000000,4.000000,4.000000,4.000000,4.000000,284.620483,97.258087,14.007070,2.058134,0.741754,123.025963,23.246016,6.175075,3.478796,1.498381,125.607529,8.520725,3.021240,1.331616,0.461015,13.083960,6.156764,2.697228,1.686685,0.566947,11.010761,14.489131,3.390922,2.129089,0.624623
1577421886.069685,98.000000,0.000000,4128.205078,4415.897461,4303.589844,4115.897461,4168.717773,450.000000,4.000000,,,,0.000000,4.000000,4.000000,4.000000,4.000000,4.000000,,,,,,,,,,,,,,,,,,,,,,,,,
1577421886.077589,99.000000,0.000000,4126.153809,4414.871582,4321.538574,4110.769043,4163.589844,16219.000000,4.000000,,,,0.000000,4.000000,4.000000,4.000000,4.000000,4.000000,,,,,,,,,,,,,,,,,,,,,,,,,
1577421886.085394,100.000000,0.000000,4124.615234,4441.538574,4354.358887,4108.205078,4163.077148,450.000000,4.000000,,,,0.000000,4.000000,4.000000,4.000000,4.000000,4.000000,,,,,,,,,,,,,,,,,,,,,,,,,
1577421886.093298,101.000000,0.000000,4120.000000,4449.743652,4363.077148,4095.384521,4148.717773,450.000000,4.000000,,,,0.000000,4.000000,4.000000,4.000000,4.000000,4.000000,,,,,,,,,,,,,,,,,,,,,,,,,
1577421886.101103,102.000000,0.000000,4118.461426,4432.307617,4352.820313,4077.948730,4141.025879,450.000000,4.000000,,,,0.000000,4.000000,4.000000,4.000000,4.000000,4.000000,,,,,,,,,,,,,,,,,,,,,,,,,
1577421886.108908,103.000000,0.000000,4110.256348,4424.615234,4342.563965,4068.205078,4150.769043,16219.000000,4.000000,,,,0.000000,4.000000,4.000000,4.000000,4.000000,4.000000,,,,,,,,,,,,,,,,,,,,,,,,,
1577421886.116611,104.000000,0.000000,4104.615234,4430.256348,4326.666504,4065.641113,4151.282227,450.000000,4.000000,,,,0.000000,4.000000,4.000000,4.000000,4.000000,4.000000,,,,,,,,,,,,,,,,,,,,,,,,,
1577421886.124516,105.000000,0.000000,4110.256348,4428.717773,4304.615234,4062.564209,4143.589844,450.000000,4.000000,,,,0.000000,4.000000,4.000000,4.000000,4.000000,4.000000,,,,,,,,,,,,,,,,,,,,,,,,,
1577421886.132320,106.000000,0.000000,4108.205078,4429.230957,4292.307617,4056.410156,4137.436035,450.000000,4.000000,,,,0.000000,4.000000,4.000000,4.000000,4.000000,4.000000,,,,,,,,,,,,,,,,,,,,,,,,,
1577421886.140224,107.000000,0.000000,4088.718018,4438.461426,4276.922852,4038.974365,4117.948730,16219.000000,4.000000,,,,0.000000,4.000000,4.000000,4.000000,4.000000,4.000000,,,,,,,,,,,,,,,,,,,,,,,,,
1577421886.148029,108.000000,0.000000,4065.128174,4430.769043,4251.794922,4022.564209,4099.487305,450.000000,4.000000,,,,0.000000,4.000000,4.000000,4.000000,4.000000,4.000000,,,,,,,,,,,,,,,,,,,,,,,,,
1577421886.155733,109.000000,0.000000,4050.256348,4409.743652,4236.410156,4028.205078,4101.025879,450.000000,4.000000,,,,0.000000,4.000000,4.000000,4.000000,4.000000,4.000000,,,,,,,,,,,,,,,,,,,,,,,,,
1577421886.163537,110.000000,0.000000,4053.846191,4409.743652,4224.615234,4041.025635,4108.717773,450.000000,4.000000,,,,0.000000,4.000000,4.000000,4.000000,4.000000,4.000000,,,,,,,,,,,,,,,,,,,,,,,,,
1577421886.171241,111.000000,0.000000,4086.153809,4440.000000,4228.717773,4059.487061,4132.307617,16219.000000,4.000000,,,,0.000000,4.000000,4.000000,4.000000,4.000000,4.000000,,,,,,,,,,,,,,,,,,,,,,,,,
1577421886.179045,112.000000,0.000000,4120.512695,4458.461426,4257.436035,4081.025635,4163.589844,450.000000,4.000000,,,,0.000000,4.000000,4.000000,4.000000,4.000000,4.000000,,,,,,,,,,,,,,,,,,,,,,,,,
1577421886.186750,113.000000,0.000000,4117.436035,4445.641113,4270.769043,4084.102539,4170.256348,450.000000,4.000000,,,,0.000000,4.000000,4.000000,4.000000,4.000000,4.000000,613.831787,197.972717,24.141325,2.480400,0.822529,220.684418,42.232765,12.310605,6.328956,2.474214,144.294128,8.071557,3.866231,1.334358,0.455334,11.460130,6.557295,2.789485,1.708488,0.520876,14.420955,16.883688,3.685705,2.123139,0.579346
1577421886.194553,114.000000,0.000000,4097.948730,4435.897461,4262.563965,4076.410156,4158.974121,450.000000,4.000000,,,,0.000000,4.000000,4.000000,4.000000,4.000000,4.000000,,,,,,,,,,,,,,,,,,,,,,,,,
1577421886.202257,115.000000,0.000000,4098.974121,4435.897461,4264.102539,4074.358887,4151.282227,16219.000000,4.000000,,,,0.000000,4.000000,4.000000,4.000000,4.000000,4.000000,,,,,,,,,,,,,,,,,,,,,,,,,
1577421886.210162,116.000000,0.000000,4108.205078,4429.743652,4281.538574,4077.948730,4154.871582,450.000000,4.000000,,,,0.000000,4.000000,4.000000,4.000000,4.000000,4.000000,,,,,,,,,,,,,,,,,,,,,,,,,
1577421886.217968,117.000000,0.000000,4097.436035,4425.128418,4286.666504,4079.487061,4150.769043,450.000000,4.000000,,,,0.000000,4.000000,4.000000,4.000000,4.000000,4.000000,,,,,,,,,,,,,,,,,,,,,,,,,
1577421886.225773,118.000000,0.000000,4075.384521,4420.000000,4267.179688,4069.230713,4130.256348,450.000000,4.000000,,,,0.000000,4.000000,4.000000,4.000000,4.000000,4.000000,,,,,,,,,,,,,,,,,,,,,,,,,
1577421886.233477,119.000000,0.000000,4061.025635,4406.153809,4248.717773,4058.461426,4114.871582,16219.000000,4.000000,,,,0.000000,4.000000,4.000000,4.000000,4.000000,4.000000,,,,,,,,,,,,,,,,,,,,,,,,,
1577421886.241281,120.000000,0.000000,4056.410156,4392.820313,4247.692383,4060.000000,4114.358887,450.000000,4.000000,,,,0.000000,4.000000,4.000000,4.000000,4.000000,4.000000,,,,,,,,,,,,,,,,,,,,,,,,,
1577421886.248984,121.000000,0.000000,4061.538574,4392.820313,4255.897461,4068.718018,4126.153809,450.000000,4.000000,,,,0.000000,4.000000,4.000000,4.000000,4.000000,4.000000,,,,,,,,,,,,,,,,,,,,,,,,,
1577421886.256788,122.000000,0.000000,4082.564209,4404.102539,4275.384766,4075.897461,4146.153809,450.000000,4.000000,,,,0.000000,4.000000,4.000000,4.000000,4.000000,4.000000,,,,,,,,,,,,,,,,,,,,,,,,,
1577421886.264492,123.000000,0.000000,4102.563965,4403.077148,4294.871582,4072.307617,4157.948730,16219.000000,4.000000,,,,0.000000,4.000000,4.000000,4.000000,4.000000,4.000000,,,,,,,,,,,,,,,,,,,,,,,,,
1577421886.272296,124.000000,0.000000,4105.641113,4391.282227,4296.410156,4065.128174,4160.000000,450.000000,4.000000,,,,0.000000,4.000000,4.000000,4.000000,4.000000,4.000000,,,,,,,,,,,,,,,,,,,,,,,,,
1577421886.279999,125.000000,0.000000,4095.897461,4391.282227,4288.205078,4062.564209,4147.692383,450.000000,4.000000,,,,0.000000,4.000000,4.000000,4.000000,4.000000,4.000000,,,,,,,,,,,,,,,,,,,,,,,,,
1577421886.287803,126.000000,0.000000,4073.333252,4383.589844,4282.051270,4056.923096,4128.717773,450.000000,4.000000,,,,0.000000,4.000000,4.000000,4.000000,4.000000,4.000000,,,,,,,,,,,,,,,,,,,,,,,,,
1577421886.295507,127.000000,0.000000,4069.230713,4377.948730,4291.794922,4065.128174,4125.128418,234.000000,4.000000,,,,0.000000,4.000000,4.000000,4.000000,4.000000,4.000000,,,,,,,,,,,,,,,,,,,,,,,,,
1577421886.303411,0.000000,0.000000,4084.102539,4396.922852,4311.794922,4083.076904,4126.153809,450.000000,4.000000,,,,0.000000,4.000000,4.000000,4.000000,4.000000,4.000000,,,,,,,,,,,,,,,,,,,,,,,,,
1577421886.311215,1.000000,0.000000,4083.589844,4409.743652,4322.051270,4084.615479,4125.641113,450.000000,4.000000,,,,0.000000,4.000000,4.000000,4.000000,4.000000,4.000000,1032.168091,323.201630,35.003799,2.958300,0.880383,342.680695,63.771858,19.789660,9.802576,3.597205,152.359863,7.512592,4.449865,1.269462,0.442558,9.946149,6.984640,2.722107,1.636042,0.476234,18.829805,17.546972,3.820616,2.006073,0.529929
1577421886.319120,2.000000,0.000000,4082.564209,4400.000000,4330.769043,4086.666748,4134.871582,16214.000000,4.000000,,,,0.000000,4.000000,4.000000,4.000000,4.000000,4.000000,,,,,,,,,,,,,,,,,,,,,,,,,
1577421886.326924,3.000000,0.000000,4100.000000,4401.538574,4347.179688,4102.563965,4155.384766,450.000000,4.000000,,,,0.000000,4.000000,4.000000,4.000000,4.000000,4.000000,,,,,,,,,,,,,,,,,,,,,,,,,
1577421886.334828,4.000000,0.000000,4112.820313,4412.820313,4355.897461,4113.333496,4168.717773,16191.000000,4.000000,,,,0.000000,4.000000,4.000000,4.000000,4.000000,4.000000,,,,,,,,,,,,,,,,,,,,,,,,,
1577421886.342632,5.000000,0.000000,4101.538574,4398.461426,4345.641113,4101.538574,4154.358887,450.000000,4.000000,,,,0.000000,4.000000,4.000000,4.000000,4.000000,4.000000,,,,,,,,,,,,,,,,,,,,,,,,,
1577421886.350337,6.000000,0.000000,4089.743652,4381.025879,4334.358887,4088.205078,4133.846191,16164.000000,4.000000,,,,0.000000,4.000000,4.000000,4.000000,4.000000,4.000000,,,,,,,,,,,,,,,,,,,,,,,,,
1577421886.358141,7.000000,0.000000,4089.230713,4389.743652,4333.333496,4085.641113,4129.230957,450.000000,4.000000,,,,0.000000,4.000000,4.000000,4.000000,4.000000,4.000000,,,,,,,,,,,,,,,,,,,,,,,,,
1577421886.365845,8.000000,0.000000,4088.205078,4394.871582,4336.410156,4085.128174,4138.461426,450.000000,4.000000,,,,0.000000,4.000000,4.000000,4.000000,4.000000,4.000000,,,,,,,,,,,,,,,,,,,,,,,,,
1577421886.373649,9.000000,0.000000,4087.692383,4378.461426,4342.563965,4086.153809,4145.128418,16170.000000,4.000000,,,,0.000000,4.000000,4.000000,4.000000,4.000000,4.000000,,,,,,,,,,,,,,,,,,,,,,,,,
1577421886.381354,10.000000,0.000000,4081.025635,4368.205078,4336.922852,4081.538574,4129.743652,450.000000,4.000000,,,,0.000000,4.000000,4.000000,4.000000,4.000000,4.000000,,,,,,,,,,,,,,,,,,,,,,,,,
1577421886.389158,11.000000,0.000000,4076.923096,4377.436035,4326.153809,4075.384521,4121.025879,16212.000000,4.000000,,,,0.000000,4.000000,4.000000,4.000000,4.000000,4.000000,,,,,,,,,,,,,,,,,,,,,,,,,
1577421886.396862,12.000000,0.000000,4076.923096,4374.358887,4336.922852,4080.512939,4132.820313,450.000000,4.000000,,,,0.000000,4.000000,4.000000,4.000000,4.000000,4.000000,,,,,,,,,,,,,,,,,,,,,,,,,
1577421886.404666,13.000000,0.000000,4074.871826,4359.487305,4351.794922,4092.820557,4143.589844,450.000000,4.000000,,,,0.000000,4.000000,4.000000,4.000000,4.000000,4.000000,,,,,,,,,,,,,,,,,,,,,,,,,
1577421886.412370,14.000000,0.000000,4078.974365,4370.256348,4350.256348,4107.179688,4147.179688,450.000000,4.000000,,,,0.000000,4.000000,4.000000,4.000000,4.000000,4.000000,,,,,,,,,,,,,,,,,,,,,,,,,
1577421886.420174,15.000000,0.000000,4081.025635,4385.128418,4338.461426,4114.871582,4142.051270,16212.000000,4.000000,,,,0.000000,4.000000,4.000000,4.000000,4.000000,4.000000,,,,,,,,,,,,,,,,,,,,,,,,,
1577421886.427878,16.000000,0.000000,4079.487061,4373.846191,4328.205078,4116.410156,4141.025879,0.000000,4.000000,,,,0.000000,4.000000,4.000000,4.000000,4.000000,4.000000,,,,,,,,,,,,,,,,,,,,,,,,,
1577421886.435682,17.000000,0.000000,4082.051270,4365.641113,4322.051270,4116.922852,4147.179688,0.000000,4.000000,,,,0.000000,4.000000,4.000000,4.000000,4.000000,4.000000,1423.572021,439.384918,43.589527,3.372638,0.903626,456.236938,81.633873,26.480730,12.954278,4.550455,149.407211,6.943988,4.633894,1.167304,0.429129,9.443188,7.749165,2.595491,1.499840,0.441622,22.952854,16.399727,3.826315,1.811826,0.489218
1577421886.443385,18.000000,0.000000,4082.564209,4366.666504,4305.641113,4112.820313,4143.077148,0.000000,4.000000,,,,0.000000,4.000000,4.000000,4.000000,4.000000,4.000000,,,,,,,,,,,,,,,,,,,,,,,,,
1577421886.451290,19.000000,0.000000,4084.615479,4362.563965,4283.589844,4106.153809,4146.153809,0.000000,4.000000,,,,0.000000,4.000000,4.000000,4.000000,4.000000,4.000000,,,,,,,,,,,,,,,,,,,,,,,,,
1577421886.459095,20.000000,0.000000,4098.974121,4363.589844,4288.717773,4108.205078,4162.051270,0.000000,4.000000,,,,0.000000,4.000000,4.000000,4.000000,4.000000,4.000000,,,,,,,,,,,,,,,,,,,,,,,,,
1577421886.467000,21.000000,0.000000,4116.410156,4370.769043,4312.820313,4120.512695,4174.358887,0.000000,4.000000,,,,0.000000,4.000000,4.000000,4.000000,4.000000,4.000000,,,,,,,,,,,,,,,,,,,,,,,,,
1577421886.474804,22.000000,0.000000,4119.487305,4363.077148,4308.717773,4124.615234,4176.922852,0.000000,4.000000,,,,0.000000,4.000000,4.000000,4.000000,4.000000,4.000000,,,,,,,,,,,,,,,,,,,,,,,,,
1577421886.482709,23.000000,0.000000,4102.563965,4344.615234,4274.358887,4101.538574,4155.384766,0.000000,4.000000,,,,0.000000,4.000000,4.000000,4.000000,4.000000,4.000000,,,,,,,,,,,,,,,,,,,,,,,,,
1577421886.490513,24.000000,0.000000,4097.948730,4349.230957,4271.282227,4087.692383,4142.051270,0.000000,4.000000,,,,0.000000,4.000000,4.000000,4.000000,4.000000,4.000000,,,,,,,,,,,,,,,,,,,,,,,,,
1577421886.498418,25.000000,0.000000,4130.256348,4366.666504,4303.589844,4116.922852,4164.615234,0.000000,4.000000,,,,0.000000,4.000000,4.000000,4.000000,4.000000,4.000000,,,,,,,,,,,,,,,,,,,,,,,,,
1577421886.506222,26.000000,0.000000,4154.358887,4364.615234,4314.358887,4143.589844,4182.563965,0.000000,4.000000,,,,0.000000,4.000000,4.000000,4.000000,4.000000,4.000000,,,,,,,,,,,,,,,,,,,,,,,,,
1577421886.514126,27.000000,0.000000,4145.641113,4356.922852,4296.922852,4130.769043,4168.205078,0.000000,4.000000,,,,0.000000,4.000000,4.000000,4.000000,4.000000,4.000000,,,,,,,,,,,,,,,,,,,,,,,,,
1577421886.521931,28.000000,0.000000,4125.128418,4350.256348,4285.641113,4109.743652,4146.153809,0.000000,4.000000,,,,0.000000,4.000000,4.000000,4.000000,4.000000,4.000000,,,,,,,,,,,,,,,,,,,,,,,,,
1577421886.529835,29.000000,0.000000,4119.487305,4347.179688,4288.205078,4113.333496,4146.153809,0.000000,4.000000,,,,0.000000,4.000000,4.000000,4.000000,4.000000,4.000000,,,,,,,,,,,,,,,,,,,,,,,,,
1577421886.537639,30.000000,0.000000,4131.282227,4355.897461,4288.205078,4126.666504,4151.794922,0.000000,4.000000,,,,0.000000,4.000000,4.000000,4.000000,4.000000,4.000000,,,,,,,,,,,,,,,,,,,,,,,,,
1577421886.545343,31.000000,0.000000,4127.692383,4362.051270,4282.051270,4126.153809,4143.589844,0.000000,4.000000,,,,0.000000,4.000000,4.000000,4.000000,4.000000,4.000000,,,,,,,,,,,,,,,,,,,,,,,,,
1577421886.553147,32.000000,0.000000,4113.333496,4367.692383,4282.051270,4118.974121,4143.077148,0.000000,4.000000,,,,0.000000,4.000000,4.000000,4.000000,4.000000,4.000000,,,,,,,,,,,,,,,,,,,,,,,,,
1577421886.560852,33.000000,0.000000,4110.769043,4369.230957,4273.333496,4111.282227,4145.128418,0.000000,4.000000,,,,0.000000,4.000000,4.000000,4.000000,4.000000,4.000000,1663.422119,508.781738,47.223286,3.606626,0.890984,522.451416,89.782639,30.113220,14.760608,5.026166,139.239731,6.551847,4.445942,1.083851,0.424511,10.412984,9.037069,2.500164,1.346053,0.422328,26.173700,13.991178,3.843378,1.593744,0.467568
1577421886.568656,34.000000,0.000000,4118.974121,4363.589844,4258.974121,4107.692383,4137.948730,0.000000,4.000000,,,,0.000000,4.000000,4.000000,4.000000,4.000000,4.000000,,,,,,,,,,,,,,,,,,,,,,,,,
1577421886.576360,35.000000,0.000000,4117.436035,4368.205078,4250.256348,4102.051270,4126.666504,0.000000,4.000000,,,,0.000000,4.000000,4.000000,4.000000,4.000000,4.000000,,,,,,,,,,,,,,,,,,,,,,,,,
1577421886.584164,36.000000,0.000000,4089.230713,4358.974121,4222.563965,4073.333252,4102.051270,0.000000,4.000000,,,,0.000000,4.000000,4.000000,4.000000,4.000000,4.000000,,,,,,,,,,,,,,,,,,,,,,,,,
1577421886.591868,37.000000,0.000000,4091.281982,4350.769043,4214.358887,4067.179443,4098.461426,0.000000,4.000000,,,,0.000000,4.000000,4.000000,4.000000,4.000000,4.000000,,,,,,,,,,,,,,,,,,,,,,,,,
1577421886.599773,38.000000,0.000000,4137.436035,4371.282227,4252.307617,4107.692383,4134.871582,0.000000,4.000000,,,,0.000000,4.000000,4.000000,4.000000,4.000000,4.000000,,,,,,,,,,,,,,,,,,,,,,,,,
1577421886.607578,39.000000,0.000000,4145.641113,4378.461426,4267.692383,4125.128418,4153.333496,0.000000,4.000000,,,,0.000000,4.000000,4.000000,4.000000,4.000000,4.000000,,,,,,,,,,,,,,,,,,,,,,,,,
1577421886.615483,40.000000,0.000000,4108.205078,4356.922852,4245.128418,4101.538574,4126.666504,0.000000,4.000000,,,,0.000000,4.000000,4.000000,4.000000,4.000000,4.000000,,,,,,,,,,,,,,,,,,,,,,,,,
1577421886.623287,41.000000,0.000000,4094.358887,4343.589844,4228.205078,4087.179443,4105.641113,0.000000,4.000000,,,,0.000000,4.000000,4.000000,4.000000,4.000000,4.000000,,,,,,,,,,,,,,,,,,,,,,,,,
1577421886.631192,42.000000,0.000000,4118.461426,4350.769043,4234.358887,4105.128418,4123.589844,0.000000,4.000000,,,,0.000000,4.000000,4.000000,4.000000,4.000000,4.000000,,,,,,,,,,,,,,,,,,,,,,,,,
1577421886.638997,43.000000,0.000000,4135.384766,4361.025879,4245.641113,4124.615234,4142.051270,0.000000,4.000000,,,,0.000000,4.000000,4.000000,4.000000,4.000000,4.000000,,,,,,,,,,,,,,,,,,,,,,,,,
1577421886.646902,44.000000,0.000000,4137.436035,4362.051270,4247.692383,4127.179688,4145.128418,0.000000,4.000000,,,,0.000000,4.000000,4.000000,4.000000,4.000000,4.000000,,,,,,,,,,,,,,,,,,,,,,,,,
1577421886.654706,45.000000,0.000000,4149.743652,4362.563965,4245.128418,4133.333496,4150.769043,0.000000,4.000000,,,,0.000000,4.000000,4.000000,4.000000,4.000000,4.000000,,,,,,,,,,,,,,,,,,,,,,,,,
1577421886.662511,46.000000,0.000000,4156.410156,4364.615234,4236.410156,4135.897461,4151.794922,0.000000,4.000000,,,,0.000000,4.000000,4.000000,4.000000,4.000000,4.000000,,,,,,,,,,,,,,,,,,,,,,,,,
1577421886.670214,47.000000,0.000000,4148.717773,4364.102539,4226.153809,4132.820313,4152.307617,0.000000,4.000000,,,,0.000000,4.000000,4.000000,4.000000,4.000000,4.000000,,,,,,,,,,,,,,,,,,,,,,,,,
1577421886.678119,48.000000,0.000000,4153.846191,4353.846191,4224.102539,4142.051270,4167.692383,0.000000,4.000000,,,,0.000000,4.000000,4.000000,4.000000,4.000000,4.000000,,,,,,,,,,,,,,,,,,,,,,,,,
1577421886.685923,49.000000,0.000000,4166.666504,4341.025879,4222.051270,4151.794922,4181.025879,0.000000,4.000000,,,,0.000000,4.000000,4.000000,4.000000,4.000000,4.000000,1661.553589,506.836487,44.855888,3.597886,0.845860,517.471191,85.266495,29.373468,14.603656,4.867512,124.468430,6.504871,4.070011,1.070589,0.434941,12.312736,10.747540,2.489514,1.215959,0.414829,26.897604,11.172250,4.062342,1.410242,0.465542
1577421886.693827,50.000000,0.000000,4161.025879,4346.666504,4202.051270,4142.563965,4173.333496,0.000000,4.000000,,,,0.000000,4.000000,4.000000,4.000000,4.000000,4.000000,,,,,,,,,,,,,,,,,,,,,,,,,
1577421886.701733,51.000000,0.000000,4144.102539,4350.769043,4169.230957,4120.512695,4155.897461,0.000000,4.000000,,,,0.000000,4.000000,4.000000,4.000000,4.000000,4.000000,,,,,,,,,,,,,,,,,,,,,,,,,
1577421886.709538,52.000000,0.000000,4135.897461,4331.794922,4145.128418,4108.717773,4148.717773,0.000000,4.000000,,,,0.000000,4.000000,4.000000,4.000000,4.000000,4.000000,,,,,,,,,,,,,,,,,,,,,,,,,
1577421886.717343,53.000000,0.000000,4140.512695,4331.794922,4139.487305,4117.948730,4153.846191,0.000000,4.000000,,,,0.000000,4.000000,4.000000,4.000000,4.000000,4.000000,,,,,,,,,,,,,,,,,,,,,,,,,
1577421886.725048,54.000000,0.000000,4147.179688,4352.820313,4136.922852,4127.179688,4160.000000,0.000000,4.000000,,,,0.000000,4.000000,4.000000,4.000000,4.000000,4.000000,,,,,,,,,,,,,,,,,,,,,,,,,
1577421886.732852,55.000000,0.000000,4150.256348,4348.717773,4127.692383,4125.128418,4155.897461,0.000000,4.000000,,,,0.000000,4.000000,4.000000,4.000000,4.000000,4.000000,,,,,,,,,,,,,,,,,,,,,,,,,
1577421886.740556,56.000000,0.000000,4141.538574,4329.230957,4123.589844,4115.384766,4143.077148,0.000000,4.000000,,,,0.000000,4.000000,4.000000,4.000000,4.000000,4.000000,,,,,,,,,,,,,,,,,,,,,,,,,
1577421886.748360,57.000000,0.000000,4135.384766,4331.282227,4135.897461,4116.922852,4145.641113,0.000000,4.000000,,,,0.000000,4.000000,4.000000,4.000000,4.000000,4.000000,,,,,,,,,,,,,,,,,,,,,,,,,
1577421886.756164,58.000000,0.000000,4149.230957,4332.307617,4146.153809,4133.333496,4165.128418,0.000000,4.000000,,,,0.000000,4.000000,4.000000,4.000000,4.000000,4.000000,,,,,,,,,,,,,,,,,,,,,,,,,
1577421886.763870,59.000000,0.000000,4150.769043,4317.436035,4143.077148,4132.307617,4166.666504,0.000000,4.000000,,,,0.000000,4.000000,4.000000,4.000000,4.000000,4.000000,,,,,,,,,,,,,,,,,,,,,,,,,
1577421886.771776,60.000000,0.000000,4141.538574,4324.615234,4162.563965,4120.512695,4161.538574,0.000000,4.000000,,,,0.000000,4.000000,4.000000,4.000000,4.000000,4.000000,,,,,,,,,,,,,,,,,,,,,,,,,
1577421886.779582,61.000000,0.000000,4151.794922,4347.179688,4200.000000,4128.205078,4173.333496,0.000000,4.000000,,,,0.000000,4.000000,4.000000,4.000000,4.000000,4.000000,,,,,,,,,,,,,,,,,,,,,,,,,
1577421886.787388,62.000000,0.000000,4157.948730,4342.563965,4208.205078,4133.846191,4180.512695,0.000000,4.000000,,,,0.000000,4.000000,4.000000,4.000000,4.000000,4.000000,,,,,,,,,,,,,,,,,,,,,,,,,
1577421886.795194,63.000000,0.000000,4161.538574,4337.436035,4207.179688,4134.358887,4178.461426,0.000000,4.000000,,,,0.000000,4.000000,4.000000,4.000000,4.000000,4.000000,,,,,,,,,,,,,,,,,,,,,,,,,
1577421886.802898,64.000000,0.000000,4177.948730,4353.846191,4223.589844,4151.794922,4186.666504,450.000000,4.000000,,,,0.000000,4.000000,4.000000,4.000000,4.000000,4.000000,,,,,,,,,,,,,,,,,,,,,,,,,
1577421886.810702,65.000000,0.000000,4175.897461,4352.307617,4226.153809,4154.871582,4192.307617,450.000000,4.000000,,,,0.000000,4.000000,4.000000,4.000000,4.000000,4.000000,1422.119141,433.964691,37.452679,3.372162,0.785940,440.604950,69.663116,24.554638,12.548135,4.139276,109.544853,6.837225,3.723084,1.143292,0.466428,14.136456,12.466253,2.530932,1.136326,0.417783,25.122320,8.686417,4.555411,1.303349,0.480770
1577421886.818405,66.000000,0.000000,4148.205078,4327.179688,4205.128418,4129.230957,4166.666504,16226.000000,4.000000,,,,0.000000,4.000000,4.000000,4.000000,4.000000,4.000000,,,,,,,,,,,,,,,,,,,,,,,,,
1577421886.826209,67.000000,0.000000,4144.102539,4320.512695,4197.948730,4129.230957,4154.358887,450.000000,4.000000,,,,0.000000,4.000000,4.000000,4.000000,4.000000,4.000000,,,,,,,,,,,,,,,,,,,,,,,,,
1577421886.833913,68.000000,0.000000,4172.307617,4341.025879,4206.666504,4159.487305,4182.563965,16204.000000,4.000000,,,,0.000000,4.000000,4.000000,4.000000,4.000000,4.000000,,,,,,,,,,,,,,,,,,,,,,,,,
1577421886.841717,69.000000,0.000000,4177.436035,4351.794922,4190.769043,4166.153809,4189.743652,450.000000,4.000000,,,,0.000000,4.000000,4.000000,4.000000,4.000000,4.000000,,,,,,,,,,,,,,,,,,,,,,,,,
1577421886.849420,70.000000,0.000000,4160.512695,4339.487305,4162.563965,4159.487305,4173.333496,16180.000000,4.000000,,,,0.000000,4.000000,4.000000,4.000000,4.000000,4.000000,,,,,,,,,,,,,,,,,,,,,,,,,
1577421886.857224,71.000000,0.000000,4165.641113,4329.743652,4148.205078,4169.230957,4180.512695,450.000000,4.000000,,,,0.000000,4.000000,4.000000,4.000000,4.000000,4.000000,,,,,,,,,,,,,,,,,,,,,,,,,
1577421886.864927,72.000000,0.000000,4173.846191,4328.717773,4124.615234,4169.743652,4189.230957,450.000000,4.000000,,,,0.000000,4.000000,4.000000,4.000000,4.000000,4.000000,,,,,,,,,,,,,,,,,,,,,,,,,
1577421886.872832,73.000000,0.000000,4158.974121,4325.641113,4085.641113,4149.743652,4175.384766,16158.000000,4.000000,,,,0.000000,4.000000,4.000000,4.000000,4.000000,4.000000,,,,,,,,,,,,,,,,,,,,,,,,,
1577421886.880636,74.000000,0.000000,4149.743652,4323.077148,4058.461426,4135.897461,4168.717773,450.000000,4.000000,,,,0.000000,4.000000,4.000000,4.000000,4.000000,4.000000,,,,,,,,,,,,,,,,,,,,,,,,,
1577421886.888441,75.000000,0.000000,4163.077148,4319.487305,4048.718018,4144.102539,4185.128418,16219.000000,4.000000,,,,0.000000,4.000000,4.000000,4.000000,4.000000,4.000000,,,,,,,,,,,,,,,,,,,,,,,,,
1577421886.896144,76.000000,0.000000,4163.077148,4304.102539,4031.281982,4149.230957,4187.179688,450.000000,4.000000,,,,0.000000,4.000000,4.000000,4.000000,4.000000,4.000000,,,,,,,,,,,,,,,,,,,,,,,,,
1577421886.904048,77.000000,0.000000,4137.436035,4281.538574,4003.589844,4127.692383,4164.615234,450.000000,4.000000,,,,0.000000,4.000000,4.000000,4.000000,4.000000,4.000000,,,,,,,,,,,,,,,,,,,,,,,,,
1577421886.911853,78.000000,0.000000,4121.025879,4279.487305,4000.000000,4118.461426,4160.512695,450.000000,4.000000,,,,0.000000,4.000000,4.000000,4.000000,4.000000,4.000000,,,,,,,,,,,,,,,,,,,,,,,,,
1577421886.919757,79.000000,0.000000,4117.948730,4284.615234,4018.974365,4128.205078,4161.025879,16219.000000,4.000000,,,,0.000000,4.000000,4.000000,4.000000,4.000000,4.000000,,,,,,,,,,,,,,,,,,,,,,,,,
1577421886.927561,80.000000,0.000000,4100.512695,4265.641113,4024.615479,4125.128418,4142.563965,450.000000,4.000000,,,,0.000000,4.000000,4.000000,4.000000,4.000000,4.000000,,,,,,,,,,,,,,,,,,,,,,,,,
