title:a1, start timestamp:2019-12-27T07:42:10.601720+03:00, stop timestamp:2019-12-27T07:42:40.957997+03:00, headset type:INSIGHT, headset serial:A2D200FB, headset firmware:930, subject name:Qasim, channels:44, sampling rate:eeg_128;pow_8, samples:3894      , version:2.0
Timestamp,EEG.Counter,EEG.Interpolated,EEG.AF3,EEG.T7,EEG.Pz,EEG.T8,EEG.AF4,EEG.RawCq,EEG.Battery,MarkerIndex,MarkerType,MarkerValueInt,EEG.MarkerHardware,CQ.AF3,CQ.T7,CQ.Pz,CQ.T8,CQ.AF4,POW.AF3.Theta,POW.AF3.Alpha,POW.AF3.BetaL,POW.AF3.BetaH,POW.AF3.Gamma,POW.T7.Theta,POW.T7.Alpha,POW.T7.BetaL,POW.T7.BetaH,POW.T7.Gamma,POW.Pz.Theta,POW.Pz.Alpha,POW.Pz.BetaL,POW.Pz.BetaH,POW.Pz.Gamma,POW.T8.Theta,POW.T8.Alpha,POW.T8.BetaL,POW.T8.BetaH,POW.T8.Gamma,POW.AF4.Theta,POW.AF4.Alpha,POW.AF4.BetaL,POW.AF4.BetaH,POW.AF4.Gamma
1577421730.601720,14.000000,0.000000,4216.410156,4259.487305,4187.179688,4088.205078,4203.589844,450.000000,4.000000,,,,0.000000,4.000000,4.000000,4.000000,4.000000,4.000000,,,,,,,,,,,,,,,,,,,,,,,,,
1577421730.609420,15.000000,0.000000,4217.948730,4253.846191,4182.051270,4098.974121,4209.230957,16249.000000,4.000000,,,,0.000000,4.000000,4.000000,4.000000,4.000000,4.000000,,,,,,,,,,,,,,,,,,,,,,,,,
1577421730.617220,16.000000,0.000000,4211.794922,4252.307617,4165.128418,4102.051270,4214.871582,0.000000,4.000000,,,,0.000000,4.000000,4.000000,4.000000,4.000000,4.000000,,,,,,,,,,,,,,,,,,,,,,,,,
1577421730.624920,17.000000,0.000000,4216.410156,4252.820313,4158.974121,4105.128418,4223.077148,0.000000,4.000000,,,,0.000000,4.000000,4.000000,4.000000,4.000000,4.000000,,,,,,,,,,,,,,,,,,,,,,,,,
1577421730.632821,18.000000,0.000000,4231.794922,4253.333496,4165.641113,4108.717773,4227.692383,0.000000,4.000000,,,,0.000000,4.000000,4.000000,4.000000,4.000000,4.000000,,,,,,,,,,,,,,,,,,,,,,,,,
1577421730.640622,19.000000,0.000000,4245.641113,4262.563965,4164.102539,4106.153809,4234.358887,0.000000,4.000000,,,,0.000000,4.000000,4.000000,4.000000,4.000000,4.000000,,,,,,,,,,,,,,,,,,,,,,,,,
1577421730.648522,20.000000,0.000000,4245.641113,4267.692383,4162.051270,4098.974121,4230.769043,0.000000,4.000000,,,,0.000000,4.000000,4.000000,4.000000,4.000000,4.000000,,,,,,,,,,,,,,,,,,,,,,,,,
1577421730.656323,21.000000,0.000000,4227.179688,4258.461426,4159.487305,4101.025879,4212.820313,0.000000,4.000000,,,,0.000000,4.000000,4.000000,4.000000,4.000000,4.000000,,,,,,,,,,,,,,,,,,,,,,,,,
1577421730.664224,22.000000,0.000000,4239.487305,4273.846191,4162.563965,4133.846191,4235.384766,0.000000,4.000000,,,,0.000000,4.000000,4.000000,4.000000,4.000000,4.000000,,,,,,,,,,,,,,,,,,,,,,,,,
1577421730.672025,23.000000,0.000000,4251.794922,4280.000000,4149.743652,4138.461426,4248.205078,0.000000,4.000000,,,,0.000000,4.000000,4.000000,4.000000,4.000000,4.000000,,,,,,,,,,,,,,,,,,,,,,,,,
1577421730.679825,24.000000,0.000000,4249.743652,4264.102539,4124.615234,4121.025879,4235.897461,0.000000,4.000000,,,,0.000000,4.000000,4.000000,4.000000,4.000000,4.000000,,,,,,,,,,,,,,,,,,,,,,,,,
1577421730.687626,25.000000,0.000000,4273.846191,4261.538574,4128.717773,4142.051270,4254.871582,0.000000,4.000000,,,,0.000000,4.000000,4.000000,4.000000,4.000000,4.000000,8.183461,2.399329,2.801223,4.154152,1.533639,6.378159,1.586264,1.283943,1.469897,1.072996,12.835330,2.826511,2.427665,3.628109,1.313082,5.051390,3.300295,2.827382,3.366849,1.079432,6.982120,3.442479,3.228991,3.876117,1.411524
1577421730.695327,26.000000,0.000000,4283.589844,4250.256348,4128.717773,4147.692383,4245.128418,0.000000,4.000000,,,,0.000000,4.000000,4.000000,4.000000,4.000000,4.000000,,,,,,,,,,,,,,,,,,,,,,,,,
1577421730.703127,27.000000,0.000000,4273.846191,4241.538574,4117.436035,4127.692383,4220.512695,0.000000,4.000000,,,,0.000000,4.000000,4.000000,4.000000,4.000000,4.000000,,,,,,,,,,,,,,,,,,,,,,,,,
1577421730.710828,28.000000,0.000000,4270.769043,4236.922852,4112.307617,4121.538574,4220.512695,0.000000,4.000000,,,,0.000000,4.000000,4.000000,4.000000,4.000000,4.000000,,,,,,,,,,,,,,,,,,,,,,,,,
1577421730.718628,29.000000,0.000000,4277.948730,4226.153809,4101.538574,4125.128418,4224.102539,0.000000,4.000000,,,,0.000000,4.000000,4.000000,4.000000,4.000000,4.000000,,,,,,,,,,,,,,,,,,,,,,,,,
1577421730.726329,30.000000,0.000000,4308.717773,4226.666504,4090.256348,4124.102539,4234.358887,0.000000,4.000000,,,,0.000000,4.000000,4.000000,4.000000,4.000000,4.000000,,,,,,,,,,,,,,,,,,,,,,,,,
1577421730.734129,31.000000,0.000000,4319.487305,4209.743652,4070.256348,4105.641113,4220.000000,0.000000,4.000000,,,,0.000000,4.000000,4.000000,4.000000,4.000000,4.000000,,,,,,,,,,,,,,,,,,,,,,,,,
1577421730.741830,32.000000,0.000000,4346.666504,4209.230957,4075.384521,4110.256348,4229.743652,0.000000,4.000000,,,,0.000000,4.000000,4.000000,4.000000,4.000000,4.000000,,,,,,,,,,,,,,,,,,,,,,,,,
1577421730.749630,33.000000,0.000000,4423.077148,4233.333496,4101.025879,4129.743652,4283.077148,0.000000,4.000000,,,,0.000000,4.000000,4.000000,4.000000,4.000000,4.000000,,,,,,,,,,,,,,,,,,,,,,,,,
1577421730.757330,34.000000,0.000000,4487.179688,4233.846191,4105.641113,4127.692383,4316.922852,0.000000,4.000000,,,,0.000000,4.000000,4.000000,4.000000,4.000000,4.000000,,,,,,,,,,,,,,,,,,,,,,,,,
1577421730.765131,35.000000,0.000000,4566.153809,4234.358887,4122.563965,4135.897461,4370.769043,0.000000,4.000000,,,,0.000000,4.000000,4.000000,4.000000,4.000000,4.000000,,,,,,,,,,,,,,,,,,,,,,,,,
1577421730.772831,36.000000,0.000000,4637.948730,4236.922852,4131.794922,4142.563965,4428.717773,0.000000,4.000000,,,,0.000000,4.000000,4.000000,4.000000,4.000000,4.000000,,,,,,,,,,,,,,,,,,,,,,,,,
1577421730.780732,37.000000,0.000000,4657.948730,4242.051270,4123.589844,4134.358887,4445.641113,0.000000,4.000000,,,,0.000000,4.000000,4.000000,4.000000,4.000000,4.000000,,,,,,,,,,,,,,,,,,,,,,,,,
1577421730.788533,38.000000,0.000000,4670.256348,4263.589844,4146.666504,4131.794922,4451.794922,0.000000,4.000000,,,,0.000000,4.000000,4.000000,4.000000,4.000000,4.000000,,,,,,,,,,,,,,,,,,,,,,,,,
1577421730.796334,39.000000,0.000000,4675.897461,4274.358887,4183.077148,4144.615234,4450.256348,0.000000,4.000000,,,,0.000000,4.000000,4.000000,4.000000,4.000000,4.000000,,,,,,,,,,,,,,,,,,,,,,,,,
1577421730.804035,40.000000,0.000000,4674.871582,4286.666504,4206.153809,4158.974121,4454.358887,0.000000,4.000000,,,,0.000000,4.000000,4.000000,4.000000,4.000000,4.000000,,,,,,,,,,,,,,,,,,,,,,,,,
1577421730.811935,41.000000,0.000000,4658.461426,4298.461426,4196.922852,4135.897461,4449.230957,0.000000,4.000000,,,,0.000000,4.000000,4.000000,4.000000,4.000000,4.000000,9.215608,2.019606,2.323651,4.154103,1.351520,7.117290,1.402487,1.392763,1.577699,0.956384,8.719543,1.874459,2.179924,3.633382,1.200056,6.260599,3.485770,2.526129,3.274696,0.901491,7.702358,3.677131,3.258195,3.966046,1.231952
1577421730.819737,42.000000,0.000000,4647.692383,4307.179688,4185.641113,4127.692383,4437.948730,0.000000,4.000000,,,,0.000000,4.000000,4.000000,4.000000,4.000000,4.000000,,,,,,,,,,,,,,,,,,,,,,,,,
1577421730.827637,43.000000,0.000000,4678.461426,4320.512695,4205.128418,4154.871582,4465.128418,0.000000,4.000000,,,,0.000000,4.000000,4.000000,4.000000,4.000000,4.000000,,,,,,,,,,,,,,,,,,,,,,,,,
1577421730.835438,44.000000,0.000000,4686.666504,4314.358887,4202.563965,4161.538574,4477.948730,0.000000,4.000000,,,,0.000000,4.000000,4.000000,4.000000,4.000000,4.000000,,,,,,,,,,,,,,,,,,,,,,,,,
1577421730.843339,45.000000,0.000000,4674.871582,4321.025879,4179.487305,4163.077148,4463.589844,0.000000,4.000000,,,,0.000000,4.000000,4.000000,4.000000,4.000000,4.000000,,,,,,,,,,,,,,,,,,,,,,,,,
1577421730.851140,46.000000,0.000000,4676.922852,4332.307617,4166.153809,4160.512695,4465.641113,0.000000,4.000000,,,,0.000000,4.000000,4.000000,4.000000,4.000000,4.000000,,,,,,,,,,,,,,,,,,,,,,,,,
1577421730.859040,47.000000,0.000000,4675.897461,4305.641113,4158.461426,4167.179688,4473.846191,0.000000,4.000000,,,,0.000000,4.000000,4.000000,4.000000,4.000000,4.000000,,,,,,,,,,,,,,,,,,,,,,,,,
1577421730.866841,48.000000,0.000000,4681.025879,4280.512695,4167.179688,4180.512695,4478.974121,0.000000,4.000000,,,,0.000000,4.000000,4.000000,4.000000,4.000000,4.000000,,,,,,,,,,,,,,,,,,,,,,,,,
1577421730.874742,49.000000,0.000000,4660.000000,4255.384766,4158.974121,4157.436035,4469.230957,0.000000,4.000000,,,,0.000000,4.000000,4.000000,4.000000,4.000000,4.000000,,,,,,,,,,,,,,,,,,,,,,,,,
1577421730.882542,50.000000,0.000000,4648.717773,4247.692383,4161.538574,4160.000000,4472.820313,0.000000,4.000000,,,,0.000000,4.000000,4.000000,4.000000,4.000000,4.000000,,,,,,,,,,,,,,,,,,,,,,,,,
1577421730.890243,51.000000,0.000000,4655.384766,4253.333496,4173.846191,4163.589844,4466.666504,0.000000,4.000000,,,,0.000000,4.000000,4.000000,4.000000,4.000000,4.000000,,,,,,,,,,,,,,,,,,,,,,,,,
1577421730.898043,52.000000,0.000000,4595.384766,4205.641113,4126.153809,4126.153809,4425.128418,0.000000,4.000000,,,,0.000000,4.000000,4.000000,4.000000,4.000000,4.000000,,,,,,,,,,,,,,,,,,,,,,,,,
1577421730.905744,53.000000,0.000000,4650.769043,4255.897461,4192.820313,4191.282227,4490.769043,0.000000,4.000000,,,,0.000000,4.000000,4.000000,4.000000,4.000000,4.000000,,,,,,,,,,,,,,,,,,,,,,,,,
1577421730.913545,54.000000,0.000000,4650.769043,4248.717773,4194.358887,4134.871582,4446.666504,0.000000,4.000000,,,,0.000000,4.000000,4.000000,4.000000,4.000000,4.000000,,,,,,,,,,,,,,,,,,,,,,,,,
1577421730.921245,55.000000,0.000000,4483.077148,4114.871582,4036.923096,4068.205078,4347.179688,0.000000,4.000000,,,,0.000000,4.000000,4.000000,4.000000,4.000000,4.000000,,,,,,,,,,,,,,,,,,,,,,,,,
1577421730.929046,56.000000,0.000000,4786.153809,4373.333496,4312.820313,4307.179688,4628.717773,0.000000,4.000000,,,,0.000000,4.000000,4.000000,4.000000,4.000000,4.000000,,,,,,,,,,,,,,,,,,,,,,,,,
1577421730.936746,57.000000,0.000000,4801.538574,4360.000000,4327.179688,4104.102539,4494.871582,0.000000,4.000000,,,,0.000000,4.000000,4.000000,4.000000,4.000000,4.000000,10.748643,2.108706,2.063181,3.793087,1.248615,7.795465,1.402077,1.541433,1.577689,0.911694,6.980035,1.210796,1.983316,3.286181,1.151765,7.399716,3.644486,2.449552,2.931713,0.858629,8.484975,3.992620,3.437989,3.750263,1.126886
1577421730.944547,58.000000,0.000000,4428.205078,4072.307617,4007.692383,3974.358887,4258.461426,0.000000,4.000000,,,,0.000000,4.000000,4.000000,4.000000,4.000000,4.000000,,,,,,,,,,,,,,,,,,,,,,,,,
1577421730.952247,59.000000,0.000000,4654.358887,4289.230957,4225.128418,4301.538574,4565.641113,0.000000,4.000000,,,,0.000000,4.000000,4.000000,4.000000,4.000000,4.000000,,,,,,,,,,,,,,,,,,,,,,,,,
1577421730.960148,60.000000,0.000000,4675.384766,4292.820313,4257.436035,4145.641113,4475.384766,0.000000,4.000000,,,,0.000000,4.000000,4.000000,4.000000,4.000000,4.000000,,,,,,,,,,,,,,,,,,,,,,,,,
1577421730.967949,61.000000,0.000000,4534.871582,4182.563965,4145.641113,4088.205078,4373.846191,0.000000,4.000000,,,,0.000000,4.000000,4.000000,4.000000,4.000000,4.000000,,,,,,,,,,,,,,,,,,,,,,,,,
1577421730.975850,62.000000,0.000000,4635.384766,4272.307617,4239.487305,4217.436035,4486.153809,0.000000,4.000000,,,,0.000000,4.000000,4.000000,4.000000,4.000000,4.000000,,,,,,,,,,,,,,,,,,,,,,,,,
1577421730.983651,63.000000,0.000000,4561.538574,4216.922852,4191.282227,4122.563965,4390.256348,0.000000,4.000000,,,,0.000000,4.000000,4.000000,4.000000,4.000000,4.000000,,,,,,,,,,,,,,,,,,,,,,,,,
1577421730.991452,64.000000,0.000000,4580.000000,4235.384766,4210.256348,4165.128418,4432.307617,450.000000,4.000000,,,,0.000000,4.000000,4.000000,4.000000,4.000000,4.000000,,,,,,,,,,,,,,,,,,,,,,,,,
1577421730.999152,65.000000,0.000000,4608.717773,4251.282227,4226.153809,4173.333496,4456.410156,450.000000,4.000000,,,,0.000000,4.000000,4.000000,4.000000,4.000000,4.000000,,,,,,,,,,,,,,,,,,,,,,,,,
1577421731.006953,66.000000,0.000000,4573.333496,4233.846191,4204.615234,4151.794922,4433.333496,16220.000000,4.000000,,,,0.000000,4.000000,4.000000,4.000000,4.000000,4.000000,,,,,,,,,,,,,,,,,,,,,,,,,
1577421731.014653,67.000000,0.000000,4577.436035,4250.256348,4210.769043,4159.487305,4443.077148,450.000000,4.000000,,,,0.000000,4.000000,4.000000,4.000000,4.000000,4.000000,,,,,,,,,,,,,,,,,,,,,,,,,
1577421731.022553,68.000000,0.000000,4557.436035,4242.563965,4181.538574,4124.102539,4409.230957,16219.000000,4.000000,,,,0.000000,4.000000,4.000000,4.000000,4.000000,4.000000,,,,,,,,,,,,,,,,,,,,,,,,,
1577421731.030354,69.000000,0.000000,4543.077148,4241.025879,4168.205078,4114.871582,4395.384766,450.000000,4.000000,,,,0.000000,4.000000,4.000000,4.000000,4.000000,4.000000,,,,,,,,,,,,,,,,,,,,,,,,,
1577421731.038155,70.000000,0.000000,4520.000000,4235.384766,4164.102539,4116.922852,4382.563965,16160.000000,4.000000,,,,0.000000,4.000000,4.000000,4.000000,4.000000,4.000000,,,,,,,,,,,,,,,,,,,,,,,,,
1577421731.045855,71.000000,0.000000,4513.846191,4245.641113,4162.563965,4123.589844,4375.897461,450.000000,4.000000,,,,0.000000,4.000000,4.000000,4.000000,4.000000,4.000000,,,,,,,,,,,,,,,,,,,,,,,,,
1577421731.053756,72.000000,0.000000,4536.922852,4269.743652,4184.102539,4149.230957,4397.436035,450.000000,4.000000,,,,0.000000,4.000000,4.000000,4.000000,4.000000,4.000000,,,,,,,,,,,,,,,,,,,,,,,,,
1577421731.061557,73.000000,0.000000,4522.051270,4272.307617,4199.487305,4150.256348,4392.820313,16167.000000,4.000000,,,,0.000000,4.000000,4.000000,4.000000,4.000000,4.000000,14.713075,3.144825,2.148278,3.195157,1.156769,8.791859,1.602667,1.654820,1.479821,0.868388,7.282681,0.904331,1.848032,2.718920,1.100283,8.257410,3.663872,2.509902,2.454608,0.849832,10.204447,4.670544,3.671097,3.307451,1.030308
1577421731.069457,74.000000,0.000000,4497.948730,4271.282227,4205.641113,4140.000000,4379.487305,450.000000,4.000000,,,,0.000000,4.000000,4.000000,4.000000,4.000000,4.000000,,,,,,,,,,,,,,,,,,,,,,,,,
1577421731.077258,75.000000,0.000000,4510.769043,4271.794922,4216.922852,4147.692383,4388.717773,16282.000000,4.000000,,,,0.000000,4.000000,4.000000,4.000000,4.000000,4.000000,,,,,,,,,,,,,,,,,,,,,,,,,
1577421731.085159,76.000000,0.000000,4513.333496,4274.358887,4218.974121,4146.666504,4392.820313,450.000000,4.000000,,,,0.000000,4.000000,4.000000,4.000000,4.000000,4.000000,,,,,,,,,,,,,,,,,,,,,,,,,
1577421731.093060,77.000000,0.000000,4505.641113,4289.743652,4214.871582,4141.538574,4389.743652,450.000000,4.000000,,,,0.000000,4.000000,4.000000,4.000000,4.000000,4.000000,,,,,,,,,,,,,,,,,,,,,,,,,
1577421731.100862,78.000000,0.000000,4516.922852,4293.846191,4211.282227,4152.307617,4399.487305,450.000000,4.000000,,,,0.000000,4.000000,4.000000,4.000000,4.000000,4.000000,,,,,,,,,,,,,,,,,,,,,,,,,
1577421731.108663,79.000000,0.000000,4526.153809,4284.102539,4206.666504,4157.436035,4411.794922,16282.000000,4.000000,,,,0.000000,4.000000,4.000000,4.000000,4.000000,4.000000,,,,,,,,,,,,,,,,,,,,,,,,,
1577421731.116364,80.000000,0.000000,4517.436035,4280.512695,4195.897461,4140.512695,4402.563965,450.000000,4.000000,,,,0.000000,4.000000,4.000000,4.000000,4.000000,4.000000,,,,,,,,,,,,,,,,,,,,,,,,,
1577421731.124265,81.000000,0.000000,4516.410156,4282.051270,4180.512695,4126.666504,4395.897461,450.000000,4.000000,,,,0.000000,4.000000,4.000000,4.000000,4.000000,4.000000,,,,,,,,,,,,,,,,,,,,,,,,,
1577421731.132167,82.000000,0.000000,4521.025879,4289.743652,4173.846191,4131.282227,4404.615234,450.000000,4.000000,,,,0.000000,4.000000,4.000000,4.000000,4.000000,4.000000,,,,,,,,,,,,,,,,,,,,,,,,,
1577421731.139969,83.000000,0.000000,4513.846191,4295.897461,4180.512695,4132.307617,4399.487305,16282.000000,4.000000,,,,0.000000,4.000000,4.000000,4.000000,4.000000,4.000000,,,,,,,,,,,,,,,,,,,,,,,,,
1577421731.147872,84.000000,0.000000,4511.794922,4288.205078,4186.153809,4132.307617,4394.358887,450.000000,4.000000,,,,0.000000,4.000000,4.000000,4.000000,4.000000,4.000000,,,,,,,,,,,,,,,,,,,,,,,,,
1577421731.155674,85.000000,0.000000,4515.384766,4283.589844,4184.102539,4141.025879,4401.538574,450.000000,4.000000,,,,0.000000,4.000000,4.000000,4.000000,4.000000,4.000000,,,,,,,,,,,,,,,,,,,,,,,,,
1577421731.163576,86.000000,0.000000,4507.692383,4286.666504,4181.025879,4142.563965,4397.948730,450.000000,4.000000,,,,0.000000,4.000000,4.000000,4.000000,4.000000,4.000000,,,,,,,,,,,,,,,,,,,,,,,,,
1577421731.171378,87.000000,0.000000,4499.487305,4276.410156,4182.051270,4136.922852,4383.589844,16282.000000,4.000000,,,,0.000000,4.000000,4.000000,4.000000,4.000000,4.000000,,,,,,,,,,,,,,,,,,,,,,,,,
1577421731.179280,88.000000,0.000000,4489.230957,4263.589844,4178.974121,4132.820313,4373.846191,450.000000,4.000000,,,,0.000000,4.000000,4.000000,4.000000,4.000000,4.000000,,,,,,,,,,,,,,,,,,,,,,,,,
1577421731.187182,89.000000,0.000000,4482.563965,4273.846191,4172.307617,4135.384766,4380.512695,450.000000,4.000000,,,,0.000000,4.000000,4.000000,4.000000,4.000000,4.000000,23.386604,5.576588,2.770229,2.592755,1.395798,10.665650,2.043142,1.703016,1.342644,1.029849,9.109335,0.970179,1.749919,2.164492,1.292273,8.543290,3.465076,2.536408,1.991045,1.080403,13.345731,6.021204,3.923962,2.798010,1.206143
1577421731.194985,90.000000,0.000000,4491.282227,4291.282227,4165.641113,4144.102539,4387.179688,450.000000,4.000000,,,,0.000000,4.000000,4.000000,4.000000,4.000000,4.000000,,,,,,,,,,,,,,,,,,,,,,,,,
1577421731.202788,91.000000,0.000000,4491.794922,4296.922852,4156.410156,4148.205078,4380.000000,16282.000000,4.000000,,,,0.000000,4.000000,4.000000,4.000000,4.000000,4.000000,,,,,,,,,,,,,,,,,,,,,,,,,
1577421731.210689,92.000000,0.000000,4494.871582,4308.717773,4162.563965,4154.358887,4392.820313,450.000000,4.000000,,,,0.000000,4.000000,4.000000,4.000000,4.000000,4.000000,,,,,,,,,,,,,,,,,,,,,,,,,
1577421731.218592,93.000000,0.000000,4507.692383,4310.769043,4171.794922,4161.538574,4411.282227,450.000000,4.000000,,,,0.000000,4.000000,4.000000,4.000000,4.000000,4.000000,,,,,,,,,,,,,,,,,,,,,,,,,
1577421731.226395,94.000000,0.000000,4495.897461,4287.692383,4162.051270,4152.820313,4398.974121,450.000000,4.000000,,,,0.000000,4.000000,4.000000,4.000000,4.000000,4.000000,,,,,,,,,,,,,,,,,,,,,,,,,
1577421731.234297,95.000000,0.000000,4478.974121,4280.000000,4155.384766,4135.897461,4386.153809,16282.000000,4.000000,,,,0.000000,4.000000,4.000000,4.000000,4.000000,4.000000,,,,,,,,,,,,,,,,,,,,,,,,,
1577421731.242100,96.000000,0.000000,4481.025879,4281.025879,4154.871582,4126.666504,4384.615234,450.000000,4.000000,,,,0.000000,4.000000,4.000000,4.000000,4.000000,4.000000,,,,,,,,,,,,,,,,,,,,,,,,,
1577421731.250002,97.000000,0.000000,4471.794922,4263.077148,4147.179688,4123.589844,4373.846191,450.000000,4.000000,,,,0.000000,4.000000,4.000000,4.000000,4.000000,4.000000,,,,,,,,,,,,,,,,,,,,,,,,,
1577421731.257804,98.000000,0.000000,4447.179688,4250.769043,4144.615234,4117.948730,4353.333496,450.000000,4.000000,,,,0.000000,4.000000,4.000000,4.000000,4.000000,4.000000,,,,,,,,,,,,,,,,,,,,,,,,,
1577421731.265707,99.000000,0.000000,4435.897461,4253.333496,4149.743652,4108.205078,4340.512695,16282.000000,4.000000,,,,0.000000,4.000000,4.000000,4.000000,4.000000,4.000000,,,,,,,,,,,,,,,,,,,,,,,,,
1577421731.273509,100.000000,0.000000,4435.897461,4251.282227,4152.307617,4103.077148,4332.820313,450.000000,4.000000,,,,0.000000,4.000000,4.000000,4.000000,4.000000,4.000000,,,,,,,,,,,,,,,,,,,,,,,,,
1577421731.281412,101.000000,0.000000,4430.769043,4241.538574,4154.358887,4110.256348,4322.051270,450.000000,4.000000,,,,0.000000,4.000000,4.000000,4.000000,4.000000,4.000000,,,,,,,,,,,,,,,,,,,,,,,,,
1577421731.289214,102.000000,0.000000,4430.769043,4241.538574,4165.128418,4127.692383,4323.589844,450.000000,4.000000,,,,0.000000,4.000000,4.000000,4.000000,4.000000,4.000000,,,,,,,,,,,,,,,,,,,,,,,,,
1577421731.297116,103.000000,0.000000,4427.179688,4256.410156,4185.128418,4136.922852,4324.615234,16282.000000,4.000000,,,,0.000000,4.000000,4.000000,4.000000,4.000000,4.000000,,,,,,,,,,,,,,,,,,,,,,,,,
1577421731.304919,104.000000,0.000000,4405.128418,4256.922852,4190.256348,4125.641113,4305.128418,450.000000,4.000000,,,,0.000000,4.000000,4.000000,4.000000,4.000000,4.000000,,,,,,,,,,,,,,,,,,,,,,,,,
1577421731.312821,105.000000,0.000000,4401.025879,4241.538574,4183.077148,4118.974121,4298.974121,450.000000,4.000000,,,,0.000000,4.000000,4.000000,4.000000,4.000000,4.000000,37.563618,9.408980,4.034798,2.228358,2.557754,13.742897,2.703104,1.700077,1.247164,1.797113,12.102124,1.333130,1.684821,1.840368,2.204942,8.215506,3.100017,2.404217,1.658422,1.963899,18.175268,8.116541,4.201456,2.399369,2.142951
1577421731.320623,106.000000,0.000000,4406.153809,4237.436035,4181.538574,4117.948730,4302.051270,450.000000,4.000000,,,,0.000000,4.000000,4.000000,4.000000,4.000000,4.000000,,,,,,,,,,,,,,,,,,,,,,,,,
1577421731.328525,107.000000,0.000000,4391.794922,4246.153809,4181.538574,4103.589844,4291.282227,16282.000000,4.000000,,,,0.000000,4.000000,4.000000,4.000000,4.000000,4.000000,,,,,,,,,,,,,,,,,,,,,,,,,
1577421731.336428,108.000000,0.000000,4397.436035,4255.897461,4185.641113,4102.563965,4301.025879,450.000000,4.000000,,,,0.000000,4.000000,4.000000,4.000000,4.000000,4.000000,,,,,,,,,,,,,,,,,,,,,,,,,
1577421731.344231,109.000000,0.000000,4425.128418,4263.077148,4188.205078,4121.025879,4335.897461,450.000000,4.000000,,,,0.000000,4.000000,4.000000,4.000000,4.000000,4.000000,,,,,,,,,,,,,,,,,,,,,,,,,
1577421731.352034,110.000000,0.000000,4436.922852,4274.358887,4193.333496,4133.846191,4357.436035,450.000000,4.000000,,,,0.000000,4.000000,4.000000,4.000000,4.000000,4.000000,,,,,,,,,,,,,,,,,,,,,,,,,
1577421731.359936,111.000000,0.000000,4417.436035,4272.820313,4184.615234,4117.948730,4338.461426,16282.000000,4.000000,,,,0.000000,4.000000,4.000000,4.000000,4.000000,4.000000,,,,,,,,,,,,,,,,,,,,,,,,,
1577421731.367738,112.000000,0.000000,4368.717773,4243.589844,4150.769043,4086.153809,4298.974121,450.000000,4.000000,,,,0.000000,4.000000,4.000000,4.000000,4.000000,4.000000,,,,,,,,,,,,,,,,,,,,,,,,,
1577421731.375640,113.000000,0.000000,4360.512695,4247.179688,4158.461426,4102.563965,4301.025879,450.000000,4.000000,,,,0.000000,4.000000,4.000000,4.000000,4.000000,4.000000,,,,,,,,,,,,,,,,,,,,,,,,,
1577421731.383542,114.000000,0.000000,4395.897461,4279.487305,4199.487305,4140.512695,4328.205078,450.000000,4.000000,,,,0.000000,4.000000,4.000000,4.000000,4.000000,4.000000,,,,,,,,,,,,,,,,,,,,,,,,,
1577421731.391345,115.000000,0.000000,4388.717773,4271.282227,4192.820313,4135.384766,4313.846191,16282.000000,4.000000,,,,0.000000,4.000000,4.000000,4.000000,4.000000,4.000000,,,,,,,,,,,,,,,,,,,,,,,,,
1577421731.399248,116.000000,0.000000,4356.410156,4246.666504,4165.128418,4116.922852,4283.077148,450.000000,4.000000,,,,0.000000,4.000000,4.000000,4.000000,4.000000,4.000000,,,,,,,,,,,,,,,,,,,,,,,,,
1577421731.407151,117.000000,0.000000,4355.897461,4252.820313,4169.230957,4121.025879,4286.666504,450.000000,4.000000,,,,0.000000,4.000000,4.000000,4.000000,4.000000,4.000000,,,,,,,,,,,,,,,,,,,,,,,,,
1577421731.414955,118.000000,0.000000,4366.666504,4261.538574,4186.153809,4127.692383,4301.538574,450.000000,4.000000,,,,0.000000,4.000000,4.000000,4.000000,4.000000,4.000000,,,,,,,,,,,,,,,,,,,,,,,,,
1577421731.422859,119.000000,0.000000,4363.077148,4249.743652,4183.077148,4122.563965,4290.769043,16282.000000,4.000000,,,,0.000000,4.000000,4.000000,4.000000,4.000000,4.000000,,,,,,,,,,,,,,,,,,,,,,,,,
1577421731.430662,120.000000,0.000000,4362.563965,4249.743652,4175.384766,4118.461426,4281.538574,450.000000,4.000000,,,,0.000000,4.000000,4.000000,4.000000,4.000000,4.000000,,,,,,,,,,,,,,,,,,,,,,,,,
1577421731.438566,121.000000,0.000000,4374.871582,4266.666504,4181.538574,4125.128418,4300.000000,450.000000,4.000000,,,,0.000000,4.000000,4.000000,4.000000,4.000000,4.000000,54.796276,13.919098,5.833983,2.219789,5.061429,17.687141,3.439285,1.688203,1.251804,3.463094,15.823552,1.952769,1.697309,1.832746,4.181623,7.255311,2.723704,2.106913,1.498125,3.805219,23.329693,10.542714,4.511535,2.210593,4.187863
1577421731.446369,122.000000,0.000000,4370.256348,4258.461426,4182.563965,4124.102539,4308.205078,450.000000,4.000000,,,,0.000000,4.000000,4.000000,4.000000,4.000000,4.000000,,,,,,,,,,,,,,,,,,,,,,,,,
1577421731.454272,123.000000,0.000000,4346.153809,4233.333496,4164.615234,4102.563965,4288.205078,16282.000000,4.000000,,,,0.000000,4.000000,4.000000,4.000000,4.000000,4.000000,,,,,,,,,,,,,,,,,,,,,,,,,
1577421731.462176,124.000000,0.000000,4331.282227,4223.589844,4146.666504,4090.769287,4272.820313,450.000000,4.000000,,,,0.000000,4.000000,4.000000,4.000000,4.000000,4.000000,,,,,,,,,,,,,,,,,,,,,,,,,
1577421731.469981,125.000000,0.000000,4334.358887,4240.000000,4163.077148,4112.820313,4286.666504,450.000000,4.000000,,,,0.000000,4.000000,4.000000,4.000000,4.000000,4.000000,,,,,,,,,,,,,,,,,,,,,,,,,
1577421731.477885,126.000000,1.000000,4331.509766,4242.336426,4170.142578,4114.017090,4285.698242,2194.333252,4.000000,,,,0.000000,4.000000,4.000000,4.000000,4.000000,4.000000,,,,,,,,,,,,,,,,,,,,,,,,,
1577421731.485689,127.000000,1.000000,4328.661133,4244.672363,4177.208008,4115.213867,4284.729492,3938.666748,4.000000,,,,0.000000,4.000000,4.000000,4.000000,4.000000,4.000000,,,,,,,,,,,,,,,,,,,,,,,,,
1577421731.493493,0.000000,1.000000,4325.812012,4247.008789,4184.273438,4116.410156,4283.760742,450.000000,4.000000,,,,0.000000,4.000000,4.000000,4.000000,4.000000,4.000000,,,,,,,,,,,,,,,,,,,,,,,,,
1577421731.501297,1.000000,1.000000,4322.962891,4249.344727,4191.338867,4117.606934,4282.791992,450.000000,4.000000,,,,0.000000,4.000000,4.000000,4.000000,4.000000,4.000000,,,,,,,,,,,,,,,,,,,,,,,,,
1577421731.509101,2.000000,1.000000,4320.113770,4251.681152,4198.404785,4118.803223,4281.823242,16220.000000,4.000000,,,,0.000000,4.000000,4.000000,4.000000,4.000000,4.000000,,,,,,,,,,,,,,,,,,,,,,,,,
1577421731.516905,3.000000,1.000000,4317.265137,4254.017090,4205.470215,4120.000000,4280.854492,450.000000,4.000000,,,,0.000000,4.000000,4.000000,4.000000,4.000000,4.000000,,,,,,,,,,,,,,,,,,,,,,,,,
1577421731.524710,4.000000,1.000000,4314.416016,4256.353516,4212.535645,4121.196777,4279.886230,16219.000000,4.000000,,,,0.000000,4.000000,4.000000,4.000000,4.000000,4.000000,,,,,,,,,,,,,,,,,,,,,,,,,
1577421731.532514,5.000000,1.000000,4311.566895,4258.689453,4219.601074,4122.393066,4278.917480,450.000000,4.000000,,,,0.000000,4.000000,4.000000,4.000000,4.000000,4.000000,,,,,,,,,,,,,,,,,,,,,,,,,
1577421731.540318,6.000000,0.000000,4308.717773,4261.025879,4226.666504,4123.589844,4277.948730,16149.000000,4.000000,,,,0.000000,4.000000,4.000000,4.000000,4.000000,4.000000,,,,,,,,,,,,,,,,,,,,,,,,,
1577421731.548122,7.000000,0.000000,4312.820313,4257.436035,4214.871582,4121.538574,4283.077148,450.000000,4.000000,,,,0.000000,4.000000,4.000000,4.000000,4.000000,4.000000,,,,,,,,,,,,,,,,,,,,,,,,,
1577421731.555819,8.000000,0.000000,4303.589844,4250.769043,4206.153809,4121.025879,4281.025879,450.000000,4.000000,,,,0.000000,4.000000,4.000000,4.000000,4.000000,4.000000,,,,,,,,,,,,,,,,,,,,,,,,,
1577421731.563516,9.000000,0.000000,4293.846191,4244.615234,4204.102539,4120.000000,4270.769043,16164.000000,4.000000,,,,0.000000,4.000000,4.000000,4.000000,4.000000,4.000000,70.934425,17.885654,7.864694,2.512361,8.743890,21.525785,4.086896,1.725594,1.364116,5.929555,19.635342,2.778903,1.864074,2.067111,7.099027,5.944405,2.554020,1.763722,1.481290,6.499238,27.655636,12.636357,4.869495,2.210646,7.209285
1577421731.571314,10.000000,0.000000,4286.153809,4236.410156,4197.436035,4114.871582,4262.563965,450.000000,4.000000,,,,0.000000,4.000000,4.000000,4.000000,4.000000,4.000000,,,,,,,,,,,,,,,,,,,,,,,,,
1577421731.579111,11.000000,0.000000,4273.333496,4236.410156,4191.794922,4108.205078,4254.358887,16220.000000,4.000000,,,,0.000000,4.000000,4.000000,4.000000,4.000000,4.000000,,,,,,,,,,,,,,,,,,,,,,,,,
1577421731.586808,12.000000,0.000000,4256.922852,4236.410156,4186.153809,4107.179688,4240.000000,450.000000,4.000000,,,,0.000000,4.000000,4.000000,4.000000,4.000000,4.000000,,,,,,,,,,,,,,,,,,,,,,,,,
1577421731.594605,13.000000,0.000000,4249.230957,4236.922852,4182.051270,4115.897461,4232.820313,450.000000,4.000000,,,,0.000000,4.000000,4.000000,4.000000,4.000000,4.000000,,,,,,,,,,,,,,,,,,,,,,,,,
1577421731.602302,14.000000,0.000000,4245.128418,4243.077148,4172.820313,4110.769043,4221.538574,450.000000,4.000000,,,,0.000000,4.000000,4.000000,4.000000,4.000000,4.000000,,,,,,,,,,,,,,,,,,,,,,,,,
1577421731.610098,15.000000,0.000000,4240.512695,4243.077148,4158.461426,4106.666504,4217.948730,16220.000000,4.000000,,,,0.000000,4.000000,4.000000,4.000000,4.000000,4.000000,,,,,,,,,,,,,,,,,,,,,,,,,
1577421731.617795,16.000000,0.000000,4260.000000,4255.384766,4170.256348,4139.487305,4248.717773,0.000000,4.000000,,,,0.000000,4.000000,4.000000,4.000000,4.000000,4.000000,,,,,,,,,,,,,,,,,,,,,,,,,
1577421731.625591,17.000000,0.000000,4283.589844,4277.948730,4185.128418,4161.025879,4275.897461,0.000000,4.000000,,,,0.000000,4.000000,4.000000,4.000000,4.000000,4.000000,,,,,,,,,,,,,,,,,,,,,,,,,
1577421731.633288,18.000000,0.000000,4277.948730,4276.410156,4163.589844,4140.000000,4267.179688,0.000000,4.000000,,,,0.000000,4.000000,4.000000,4.000000,4.000000,4.000000,,,,,,,,,,,,,,,,,,,,,,,,,
1577421731.641084,19.000000,0.000000,4261.025879,4258.974121,4130.769043,4122.051270,4247.692383,0.000000,4.000000,,,,0.000000,4.000000,4.000000,4.000000,4.000000,4.000000,,,,,,,,,,,,,,,,,,,,,,,,,
1577421731.648781,20.000000,0.000000,4255.897461,4258.974121,4115.384766,4118.974121,4245.641113,0.000000,4.000000,,,,0.000000,4.000000,4.000000,4.000000,4.000000,4.000000,,,,,,,,,,,,,,,,,,,,,,,,,
1577421731.656478,21.000000,0.000000,4260.000000,4280.512695,4120.000000,4113.846191,4252.820313,0.000000,4.000000,,,,0.000000,4.000000,4.000000,4.000000,4.000000,4.000000,,,,,,,,,,,,,,,,,,,,,,,,,
1577421731.664275,22.000000,0.000000,4258.974121,4288.717773,4122.563965,4108.717773,4243.077148,0.000000,4.000000,,,,0.000000,4.000000,4.000000,4.000000,4.000000,4.000000,,,,,,,,,,,,,,,,,,,,,,,,,
1577421731.671973,23.000000,0.000000,4252.307617,4267.692383,4111.794922,4112.307617,4236.922852,0.000000,4.000000,,,,0.000000,4.000000,4.000000,4.000000,4.000000,4.000000,,,,,,,,,,,,,,,,,,,,,,,,,
1577421731.679770,24.000000,0.000000,4244.615234,4255.384766,4111.282227,4117.436035,4240.000000,0.000000,4.000000,,,,0.000000,4.000000,4.000000,4.000000,4.000000,4.000000,,,,,,,,,,,,,,,,,,,,,,,,,
1577421731.687467,25.000000,0.000000,4249.230957,4275.897461,4134.358887,4125.641113,4249.230957,0.000000,4.000000,,,,0.000000,4.000000,4.000000,4.000000,4.000000,4.000000,79.818787,20.077488,9.559423,2.920805,12.758515,23.998507,4.485994,1.834973,1.538516,8.630525,22.443148,3.739528,2.174366,2.371670,10.281137,4.573895,2.672434,1.509652,1.548077,9.443624,29.359835,13.723842,5.172866,2.295167,10.514744
1577421731.695264,26.000000,0.000000,4261.538574,4297.948730,4152.307617,4141.025879,4266.153809,0.000000,4.000000,,,,0.000000,4.000000,4.000000,4.000000,4.000000,4.000000,,,,,,,,,,,,,,,,,,,,,,,,,
1577421731.702961,27.000000,0.000000,4247.179688,4291.282227,4149.230957,4141.538574,4254.358887,0.000000,4.000000,,,,0.000000,4.000000,4.000000,4.000000,4.000000,4.000000,,,,,,,,,,,,,,,,,,,,,,,,,
1577421731.710758,28.000000,0.000000,4228.717773,4272.820313,4141.538574,4131.794922,4230.256348,0.000000,4.000000,,,,0.000000,4.000000,4.000000,4.000000,4.000000,4.000000,,,,,,,,,,,,,,,,,,,,,,,,,
1577421731.718455,29.000000,0.000000,4237.436035,4264.615234,4135.897461,4129.230957,4228.205078,0.000000,4.000000,,,,0.000000,4.000000,4.000000,4.000000,4.000000,4.000000,,,,,,,,,,,,,,,,,,,,,,,,,
1577421731.726252,30.000000,0.000000,4230.769043,4261.538574,4125.641113,4116.410156,4218.974121,0.000000,4.000000,,,,0.000000,4.000000,4.000000,4.000000,4.000000,4.000000,,,,,,,,,,,,,,,,,,,,,,,,,
1577421731.733949,31.000000,0.000000,4214.871582,4262.563965,4128.205078,4101.538574,4207.692383,0.000000,4.000000,,,,0.000000,4.000000,4.000000,4.000000,4.000000,4.000000,,,,,,,,,,,,,,,,,,,,,,,,,
1577421731.741746,32.000000,0.000000,4225.128418,4266.153809,4142.563965,4105.128418,4215.897461,0.000000,4.000000,,,,0.000000,4.000000,4.000000,4.000000,4.000000,4.000000,,,,,,,,,,,,,,,,,,,,,,,,,
1577421731.749443,33.000000,0.000000,4234.871582,4271.794922,4144.102539,4105.641113,4221.538574,0.000000,4.000000,,,,0.000000,4.000000,4.000000,4.000000,4.000000,4.000000,,,,,,,,,,,,,,,,,,,,,,,,,
1577421731.757240,34.000000,0.000000,4234.358887,4281.025879,4144.102539,4105.128418,4224.102539,0.000000,4.000000,,,,0.000000,4.000000,4.000000,4.000000,4.000000,4.000000,,,,,,,,,,,,,,,,,,,,,,,,,
1577421731.764936,35.000000,0.000000,4231.282227,4275.897461,4145.641113,4107.179688,4225.128418,0.000000,4.000000,,,,0.000000,4.000000,4.000000,4.000000,4.000000,4.000000,,,,,,,,,,,,,,,,,,,,,,,,,
1577421731.772733,36.000000,0.000000,4216.922852,4270.256348,4136.410156,4097.436035,4212.307617,0.000000,4.000000,,,,0.000000,4.000000,4.000000,4.000000,4.000000,4.000000,,,,,,,,,,,,,,,,,,,,,,,,,
1577421731.780430,37.000000,0.000000,4210.769043,4277.948730,4134.358887,4094.358887,4200.000000,0.000000,4.000000,,,,0.000000,4.000000,4.000000,4.000000,4.000000,4.000000,,,,,,,,,,,,,,,,,,,,,,,,,
1577421731.788226,38.000000,0.000000,4221.538574,4271.794922,4135.897461,4107.179688,4204.102539,0.000000,4.000000,,,,0.000000,4.000000,4.000000,4.000000,4.000000,4.000000,,,,,,,,,,,,,,,,,,,,,,,,,
1577421731.795923,39.000000,0.000000,4208.205078,4249.230957,4111.794922,4103.589844,4191.794922,0.000000,4.000000,,,,0.000000,4.000000,4.000000,4.000000,4.000000,4.000000,,,,,,,,,,,,,,,,,,,,,,,,,
1577421731.803621,40.000000,0.000000,4176.410156,4240.000000,4082.051270,4085.641113,4162.563965,0.000000,4.000000,,,,0.000000,4.000000,4.000000,4.000000,4.000000,4.000000,,,,,,,,,,,,,,,,,,,,,,,,,
1577421731.811418,41.000000,0.000000,4195.384766,4262.051270,4092.820557,4098.461426,4178.974121,0.000000,4.000000,,,,0.000000,4.000000,4.000000,4.000000,4.000000,4.000000,78.550095,19.833874,10.339354,3.229389,15.866326,24.090475,4.520658,1.981100,1.698781,10.730607,23.670561,4.656646,2.516711,2.571245,12.734811,3.475280,2.992898,1.421266,1.637895,11.741481,28.125826,13.470282,5.262621,2.343265,13.088737
1577421731.819115,42.000000,0.000000,4246.153809,4289.743652,4124.615234,4134.358887,4222.563965,0.000000,4.000000,,,,0.000000,4.000000,4.000000,4.000000,4.000000,4.000000,,,,,,,,,,,,,,,,,,,,,,,,,
1577421731.826913,43.000000,0.000000,4261.025879,4286.666504,4131.282227,4146.153809,4233.333496,0.000000,4.000000,,,,0.000000,4.000000,4.000000,4.000000,4.000000,4.000000,,,,,,,,,,,,,,,,,,,,,,,,,
1577421731.834710,44.000000,0.000000,4250.256348,4269.743652,4122.051270,4129.743652,4220.000000,0.000000,4.000000,,,,0.000000,4.000000,4.000000,4.000000,4.000000,4.000000,,,,,,,,,,,,,,,,,,,,,,,,,
1577421731.842406,45.000000,0.000000,4240.000000,4267.692383,4113.846191,4111.282227,4209.230957,0.000000,4.000000,,,,0.000000,4.000000,4.000000,4.000000,4.000000,4.000000,,,,,,,,,,,,,,,,,,,,,,,,,
1577421731.850105,46.000000,0.000000,4242.051270,4275.384766,4109.230957,4106.153809,4213.333496,0.000000,4.000000,,,,0.000000,4.000000,4.000000,4.000000,4.000000,4.000000,,,,,,,,,,,,,,,,,,,,,,,,,
1577421731.857805,47.000000,0.000000,4254.358887,4271.282227,4114.871582,4110.769043,4226.666504,0.000000,4.000000,,,,0.000000,4.000000,4.000000,4.000000,4.000000,4.000000,,,,,,,,,,,,,,,,,,,,,,,,,
1577421731.865605,48.000000,0.000000,4248.205078,4256.922852,4122.051270,4109.230957,4227.179688,0.000000,4.000000,,,,0.000000,4.000000,4.000000,4.000000,4.000000,4.000000,,,,,,,,,,,,,,,,,,,,,,,,,
1577421731.873405,49.000000,0.000000,4230.769043,4265.128418,4126.153809,4107.179688,4214.871582,0.000000,4.000000,,,,0.000000,4.000000,4.000000,4.000000,4.000000,4.000000,,,,,,,,,,,,,,,,,,,,,,,,,
1577421731.881104,50.000000,0.000000,4217.436035,4274.358887,4123.589844,4105.128418,4195.384766,0.000000,4.000000,,,,0.000000,4.000000,4.000000,4.000000,4.000000,4.000000,,,,,,,,,,,,,,,,,,,,,,,,,
1577421731.888903,51.000000,0.000000,4197.436035,4255.897461,4118.974121,4096.922852,4183.589844,0.000000,4.000000,,,,0.000000,4.000000,4.000000,4.000000,4.000000,4.000000,,,,,,,,,,,,,,,,,,,,,,,,,
1577421731.896602,52.000000,0.000000,4187.179688,4252.307617,4132.307617,4098.974121,4187.692383,0.000000,4.000000,,,,0.000000,4.000000,4.000000,4.000000,4.000000,4.000000,,,,,,,,,,,,,,,,,,,,,,,,,
1577421731.904400,53.000000,0.000000,4183.589844,4274.358887,4146.153809,4100.000000,4178.461426,0.000000,4.000000,,,,0.000000,4.000000,4.000000,4.000000,4.000000,4.000000,,,,,,,,,,,,,,,,,,,,,,,,,
1577421731.912099,54.000000,0.000000,4181.538574,4280.000000,4145.128418,4094.871826,4167.692383,0.000000,4.000000,,,,0.000000,4.000000,4.000000,4.000000,4.000000,4.000000,,,,,,,,,,,,,,,,,,,,,,,,,
1577421731.919799,55.000000,0.000000,4172.820313,4270.256348,4136.410156,4085.128174,4163.589844,0.000000,4.000000,,,,0.000000,4.000000,4.000000,4.000000,4.000000,4.000000,,,,,,,,,,,,,,,,,,,,,,,,,
1577421731.927598,56.000000,0.000000,4167.692383,4276.410156,4134.871582,4086.666748,4163.589844,0.000000,4.000000,,,,0.000000,4.000000,4.000000,4.000000,4.000000,4.000000,,,,,,,,,,,,,,,,,,,,,,,,,
1577421731.935298,57.000000,0.000000,4204.102539,4306.153809,4160.000000,4120.512695,4193.333496,0.000000,4.000000,,,,0.000000,4.000000,4.000000,4.000000,4.000000,4.000000,66.831230,17.318291,9.960761,3.297228,16.986349,21.821568,4.218636,2.103210,1.776939,11.499836,23.163322,5.308629,2.752573,2.568945,13.598009,2.752460,3.365616,1.496267,1.709406,12.598541,24.027018,11.964847,5.078219,2.290752,14.044530
1577421731.943000,58.000000,0.000000,4234.358887,4318.461426,4170.769043,4135.384766,4212.307617,0.000000,4.000000,,,,0.000000,4.000000,4.000000,4.000000,4.000000,4.000000,,,,,,,,,,,,,,,,,,,,,,,,,
1577421731.950903,59.000000,0.000000,4211.794922,4306.153809,4141.538574,4116.410156,4190.769043,0.000000,4.000000,,,,0.000000,4.000000,4.000000,4.000000,4.000000,4.000000,,,,,,,,,,,,,,,,,,,,,,,,,
1577421731.958705,60.000000,0.000000,4204.102539,4307.179688,4126.666504,4126.153809,4189.230957,0.000000,4.000000,,,,0.000000,4.000000,4.000000,4.000000,4.000000,4.000000,,,,,,,,,,,,,,,,,,,,,,,,,
1577421731.966508,61.000000,0.000000,4222.563965,4314.871582,4135.897461,4146.153809,4210.256348,0.000000,4.000000,,,,0.000000,4.000000,4.000000,4.000000,4.000000,4.000000,,,,,,,,,,,,,,,,,,,,,,,,,
1577421731.974410,62.000000,0.000000,4226.666504,4308.717773,4136.922852,4133.846191,4211.794922,0.000000,4.000000,,,,0.000000,4.000000,4.000000,4.000000,4.000000,4.000000,,,,,,,,,,,,,,,,,,,,,,,,,
1577421731.982212,63.000000,0.000000,4220.000000,4310.256348,4127.692383,4122.563965,4208.205078,0.000000,4.000000,,,,0.000000,4.000000,4.000000,4.000000,4.000000,4.000000,,,,,,,,,,,,,,,,,,,,,,,,,
1577421731.990114,64.000000,0.000000,4219.487305,4330.769043,4127.179688,4136.922852,4218.974121,450.000000,4.000000,,,,0.000000,4.000000,4.000000,4.000000,4.000000,4.000000,,,,,,,,,,,,,,,,,,,,,,,,,
1577421731.997915,65.000000,0.000000,4220.512695,4343.589844,4133.846191,4146.153809,4221.025879,450.000000,4.000000,,,,0.000000,4.000000,4.000000,4.000000,4.000000,4.000000,,,,,,,,,,,,,,,,,,,,,,,,,
1577421732.005817,66.000000,0.000000,4205.641113,4336.410156,4122.051270,4129.743652,4202.563965,16224.000000,4.000000,,,,0.000000,4.000000,4.000000,4.000000,4.000000,4.000000,,,,,,,,,,,,,,,,,,,,,,,,,
1577421732.013619,67.000000,0.000000,4184.102539,4327.179688,4111.282227,4116.410156,4185.128418,450.000000,4.000000,,,,0.000000,4.000000,4.000000,4.000000,4.000000,4.000000,,,,,,,,,,,,,,,,,,,,,,,,,
1577421732.021520,68.000000,0.000000,4169.230957,4311.794922,4115.897461,4111.282227,4168.205078,16190.000000,4.000000,,,,0.000000,4.000000,4.000000,4.000000,4.000000,4.000000,,,,,,,,,,,,,,,,,,,,,,,,,
1577421732.029322,69.000000,0.000000,4160.512695,4298.974121,4115.384766,4100.512695,4154.871582,450.000000,4.000000,,,,0.000000,4.000000,4.000000,4.000000,4.000000,4.000000,,,,,,,,,,,,,,,,,,,,,,,,,
1577421732.037124,70.000000,0.000000,4158.461426,4308.717773,4116.922852,4094.871826,4158.974121,16147.000000,4.000000,,,,0.000000,4.000000,4.000000,4.000000,4.000000,4.000000,,,,,,,,,,,,,,,,,,,,,,,,,
1577421732.045028,71.000000,0.000000,4157.948730,4312.820313,4130.769043,4094.358887,4162.051270,450.000000,4.000000,,,,0.000000,4.000000,4.000000,4.000000,4.000000,4.000000,,,,,,,,,,,,,,,,,,,,,,,,,
1577421732.052933,72.000000,0.000000,4167.179688,4311.282227,4157.436035,4103.589844,4173.846191,450.000000,4.000000,,,,0.000000,4.000000,4.000000,4.000000,4.000000,4.000000,,,,,,,,,,,,,,,,,,,,,,,,,
1577421732.060738,73.000000,0.000000,4177.436035,4333.846191,4184.615234,4106.666504,4186.153809,16165.000000,4.000000,,,,0.000000,4.000000,4.000000,4.000000,4.000000,4.000000,48.953125,13.436646,8.606552,3.089162,15.716001,17.752373,3.689571,2.157448,1.745552,10.663317,21.028355,5.569808,2.827648,2.370474,12.554607,2.389049,3.657402,1.698445,1.724755,11.701264,18.674688,9.705187,4.695838,2.129861,13.046726
1577421732.068543,74.000000,0.000000,4171.794922,4348.717773,4191.282227,4089.230713,4176.922852,450.000000,4.000000,,,,0.000000,4.000000,4.000000,4.000000,4.000000,4.000000,,,,,,,,,,,,,,,,,,,,,,,,,
1577421732.076348,75.000000,0.000000,4171.794922,4345.128418,4194.358887,4087.179443,4174.871582,16219.000000,4.000000,,,,0.000000,4.000000,4.000000,4.000000,4.000000,4.000000,,,,,,,,,,,,,,,,,,,,,,,,,
1577421732.084251,76.000000,0.000000,4178.461426,4346.666504,4211.794922,4100.512695,4181.538574,450.000000,4.000000,,,,0.000000,4.000000,4.000000,4.000000,4.000000,4.000000,,,,,,,,,,,,,,,,,,,,,,,,,
1577421732.092155,77.000000,1.000000,4177.492676,4346.951660,4222.678223,4096.922852,4180.341797,450.000000,4.000000,,,,0.000000,4.000000,4.000000,4.000000,4.000000,4.000000,,,,,,,,,,,,,,,,,,,,,,,,,
1577421732.099959,78.000000,1.000000,4176.524414,4347.236328,4233.561035,4093.333252,4179.145508,450.000000,4.000000,,,,0.000000,4.000000,4.000000,4.000000,4.000000,4.000000,,,,,,,,,,,,,,,,,,,,,,,,,
1577421732.107763,79.000000,1.000000,4175.555664,4347.521484,4244.444336,4089.743652,4177.948730,16220.000000,4.000000,,,,0.000000,4.000000,4.000000,4.000000,4.000000,4.000000,,,,,,,,,,,,,,,,,,,,,,,,,
1577421732.115567,80.000000,1.000000,4174.586914,4347.806152,4255.327637,4086.153809,4176.751953,450.000000,4.000000,,,,0.000000,4.000000,4.000000,4.000000,4.000000,4.000000,,,,,,,,,,,,,,,,,,,,,,,,,
1577421732.123371,81.000000,1.000000,4173.618164,4348.091309,4266.210938,4082.564209,4175.555664,450.000000,4.000000,,,,0.000000,4.000000,4.000000,4.000000,4.000000,4.000000,,,,,,,,,,,,,,,,,,,,,,,,,
1577421732.131175,82.000000,1.000000,4172.649414,4348.375977,4277.094238,4078.974365,4174.358887,450.000000,4.000000,,,,0.000000,4.000000,4.000000,4.000000,4.000000,4.000000,,,,,,,,,,,,,,,,,,,,,,,,,
1577421732.138979,83.000000,1.000000,4171.681152,4348.661133,4287.977051,4075.384521,4173.162598,450.000000,4.000000,,,,0.000000,4.000000,4.000000,4.000000,4.000000,4.000000,,,,,,,,,,,,,,,,,,,,,,,,,
1577421732.146783,84.000000,1.000000,4170.712402,4348.945801,4298.860352,4071.794922,4171.965820,450.000000,4.000000,,,,0.000000,4.000000,4.000000,4.000000,4.000000,4.000000,,,,,,,,,,,,,,,,,,,,,,,,,
1577421732.154587,85.000000,0.000000,4169.743652,4349.230957,4309.743652,4068.205078,4170.769043,450.000000,4.000000,,,,0.000000,4.000000,4.000000,4.000000,4.000000,4.000000,,,,,,,,,,,,,,,,,,,,,,,,,
1577421732.162391,86.000000,0.000000,4182.051270,4367.692383,4318.461426,4076.410156,4182.051270,450.000000,4.000000,,,,0.000000,4.000000,4.000000,4.000000,4.000000,4.000000,,,,,,,,,,,,,,,,,,,,,,,,,
1577421732.170087,87.000000,0.000000,4175.897461,4368.205078,4310.769043,4074.358887,4182.051270,16219.000000,4.000000,,,,0.000000,4.000000,4.000000,4.000000,4.000000,4.000000,,,,,,,,,,,,,,,,,,,,,,,,,
1577421732.177884,88.000000,0.000000,4159.487305,4351.794922,4297.436035,4061.025635,4169.230957,450.000000,4.000000,,,,0.000000,4.000000,4.000000,4.000000,4.000000,4.000000,,,,,,,,,,,,,,,,,,,,,,,,,
1577421732.185580,89.000000,0.000000,4149.230957,4353.846191,4296.922852,4052.820557,4154.871582,450.000000,4.000000,,,,0.000000,4.000000,4.000000,4.000000,4.000000,4.000000,30.440783,9.589491,6.734188,2.678251,12.527902,13.004589,3.071352,2.135332,1.626188,8.537856,18.389845,5.448349,2.804208,2.064420,9.988782,2.271178,3.813240,1.979922,1.662617,9.376389,13.704483,7.480404,4.263154,1.905246,10.472634
1577421732.193377,90.000000,0.000000,4146.666504,4366.666504,4304.615234,4053.846191,4154.358887,450.000000,4.000000,,,,0.000000,4.000000,4.000000,4.000000,4.000000,4.000000,,,,,,,,,,,,,,,,,,,,,,,,,
1577421732.201075,91.000000,0.000000,4160.000000,4366.153809,4312.307617,4058.974365,4166.153809,16219.000000,4.000000,,,,0.000000,4.000000,4.000000,4.000000,4.000000,4.000000,,,,,,,,,,,,,,,,,,,,,,,,,
1577421732.208774,92.000000,0.000000,4166.153809,4348.717773,4304.102539,4057.948730,4167.179688,450.000000,4.000000,,,,0.000000,4.000000,4.000000,4.000000,4.000000,4.000000,,,,,,,,,,,,,,,,,,,,,,,,,
1577421732.216574,93.000000,0.000000,4165.641113,4346.153809,4298.461426,4062.051270,4165.641113,450.000000,4.000000,,,,0.000000,4.000000,4.000000,4.000000,4.000000,4.000000,,,,,,,,,,,,,,,,,,,,,,,,,
1577421732.224373,94.000000,0.000000,4168.205078,4357.948730,4305.128418,4070.769287,4162.051270,450.000000,4.000000,,,,0.000000,4.000000,4.000000,4.000000,4.000000,4.000000,,,,,,,,,,,,,,,,,,,,,,,,,
1577421732.232172,95.000000,0.000000,4161.025879,4354.871582,4299.487305,4070.769287,4151.282227,16219.000000,4.000000,,,,0.000000,4.000000,4.000000,4.000000,4.000000,4.000000,,,,,,,,,,,,,,,,,,,,,,,,,
1577421732.239869,96.000000,0.000000,4155.384766,4343.589844,4283.077148,4070.769287,4148.717773,450.000000,4.000000,,,,0.000000,4.000000,4.000000,4.000000,4.000000,4.000000,,,,,,,,,,,,,,,,,,,,,,,,,
1577421732.247666,97.000000,0.000000,4156.410156,4340.000000,4265.641113,4068.718018,4153.846191,450.000000,4.000000,,,,0.000000,4.000000,4.000000,4.000000,4.000000,4.000000,,,,,,,,,,,,,,,,,,,,,,,,,
1577421732.255464,98.000000,0.000000,4141.025879,4335.384766,4250.256348,4064.102539,4146.666504,450.000000,4.000000,,,,0.000000,4.000000,4.000000,4.000000,4.000000,4.000000,,,,,,,,,,,,,,,,,,,,,,,,,
1577421732.263160,99.000000,0.000000,4112.307617,4321.025879,4225.128418,4061.538574,4124.102539,16219.000000,4.000000,,,,0.000000,4.000000,4.000000,4.000000,4.000000,4.000000,,,,,,,,,,,,,,,,,,,,,,,,,
1577421732.270857,100.000000,0.000000,4110.256348,4320.512695,4195.384766,4059.487061,4120.000000,450.000000,4.000000,,,,0.000000,4.000000,4.000000,4.000000,4.000000,4.000000,,,,,,,,,,,,,,,,,,,,,,,,,
1577421732.278654,101.000000,0.000000,4128.717773,4338.461426,4183.589844,4061.025635,4132.820313,450.000000,4.000000,,,,0.000000,4.000000,4.000000,4.000000,4.000000,4.000000,,,,,,,,,,,,,,,,,,,,,,,,,
1577421732.286351,102.000000,0.000000,4135.897461,4343.077148,4177.948730,4073.333252,4141.025879,450.000000,4.000000,,,,0.000000,4.000000,4.000000,4.000000,4.000000,4.000000,,,,,,,,,,,,,,,,,,,,,,,,,
1577421732.294148,103.000000,0.000000,4145.128418,4334.871582,4165.641113,4088.718018,4158.461426,16219.000000,4.000000,,,,0.000000,4.000000,4.000000,4.000000,4.000000,4.000000,,,,,,,,,,,,,,,,,,,,,,,,,
1577421732.301845,104.000000,0.000000,4148.717773,4326.666504,4149.230957,4081.538574,4164.615234,450.000000,4.000000,,,,0.000000,4.000000,4.000000,4.000000,4.000000,4.000000,,,,,,,,,,,,,,,,,,,,,,,,,
1577421732.309642,105.000000,0.000000,4139.487305,4320.512695,4126.153809,4061.025635,4149.743652,450.000000,4.000000,,,,0.000000,4.000000,4.000000,4.000000,4.000000,4.000000,16.400146,7.005755,4.918845,2.203524,8.535517,8.883531,2.486163,2.088133,1.475296,5.870096,16.229410,4.987590,2.786820,1.762372,6.790661,2.380756,3.815493,2.283331,1.531352,6.430283,10.290277,5.951695,3.954933,1.689311,7.223356
1577421732.317339,106.000000,0.000000,4149.743652,4321.538574,4097.948730,4067.692383,4146.666504,450.000000,4.000000,,,,0.000000,4.000000,4.000000,4.000000,4.000000,4.000000,,,,,,,,,,,,,,,,,,,,,,,,,
1577421732.325136,107.000000,0.000000,4163.589844,4317.436035,4067.179443,4087.179443,4156.410156,16219.000000,4.000000,,,,0.000000,4.000000,4.000000,4.000000,4.000000,4.000000,,,,,,,,,,,,,,,,,,,,,,,,,
1577421732.332833,108.000000,0.000000,4164.102539,4304.102539,4046.666748,4097.436035,4163.589844,450.000000,4.000000,,,,0.000000,4.000000,4.000000,4.000000,4.000000,4.000000,,,,,,,,,,,,,,,,,,,,,,,,,
1577421732.340630,109.000000,0.000000,4156.922852,4298.974121,4037.948730,4098.974121,4155.384766,450.000000,4.000000,,,,0.000000,4.000000,4.000000,4.000000,4.000000,4.000000,,,,,,,,,,,,,,,,,,,,,,,,,
1577421732.348326,110.000000,0.000000,4145.128418,4302.051270,4035.897461,4100.000000,4142.563965,450.000000,4.000000,,,,0.000000,4.000000,4.000000,4.000000,4.000000,4.000000,,,,,,,,,,,,,,,,,,,,,,,,,
1577421732.356123,111.000000,0.000000,4143.077148,4308.717773,4048.205078,4108.717773,4150.769043,16219.000000,4.000000,,,,0.000000,4.000000,4.000000,4.000000,4.000000,4.000000,,,,,,,,,,,,,,,,,,,,,,,,,
1577421732.363820,112.000000,0.000000,4138.461426,4303.077148,4062.051270,4093.333252,4147.179688,450.000000,4.000000,,,,0.000000,4.000000,4.000000,4.000000,4.000000,4.000000,,,,,,,,,,,,,,,,,,,,,,,,,
1577421732.371518,113.000000,0.000000,4122.051270,4299.487305,4080.000000,4063.589844,4121.538574,450.000000,4.000000,,,,0.000000,4.000000,4.000000,4.000000,4.000000,4.000000,,,,,,,,,,,,,,,,,,,,,,,,,
1577421732.379315,114.000000,0.000000,4124.615234,4321.538574,4131.282227,4066.153809,4121.538574,450.000000,4.000000,,,,0.000000,4.000000,4.000000,4.000000,4.000000,4.000000,,,,,,,,,,,,,,,,,,,,,,,,,
1577421732.387013,115.000000,0.000000,4160.512695,4340.000000,4214.358887,4098.461426,4157.436035,16219.000000,4.000000,,,,0.000000,4.000000,4.000000,4.000000,4.000000,4.000000,,,,,,,,,,,,,,,,,,,,,,,,,
1577421732.394810,116.000000,0.000000,4196.922852,4353.333496,4305.128418,4126.153809,4189.230957,450.000000,4.000000,,,,0.000000,4.000000,4.000000,4.000000,4.000000,4.000000,,,,,,,,,,,,,,,,,,,,,,,,,
1577421732.402508,117.000000,0.000000,4185.641113,4371.794922,4371.794922,4120.512695,4175.897461,450.000000,4.000000,,,,0.000000,4.000000,4.000000,4.000000,4.000000,4.000000,,,,,,,,,,,,,,,,,,,,,,,,,
1577421732.410305,118.000000,0.000000,4158.461426,4382.051270,4414.871582,4098.974121,4149.743652,450.000000,4.000000,,,,0.000000,4.000000,4.000000,4.000000,4.000000,4.000000,,,,,,,,,,,,,,,,,,,,,,,,,
1577421732.418002,119.000000,0.000000,4153.333496,4380.000000,4459.487305,4093.846191,4145.641113,16219.000000,4.000000,,,,0.000000,4.000000,4.000000,4.000000,4.000000,4.000000,,,,,,,,,,,,,,,,,,,,,,,,,
1577421732.425799,120.000000,0.000000,4134.871582,4367.692383,4484.102539,4090.256348,4135.384766,450.000000,4.000000,,,,0.000000,4.000000,4.000000,4.000000,4.000000,4.000000,,,,,,,,,,,,,,,,,,,,,,,,,
1577421732.433497,121.000000,0.000000,4110.769043,4363.077148,4478.974121,4069.743652,4114.358887,450.000000,4.000000,,,,0.000000,4.000000,4.000000,4.000000,4.000000,4.000000,9.257832,6.146771,3.582114,1.796257,4.948552,6.178138,2.014892,2.074761,1.353208,3.468667,14.985433,4.252540,2.829199,1.547725,3.923745,2.792973,3.683401,2.534125,1.365596,3.756069,8.808578,5.314958,3.839062,1.544533,4.284306
1577421732.441294,122.000000,0.000000,4123.077148,4376.410156,4480.000000,4065.641113,4115.897461,450.000000,4.000000,,,,0.000000,4.000000,4.000000,4.000000,4.000000,4.000000,,,,,,,,,,,,,,,,,,,,,,,,,
1577421732.448991,123.000000,0.000000,4134.358887,4381.025879,4482.563965,4085.641113,4124.102539,16219.000000,4.000000,,,,0.000000,4.000000,4.000000,4.000000,4.000000,4.000000,,,,,,,,,,,,,,,,,,,,,,,,,
1577421732.456789,124.000000,0.000000,4132.820313,4372.307617,4472.307617,4100.000000,4118.974121,450.000000,4.000000,,,,0.000000,4.000000,4.000000,4.000000,4.000000,4.000000,,,,,,,,,,,,,,,,,,,,,,,,,
1577421732.464586,125.000000,0.000000,4150.769043,4373.846191,4457.436035,4105.128418,4125.641113,450.000000,4.000000,,,,0.000000,4.000000,4.000000,4.000000,4.000000,4.000000,,,,,,,,,,,,,,,,,,,,,,,,,
1577421732.472282,126.000000,0.000000,4157.436035,4378.974121,4434.871582,4112.820313,4137.436035,450.000000,4.000000,,,,0.000000,4.000000,4.000000,4.000000,4.000000,4.000000,,,,,,,,,,,,,,,,,,,,,,,,,
1577421732.479979,127.000000,0.000000,4143.077148,4367.692383,4403.077148,4116.410156,4127.179688,234.000000,4.000000,,,,0.000000,4.000000,4.000000,4.000000,4.000000,4.000000,,,,,,,,,,,,,,,,,,,,,,,,,
1577421732.487776,0.000000,0.000000,4153.333496,4355.384766,4377.948730,4117.948730,4129.230957,450.000000,4.000000,,,,0.000000,4.000000,4.000000,4.000000,4.000000,4.000000,,,,,,,,,,,,,,,,,,,,,,,,,
1577421732.495573,1.000000,0.000000,4180.000000,4351.794922,4359.487305,4131.794922,4153.333496,450.000000,4.000000,,,,0.000000,4.000000,4.000000,4.000000,4.000000,4.000000,,,,,,,,,,,,,,,,,,,,,,,,,
1577421732.503269,2.000000,0.000000,4176.922852,4334.358887,4328.205078,4140.000000,4157.436035,16221.000000,4.000000,,,,0.000000,4.000000,4.000000,4.000000,4.000000,4.000000,,,,,,,,,,,,,,,,,,,,,,,,,
1577421732.511065,3.000000,0.000000,4168.717773,4317.436035,4304.102539,4139.487305,4157.436035,450.000000,4.000000,,,,0.000000,4.000000,4.000000,4.000000,4.000000,4.000000,,,,,,,,,,,,,,,,,,,,,,,,,
1577421732.518761,4.000000,0.000000,4179.487305,4320.000000,4281.025879,4136.922852,4166.666504,16205.000000,4.000000,,,,0.000000,4.000000,4.000000,4.000000,4.000000,4.000000,,,,,,,,,,,,,,,,,,,,,,,,,
1577421732.526557,5.000000,0.000000,4180.000000,4314.871582,4238.974121,4136.410156,4160.512695,450.000000,4.000000,,,,0.000000,4.000000,4.000000,4.000000,4.000000,4.000000,,,,,,,,,,,,,,,,,,,,,,,,,
1577421732.534253,6.000000,0.000000,4167.692383,4294.358887,4202.051270,4142.051270,4142.051270,16158.000000,4.000000,,,,0.000000,4.000000,4.000000,4.000000,4.000000,4.000000,,,,,,,,,,,,,,,,,,,,,,,,,
1577421732.541950,7.000000,0.000000,4161.538574,4284.102539,4170.769043,4141.025879,4129.230957,450.000000,4.000000,,,,0.000000,4.000000,4.000000,4.000000,4.000000,4.000000,,,,,,,,,,,,,,,,,,,,,,,,,
1577421732.549747,8.000000,0.000000,4170.769043,4292.820313,4153.846191,4149.230957,4142.051270,450.000000,4.000000,,,,0.000000,4.000000,4.000000,4.000000,4.000000,4.000000,,,,,,,,,,,,,,,,,,,,,,,,,
1577421732.557444,9.000000,0.000000,4180.512695,4296.922852,4157.436035,4173.333496,4154.358887,16158.000000,4.000000,,,,0.000000,4.000000,4.000000,4.000000,4.000000,4.000000,7.966446,6.644860,2.854223,1.523543,2.536832,5.003119,1.691934,2.120270,1.289871,1.847592,15.845058,3.465068,2.955137,1.443477,1.996663,3.481392,3.439442,2.644212,1.210271,1.936975,8.621828,5.337656,3.831518,1.489758,2.285017
1577421732.565141,10.000000,0.000000,4177.948730,4290.256348,4147.179688,4184.102539,4146.153809,450.000000,4.000000,,,,0.000000,4.000000,4.000000,4.000000,4.000000,4.000000,,,,,,,,,,,,,,,,,,,,,,,,,
1577421732.572939,11.000000,0.000000,4166.666504,4290.256348,4115.897461,4178.974121,4141.538574,16219.000000,4.000000,,,,0.000000,4.000000,4.000000,4.000000,4.000000,4.000000,,,,,,,,,,,,,,,,,,,,,,,,,
1577421732.580636,12.000000,0.000000,4147.179688,4283.589844,4092.307617,4171.794922,4128.205078,450.000000,4.000000,,,,0.000000,4.000000,4.000000,4.000000,4.000000,4.000000,,,,,,,,,,,,,,,,,,,,,,,,,
1577421732.588434,13.000000,0.000000,4148.205078,4275.384766,4090.256348,4175.897461,4120.000000,450.000000,4.000000,,,,0.000000,4.000000,4.000000,4.000000,4.000000,4.000000,,,,,,,,,,,,,,,,,,,,,,,,,
1577421732.596231,14.000000,0.000000,4174.871582,4292.820313,4096.410156,4191.794922,4142.563965,450.000000,4.000000,,,,0.000000,4.000000,4.000000,4.000000,4.000000,4.000000,,,,,,,,,,,,,,,,,,,,,,,,,
1577421732.603928,15.000000,0.000000,4185.128418,4310.769043,4099.487305,4202.051270,4161.538574,16219.000000,4.000000,,,,0.000000,4.000000,4.000000,4.000000,4.000000,4.000000,,,,,,,,,,,,,,,,,,,,,,,,,
1577421732.611724,16.000000,0.000000,4185.128418,4306.666504,4108.205078,4205.128418,4165.128418,0.000000,4.000000,,,,0.000000,4.000000,4.000000,4.000000,4.000000,4.000000,,,,,,,,,,,,,,,,,,,,,,,,,
1577421732.619421,17.000000,0.000000,4190.769043,4307.692383,4114.358887,4207.692383,4163.589844,0.000000,4.000000,,,,0.000000,4.000000,4.000000,4.000000,4.000000,4.000000,,,,,,,,,,,,,,,,,,,,,,,,,
1577421732.627217,18.000000,0.000000,4181.025879,4314.358887,4103.589844,4204.102539,4158.461426,0.000000,4.000000,,,,0.000000,4.000000,4.000000,4.000000,4.000000,4.000000,,,,,,,,,,,,,,,,,,,,,,,,,
1577421732.634913,19.000000,0.000000,4171.794922,4308.717773,4102.563965,4202.051270,4154.358887,0.000000,4.000000,,,,0.000000,4.000000,4.000000,4.000000,4.000000,4.000000,,,,,,,,,,,,,,,,,,,,,,,,,
1577421732.642710,20.000000,0.000000,4180.000000,4307.692383,4115.897461,4202.563965,4154.358887,0.000000,4.000000,,,,0.000000,4.000000,4.000000,4.000000,4.000000,4.000000,,,,,,,,,,,,,,,,,,,,,,,,,
1577421732.650406,21.000000,0.000000,4194.358887,4322.563965,4128.205078,4210.256348,4163.077148,0.000000,4.000000,,,,0.000000,4.000000,4.000000,4.000000,4.000000,4.000000,,,,,,,,,,,,,,,,,,,,,,,,,
1577421732.658103,22.000000,0.000000,4198.974121,4324.102539,4143.077148,4220.000000,4175.384766,0.000000,4.000000,,,,0.000000,4.000000,4.000000,4.000000,4.000000,4.000000,,,,,,,,,,,,,,,,,,,,,,,,,
1577421732.665900,23.000000,0.000000,4190.256348,4309.743652,4150.256348,4213.333496,4174.871582,0.000000,4.000000,,,,0.000000,4.000000,4.000000,4.000000,4.000000,4.000000,,,,,,,,,,,,,,,,,,,,,,,,,
1577421732.673597,24.000000,0.000000,4181.538574,4310.769043,4148.717773,4206.153809,4165.641113,0.000000,4.000000,,,,0.000000,4.000000,4.000000,4.000000,4.000000,4.000000,,,,,,,,,,,,,,,,,,,,,,,,,
1577421732.681394,25.000000,0.000000,4169.743652,4311.282227,4143.077148,4206.666504,4159.487305,0.000000,4.000000,,,,0.000000,4.000000,4.000000,4.000000,4.000000,4.000000,9.369994,7.684299,2.618573,1.390418,1.385587,5.078856,1.611123,2.207642,1.270091,1.061509,24.972849,3.337880,3.124455,1.416777,1.067661,4.242340,3.107413,2.569981,1.113842,1.057446,8.658461,5.625389,3.770679,1.503759,1.304165
1577421732.689091,26.000000,0.000000,4151.794922,4290.256348,4134.871582,4197.948730,4154.358887,0.000000,4.000000,,,,0.000000,4.000000,4.000000,4.000000,4.000000,4.000000,,,,,,,,,,,,,,,,,,,,,,,,,
1577421732.696888,27.000000,0.000000,4134.871582,4280.512695,4127.179688,4185.128418,4141.538574,0.000000,4.000000,,,,0.000000,4.000000,4.000000,4.000000,4.000000,4.000000,,,,,,,,,,,,,,,,,,,,,,,,,
1577421732.704585,28.000000,0.000000,4123.589844,4294.358887,4118.461426,4182.563965,4129.230957,0.000000,4.000000,,,,0.000000,4.000000,4.000000,4.000000,4.000000,4.000000,,,,,,,,,,,,,,,,,,,,,,,,,
1577421732.712382,29.000000,0.000000,4130.769043,4302.563965,4117.948730,4188.717773,4132.820313,0.000000,4.000000,,,,0.000000,4.000000,4.000000,4.000000,4.000000,4.000000,,,,,,,,,,,,,,,,,,,,,,,,,
1577421732.720079,30.000000,0.000000,4150.769043,4295.384766,4125.641113,4193.846191,4145.641113,0.000000,4.000000,,,,0.000000,4.000000,4.000000,4.000000,4.000000,4.000000,,,,,,,,,,,,,,,,,,,,,,,,,
1577421732.727876,31.000000,0.000000,4163.589844,4293.333496,4133.846191,4197.436035,4161.538574,0.000000,4.000000,,,,0.000000,4.000000,4.000000,4.000000,4.000000,4.000000,,,,,,,,,,,,,,,,,,,,,,,,,
1577421732.735573,32.000000,0.000000,4162.563965,4288.717773,4134.871582,4197.436035,4159.487305,0.000000,4.000000,,,,0.000000,4.000000,4.000000,4.000000,4.000000,4.000000,,,,,,,,,,,,,,,,,,,,,,,,,
1577421732.743369,33.000000,0.000000,4151.282227,4281.025879,4130.769043,4184.102539,4140.512695,0.000000,4.000000,,,,0.000000,4.000000,4.000000,4.000000,4.000000,4.000000,,,,,,,,,,,,,,,,,,,,,,,,,
1577421732.751066,34.000000,0.000000,4152.307617,4298.461426,4147.692383,4184.615234,4145.128418,0.000000,4.000000,,,,0.000000,4.000000,4.000000,4.000000,4.000000,4.000000,,,,,,,,,,,,,,,,,,,,,,,,,
1577421732.758863,35.000000,0.000000,4170.256348,4318.974121,4173.333496,4206.666504,4168.717773,0.000000,4.000000,,,,0.000000,4.000000,4.000000,4.000000,4.000000,4.000000,,,,,,,,,,,,,,,,,,,,,,,,,
1577421732.766560,36.000000,0.000000,4179.487305,4309.230957,4181.538574,4218.461426,4175.384766,0.000000,4.000000,,,,0.000000,4.000000,4.000000,4.000000,4.000000,4.000000,,,,,,,,,,,,,,,,,,,,,,,,,
1577421732.774356,37.000000,0.000000,4163.077148,4298.974121,4181.538574,4208.205078,4156.410156,0.000000,4.000000,,,,0.000000,4.000000,4.000000,4.000000,4.000000,4.000000,,,,,,,,,,,,,,,,,,,,,,,,,
1577421732.782053,38.000000,0.000000,4138.461426,4303.589844,4175.384766,4196.922852,4134.358887,0.000000,4.000000,,,,0.000000,4.000000,4.000000,4.000000,4.000000,4.000000,,,,,,,,,,,,,,,,,,,,,,,,,
1577421732.789849,39.000000,0.000000,4134.358887,4297.436035,4159.487305,4197.436035,4130.769043,0.000000,4.000000,,,,0.000000,4.000000,4.000000,4.000000,4.000000,4.000000,,,,,,,,,,,,,,,,,,,,,,,,,
1577421732.797546,40.000000,0.000000,4144.102539,4291.794922,4142.563965,4202.563965,4138.461426,0.000000,4.000000,,,,0.000000,4.000000,4.000000,4.000000,4.000000,4.000000,,,,,,,,,,,,,,,,,,,,,,,,,
1577421732.805342,41.000000,0.000000,4153.846191,4310.256348,4127.692383,4209.230957,4147.692383,0.000000,4.000000,,,,0.000000,4.000000,4.000000,4.000000,4.000000,4.000000,10.632675,8.486391,2.650019,1.365915,1.044837,6.165353,1.757556,2.276458,1.251278,0.807202,53.227665,4.645657,3.256843,1.420952,0.771133,4.839672,2.734860,2.352277,1.107172,0.799013,8.327383,5.877444,3.515733,1.555802,0.988431
1577421732.813039,42.000000,0.000000,4157.948730,4324.102539,4109.230957,4206.666504,4156.922852,0.000000,4.000000,,,,0.000000,4.000000,4.000000,4.000000,4.000000,4.000000,,,,,,,,,,,,,,,,,,,,,,,,,
1577421732.820736,43.000000,0.000000,4159.487305,4311.794922,4097.436035,4193.846191,4167.692383,0.000000,4.000000,,,,0.000000,4.000000,4.000000,4.000000,4.000000,4.000000,,,,,,,,,,,,,,,,,,,,,,,,,
1577421732.828534,44.000000,0.000000,4171.282227,4307.692383,4093.333252,4191.794922,4175.384766,0.000000,4.000000,,,,0.000000,4.000000,4.000000,4.000000,4.000000,4.000000,,,,,,,,,,,,,,,,,,,,,,,,,
1577421732.836231,45.000000,0.000000,4185.128418,4320.000000,4085.641113,4192.820313,4173.333496,0.000000,4.000000,,,,0.000000,4.000000,4.000000,4.000000,4.000000,4.000000,,,,,,,,,,,,,,,,,,,,,,,,,
1577421732.844028,46.000000,0.000000,4199.487305,4325.128418,4078.974365,4192.820313,4186.153809,0.000000,4.000000,,,,0.000000,4.000000,4.000000,4.000000,4.000000,4.000000,,,,,,,,,,,,,,,,,,,,,,,,,
1577421732.851725,47.000000,0.000000,4213.333496,4321.025879,4076.410156,4203.589844,4205.128418,0.000000,4.000000,,,,0.000000,4.000000,4.000000,4.000000,4.000000,4.000000,,,,,,,,,,,,,,,,,,,,,,,,,
1577421732.859522,48.000000,0.000000,4200.000000,4313.846191,4066.666748,4196.410156,4190.769043,0.000000,4.000000,,,,0.000000,4.000000,4.000000,4.000000,4.000000,4.000000,,,,,,,,,,,,,,,,,,,,,,,,,
1577421732.867219,49.000000,0.000000,4180.512695,4316.922852,4061.538574,4178.461426,4171.282227,0.000000,4.000000,,,,0.000000,4.000000,4.000000,4.000000,4.000000,4.000000,,,,,,,,,,,,,,,,,,,,,,,,,
1577421732.875016,50.000000,0.000000,4190.256348,4324.615234,4087.692383,4193.333496,4183.077148,0.000000,4.000000,,,,0.000000,4.000000,4.000000,4.000000,4.000000,4.000000,,,,,,,,,,,,,,,,,,,,,,,,,
1577421732.882714,51.000000,0.000000,4197.436035,4322.051270,4124.615234,4217.436035,4192.820313,0.000000,4.000000,,,,0.000000,4.000000,4.000000,4.000000,4.000000,4.000000,,,,,,,,,,,,,,,,,,,,,,,,,
1577421732.890511,52.000000,0.000000,4178.461426,4320.000000,4141.538574,4210.256348,4175.897461,0.000000,4.000000,,,,0.000000,4.000000,4.000000,4.000000,4.000000,4.000000,,,,,,,,,,,,,,,,,,,,,,,,,
1577421732.898308,53.000000,0.000000,4150.256348,4309.743652,4146.153809,4187.179688,4151.794922,0.000000,4.000000,,,,0.000000,4.000000,4.000000,4.000000,4.000000,4.000000,,,,,,,,,,,,,,,,,,,,,,,,,
1577421732.906004,54.000000,0.000000,4125.641113,4297.436035,4157.436035,4180.000000,4132.307617,0.000000,4.000000,,,,0.000000,4.000000,4.000000,4.000000,4.000000,4.000000,,,,,,,,,,,,,,,,,,,,,,,,,
1577421732.913701,55.000000,0.000000,4119.487305,4303.589844,4170.256348,4182.051270,4120.000000,0.000000,4.000000,,,,0.000000,4.000000,4.000000,4.000000,4.000000,4.000000,,,,,,,,,,,,,,,,,,,,,,,,,
1577421732.921398,56.000000,0.000000,4136.922852,4304.615234,4175.384766,4180.512695,4127.692383,0.000000,4.000000,,,,0.000000,4.000000,4.000000,4.000000,4.000000,4.000000,,,,,,,,,,,,,,,,,,,,,,,,,
1577421732.929196,57.000000,0.000000,4151.282227,4297.436035,4182.051270,4181.538574,4142.563965,0.000000,4.000000,,,,0.000000,4.000000,4.000000,4.000000,4.000000,4.000000,11.072562,8.898635,2.806491,1.424857,0.957099,8.359408,2.043125,2.253785,1.200769,0.713118,107.370033,7.832576,3.253685,1.437485,0.663376,5.140452,2.368500,2.097924,1.197672,0.746516,7.744530,6.081172,3.065037,1.638975,0.892547
1577421732.936894,58.000000,0.000000,4136.922852,4297.948730,4176.922852,4170.256348,4131.282227,0.000000,4.000000,,,,0.000000,4.000000,4.000000,4.000000,4.000000,4.000000,,,,,,,,,,,,,,,,,,,,,,,,,
1577421732.944692,59.000000,0.000000,4132.307617,4300.000000,4172.820313,4163.077148,4125.641113,0.000000,4.000000,,,,0.000000,4.000000,4.000000,4.000000,4.000000,4.000000,,,,,,,,,,,,,,,,,,,,,,,,,
1577421732.952489,60.000000,0.000000,4165.128418,4305.128418,4181.538574,4184.102539,4154.358887,0.000000,4.000000,,,,0.000000,4.000000,4.000000,4.000000,4.000000,4.000000,,,,,,,,,,,,,,,,,,,,,,,,,
1577421732.960186,61.000000,0.000000,4185.641113,4309.743652,4172.820313,4200.000000,4172.820313,0.000000,4.000000,,,,0.000000,4.000000,4.000000,4.000000,4.000000,4.000000,,,,,,,,,,,,,,,,,,,,,,,,,
1577421732.967983,62.000000,0.000000,4183.077148,4310.256348,4162.563965,4201.538574,4172.307617,0.000000,4.000000,,,,0.000000,4.000000,4.000000,4.000000,4.000000,4.000000,,,,,,,,,,,,,,,,,,,,,,,,,
1577421732.975680,63.000000,0.000000,4186.666504,4307.692383,4161.538574,4205.641113,4176.922852,0.000000,4.000000,,,,0.000000,4.000000,4.000000,4.000000,4.000000,4.000000,,,,,,,,,,,,,,,,,,,,,,,,,
1577421732.983377,64.000000,0.000000,4184.615234,4304.615234,4142.051270,4197.948730,4177.948730,450.000000,4.000000,,,,0.000000,4.000000,4.000000,4.000000,4.000000,4.000000,,,,,,,,,,,,,,,,,,,,,,,,,
1577421732.991175,65.000000,0.000000,4170.256348,4304.615234,4124.102539,4186.666504,4164.615234,450.000000,4.000000,,,,0.000000,4.000000,4.000000,4.000000,4.000000,4.000000,,,,,,,,,,,,,,,,,,,,,,,,,
1577421732.998872,66.000000,0.000000,4159.487305,4295.384766,4125.128418,4186.153809,4153.846191,16217.000000,4.000000,,,,0.000000,4.000000,4.000000,4.000000,4.000000,4.000000,,,,,,,,,,,,,,,,,,,,,,,,,
1577421733.006669,67.000000,0.000000,4156.410156,4284.102539,4120.512695,4188.717773,4155.384766,450.000000,4.000000,,,,0.000000,4.000000,4.000000,4.000000,4.000000,4.000000,,,,,,,,,,,,,,,,,,,,,,,,,
1577421733.014467,68.000000,0.000000,4158.974121,4288.717773,4103.077148,4193.846191,4153.846191,16185.000000,4.000000,,,,0.000000,4.000000,4.000000,4.000000,4.000000,4.000000,,,,,,,,,,,,,,,,,,,,,,,,,
1577421733.022163,69.000000,0.000000,4155.384766,4297.436035,4094.871826,4190.256348,4140.000000,450.000000,4.000000,,,,0.000000,4.000000,4.000000,4.000000,4.000000,4.000000,,,,,,,,,,,,,,,,,,,,,,,,,
1577421733.029860,70.000000,0.000000,4141.538574,4292.820313,4095.897461,4173.846191,4122.051270,16148.000000,4.000000,,,,0.000000,4.000000,4.000000,4.000000,4.000000,4.000000,,,,,,,,,,,,,,,,,,,,,,,,,
1577421733.037658,71.000000,0.000000,4143.077148,4288.717773,4100.512695,4172.820313,4123.589844,450.000000,4.000000,,,,0.000000,4.000000,4.000000,4.000000,4.000000,4.000000,,,,,,,,,,,,,,,,,,,,,,,,,
1577421733.045355,72.000000,0.000000,4165.128418,4293.846191,4110.256348,4191.282227,4149.743652,450.000000,4.000000,,,,0.000000,4.000000,4.000000,4.000000,4.000000,4.000000,,,,,,,,,,,,,,,,,,,,,,,,,
1577421733.053152,73.000000,0.000000,4169.230957,4296.922852,4109.743652,4189.230957,4154.871582,16171.000000,4.000000,,,,0.000000,4.000000,4.000000,4.000000,4.000000,4.000000,10.853347,9.034979,3.037293,1.570694,0.874238,11.543824,2.343772,2.103746,1.125498,0.620429,183.317749,12.700625,3.076623,1.485331,0.552582,5.124125,2.060515,1.923708,1.371943,0.698481,7.209311,6.288424,2.537513,1.766586,0.815219
1577421733.060849,74.000000,0.000000,4162.051270,4296.922852,4103.589844,4178.974121,4145.128418,450.000000,4.000000,,,,0.000000,4.000000,4.000000,4.000000,4.000000,4.000000,,,,,,,,,,,,,,,,,,,,,,,,,
1577421733.068646,75.000000,0.000000,4185.641113,4304.102539,4113.333496,4202.563965,4164.102539,16222.000000,4.000000,,,,0.000000,4.000000,4.000000,4.000000,4.000000,4.000000,,,,,,,,,,,,,,,,,,,,,,,,,
1577421733.076343,76.000000,0.000000,4194.871582,4304.102539,4113.333496,4206.153809,4163.589844,450.000000,4.000000,,,,0.000000,4.000000,4.000000,4.000000,4.000000,4.000000,,,,,,,,,,,,,,,,,,,,,,,,,
1577421733.084140,77.000000,0.000000,4167.179688,4290.256348,4093.333252,4174.358887,4131.794922,450.000000,4.000000,,,,0.000000,4.000000,4.000000,4.000000,4.000000,4.000000,,,,,,,,,,,,,,,,,,,,,,,,,
1577421733.091837,78.000000,0.000000,4167.692383,4295.384766,4087.179443,4172.820313,4129.230957,450.000000,4.000000,,,,0.000000,4.000000,4.000000,4.000000,4.000000,4.000000,,,,,,,,,,,,,,,,,,,,,,,,,
1577421733.099634,79.000000,0.000000,4187.692383,4306.666504,4089.230713,4189.230957,4150.769043,16222.000000,4.000000,,,,0.000000,4.000000,4.000000,4.000000,4.000000,4.000000,,,,,,,,,,,,,,,,,,,,,,,,,
1577421733.107330,80.000000,0.000000,4187.692383,4296.410156,4093.846191,4192.307617,4166.153809,450.000000,4.000000,,,,0.000000,4.000000,4.000000,4.000000,4.000000,4.000000,,,,,,,,,,,,,,,,,,,,,,,,,
1577421733.115127,81.000000,0.000000,4184.102539,4294.871582,4101.025879,4187.179688,4167.179688,450.000000,4.000000,,,,0.000000,4.000000,4.000000,4.000000,4.000000,4.000000,,,,,,,,,,,,,,,,,,,,,,,,,
1577421733.122824,82.000000,0.000000,4182.563965,4309.230957,4100.000000,4181.025879,4155.897461,450.000000,4.000000,,,,0.000000,4.000000,4.000000,4.000000,4.000000,4.000000,,,,,,,,,,,,,,,,,,,,,,,,,
1577421733.130621,83.000000,0.000000,4173.846191,4306.666504,4103.589844,4178.461426,4146.153809,16222.000000,4.000000,,,,0.000000,4.000000,4.000000,4.000000,4.000000,4.000000,,,,,,,,,,,,,,,,,,,,,,,,,
1577421733.138318,84.000000,0.000000,4169.230957,4293.333496,4111.794922,4178.974121,4148.717773,450.000000,4.000000,,,,0.000000,4.000000,4.000000,4.000000,4.000000,4.000000,,,,,,,,,,,,,,,,,,,,,,,,,
1577421733.146114,85.000000,0.000000,4176.922852,4301.538574,4121.025879,4183.589844,4159.487305,450.000000,4.000000,,,,0.000000,4.000000,4.000000,4.000000,4.000000,4.000000,,,,,,,,,,,,,,,,,,,,,,,,,
1577421733.153811,86.000000,0.000000,4174.871582,4307.179688,4129.743652,4184.102539,4154.358887,450.000000,4.000000,,,,0.000000,4.000000,4.000000,4.000000,4.000000,4.000000,,,,,,,,,,,,,,,,,,,,,,,,,
1577421733.161608,87.000000,0.000000,4156.410156,4289.230957,4125.641113,4164.615234,4132.820313,16222.000000,4.000000,,,,0.000000,4.000000,4.000000,4.000000,4.000000,4.000000,,,,,,,,,,,,,,,,,,,,,,,,,
1577421733.169304,88.000000,0.000000,4155.384766,4291.794922,4123.077148,4152.307617,4125.128418,450.000000,4.000000,,,,0.000000,4.000000,4.000000,4.000000,4.000000,4.000000,,,,,,,,,,,,,,,,,,,,,,,,,
1577421733.177101,89.000000,0.000000,4169.230957,4310.769043,4132.307617,4164.102539,4131.282227,450.000000,4.000000,,,,0.000000,4.000000,4.000000,4.000000,4.000000,4.000000,10.187476,9.234532,3.287500,1.801166,0.799571,15.256308,2.541195,1.837563,1.051479,0.539328,264.980408,18.149027,2.784756,1.583763,0.447025,4.874103,1.870293,1.874449,1.589245,0.646665,6.717706,6.595942,2.079620,1.941149,0.754933
1577421733.184797,90.000000,0.000000,4175.384766,4309.743652,4137.436035,4175.384766,4141.025879,450.000000,4.000000,,,,0.000000,4.000000,4.000000,4.000000,4.000000,4.000000,,,,,,,,,,,,,,,,,,,,,,,,,
1577421733.192594,91.000000,0.000000,4180.512695,4301.025879,4136.410156,4181.538574,4155.897461,16222.000000,4.000000,,,,0.000000,4.000000,4.000000,4.000000,4.000000,4.000000,,,,,,,,,,,,,,,,,,,,,,,,,
1577421733.200290,92.000000,0.000000,4177.948730,4296.922852,4130.769043,4180.512695,4155.384766,450.000000,4.000000,,,,0.000000,4.000000,4.000000,4.000000,4.000000,4.000000,,,,,,,,,,,,,,,,,,,,,,,,,
1577421733.208087,93.000000,0.000000,4168.717773,4293.333496,4121.025879,4167.692383,4142.051270,450.000000,4.000000,,,,0.000000,4.000000,4.000000,4.000000,4.000000,4.000000,,,,,,,,,,,,,,,,,,,,,,,,,
1577421733.215783,94.000000,0.000000,4169.230957,4287.179688,4111.794922,4164.102539,4138.461426,450.000000,4.000000,,,,0.000000,4.000000,4.000000,4.000000,4.000000,4.000000,,,,,,,,,,,,,,,,,,,,,,,,,
1577421733.223480,95.000000,0.000000,4175.384766,4274.871582,4101.025879,4166.153809,4143.077148,16222.000000,4.000000,,,,0.000000,4.000000,4.000000,4.000000,4.000000,4.000000,,,,,,,,,,,,,,,,,,,,,,,,,
1577421733.231278,96.000000,0.000000,4172.307617,4269.743652,4099.487305,4160.512695,4145.128418,450.000000,4.000000,,,,0.000000,4.000000,4.000000,4.000000,4.000000,4.000000,,,,,,,,,,,,,,,,,,,,,,,,,
1577421733.239075,97.000000,0.000000,4168.717773,4285.641113,4107.692383,4154.358887,4140.512695,450.000000,4.000000,,,,0.000000,4.000000,4.000000,4.000000,4.000000,4.000000,,,,,,,,,,,,,,,,,,,,,,,,,
1577421733.246771,98.000000,0.000000,4177.948730,4306.153809,4111.794922,4160.000000,4147.692383,450.000000,4.000000,,,,0.000000,4.000000,4.000000,4.000000,4.000000,4.000000,,,,,,,,,,,,,,,,,,,,,,,,,
1577421733.254468,99.000000,0.000000,4178.974121,4298.974121,4107.179688,4164.615234,4154.871582,16222.000000,4.000000,,,,0.000000,4.000000,4.000000,4.000000,4.000000,4.000000,,,,,,,,,,,,,,,,,,,,,,,,,
1577421733.262265,100.000000,0.000000,4159.487305,4281.025879,4095.897461,4158.974121,4142.563965,450.000000,4.000000,,,,0.000000,4.000000,4.000000,4.000000,4.000000,4.000000,,,,,,,,,,,,,,,,,,,,,,,,,
1577421733.269962,101.000000,0.000000,4146.153809,4291.282227,4088.205078,4159.487305,4130.256348,450.000000,4.000000,,,,0.000000,4.000000,4.000000,4.000000,4.000000,4.000000,,,,,,,,,,,,,,,,,,,,,,,,,
1577421733.277759,102.000000,0.000000,4144.615234,4302.051270,4086.153809,4166.666504,4133.333496,450.000000,4.000000,,,,0.000000,4.000000,4.000000,4.000000,4.000000,4.000000,,,,,,,,,,,,,,,,,,,,,,,,,
1577421733.285456,103.000000,0.000000,4148.717773,4284.615234,4085.128174,4167.692383,4141.538574,16222.000000,4.000000,,,,0.000000,4.000000,4.000000,4.000000,4.000000,4.000000,,,,,,,,,,,,,,,,,,,,,,,,,
1577421733.293253,104.000000,0.000000,4147.179688,4264.615234,4080.000000,4157.948730,4137.436035,450.000000,4.000000,,,,0.000000,4.000000,4.000000,4.000000,4.000000,4.000000,,,,,,,,,,,,,,,,,,,,,,,,,
1577421733.300950,105.000000,0.000000,4141.538574,4274.358887,4076.923096,4151.282227,4134.358887,450.000000,4.000000,,,,0.000000,4.000000,4.000000,4.000000,4.000000,4.000000,9.372238,9.868327,3.422908,2.063949,0.750250,18.360357,2.567431,1.512927,0.996508,0.484018,330.451752,22.640766,2.465273,1.707199,0.363524,4.561954,1.833923,1.915184,1.781505,0.601728,6.390591,7.134139,1.772317,2.128266,0.717871
1577421733.308747,106.000000,0.000000,4154.358887,4291.282227,4086.153809,4158.974121,4146.153809,450.000000,4.000000,,,,0.000000,4.000000,4.000000,4.000000,4.000000,4.000000,,,,,,,,,,,,,,,,,,,,,,,,,
1577421733.316444,107.000000,0.000000,4169.743652,4286.666504,4096.922852,4166.153809,4157.436035,16222.000000,4.000000,,,,0.000000,4.000000,4.000000,4.000000,4.000000,4.000000,,,,,,,,,,,,,,,,,,,,,,,,,
1577421733.324241,108.000000,0.000000,4168.717773,4286.666504,4102.051270,4163.589844,4156.922852,450.000000,4.000000,,,,0.000000,4.000000,4.000000,4.000000,4.000000,4.000000,,,,,,,,,,,,,,,,,,,,,,,,,
1577421733.331938,109.000000,0.000000,4159.487305,4295.384766,4097.948730,4157.436035,4145.128418,450.000000,4.000000,,,,0.000000,4.000000,4.000000,4.000000,4.000000,4.000000,,,,,,,,,,,,,,,,,,,,,,,,,
1577421733.339734,110.000000,0.000000,4153.333496,4281.538574,4088.718018,4157.436035,4137.436035,450.000000,4.000000,,,,0.000000,4.000000,4.000000,4.000000,4.000000,4.000000,,,,,,,,,,,,,,,,,,,,,,,,,
1577421733.347431,111.000000,0.000000,4154.871582,4272.307617,4093.333252,4165.128418,4141.538574,16222.000000,4.000000,,,,0.000000,4.000000,4.000000,4.000000,4.000000,4.000000,,,,,,,,,,,,,,,,,,,,,,,,,
1577421733.355228,112.000000,0.000000,4160.000000,4277.948730,4108.717773,4175.897461,4146.153809,450.000000,4.000000,,,,0.000000,4.000000,4.000000,4.000000,4.000000,4.000000,,,,,,,,,,,,,,,,,,,,,,,,,
1577421733.362924,113.000000,0.000000,4156.922852,4276.922852,4117.436035,4182.563965,4149.230957,450.000000,4.000000,,,,0.000000,4.000000,4.000000,4.000000,4.000000,4.000000,,,,,,,,,,,,,,,,,,,,,,,,,
1577421733.370622,114.000000,0.000000,4143.589844,4280.000000,4116.922852,4175.384766,4142.563965,450.000000,4.000000,,,,0.000000,4.000000,4.000000,4.000000,4.000000,4.000000,,,,,,,,,,,,,,,,,,,,,,,,,
1577421733.378419,115.000000,0.000000,4130.769043,4278.461426,4114.358887,4160.000000,4124.615234,16222.000000,4.000000,,,,0.000000,4.000000,4.000000,4.000000,4.000000,4.000000,,,,,,,,,,,,,,,,,,,,,,,,,
1577421733.386117,116.000000,0.000000,4124.102539,4260.512695,4115.384766,4154.871582,4115.384766,450.000000,4.000000,,,,0.000000,4.000000,4.000000,4.000000,4.000000,4.000000,,,,,,,,,,,,,,,,,,,,,,,,,
1577421733.393914,117.000000,0.000000,4110.769043,4254.358887,4117.948730,4147.692383,4109.230957,450.000000,4.000000,,,,0.000000,4.000000,4.000000,4.000000,4.000000,4.000000,,,,,,,,,,,,,,,,,,,,,,,,,
1577421733.401611,118.000000,0.000000,4103.077148,4265.128418,4134.358887,4141.025879,4110.769043,450.000000,4.000000,,,,0.000000,4.000000,4.000000,4.000000,4.000000,4.000000,,,,,,,,,,,,,,,,,,,,,,,,,
1577421733.409408,119.000000,0.000000,4125.641113,4273.333496,4163.077148,4149.230957,4131.282227,16222.000000,4.000000,,,,0.000000,4.000000,4.000000,4.000000,4.000000,4.000000,,,,,,,,,,,,,,,,,,,,,,,,,
1577421733.417106,120.000000,0.000000,4140.512695,4274.871582,4177.436035,4148.717773,4146.666504,450.000000,4.000000,,,,0.000000,4.000000,4.000000,4.000000,4.000000,4.000000,,,,,,,,,,,,,,,,,,,,,,,,,
1577421733.424903,121.000000,0.000000,4133.333496,4278.974121,4193.333496,4144.102539,4149.743652,450.000000,4.000000,,,,0.000000,4.000000,4.000000,4.000000,4.000000,4.000000,8.969933,11.074511,3.325002,2.276302,0.732924,19.818291,2.406766,1.192029,0.961451,0.456225,359.168732,24.709562,2.163635,1.799314,0.310748,4.258044,1.932355,1.944775,1.884448,0.572957,6.462986,7.923510,1.621535,2.279051,0.705384
1577421733.432600,122.000000,0.000000,4128.717773,4278.974121,4216.410156,4144.615234,4147.692383,450.000000,4.000000,,,,0.000000,4.000000,4.000000,4.000000,4.000000,4.000000,,,,,,,,,,,,,,,,,,,,,,,,,
1577421733.440397,123.000000,0.000000,4134.358887,4279.487305,4223.589844,4147.179688,4145.641113,16222.000000,4.000000,,,,0.000000,4.000000,4.000000,4.000000,4.000000,4.000000,,,,,,,,,,,,,,,,,,,,,,,,,
1577421733.448194,124.000000,0.000000,4128.717773,4274.871582,4211.794922,4144.102539,4133.333496,450.000000,4.000000,,,,0.000000,4.000000,4.000000,4.000000,4.000000,4.000000,,,,,,,,,,,,,,,,,,,,,,,,,
1577421733.455890,125.000000,0.000000,4096.922852,4264.615234,4188.717773,4123.077148,4103.077148,450.000000,4.000000,,,,0.000000,4.000000,4.000000,4.000000,4.000000,4.000000,,,,,,,,,,,,,,,,,,,,,,,,,
1577421733.463588,126.000000,0.000000,4094.871826,4281.025879,4192.820313,4127.692383,4101.025879,450.000000,4.000000,,,,0.000000,4.000000,4.000000,4.000000,4.000000,4.000000,,,,,,,,,,,,,,,,,,,,,,,,,
1577421733.471385,127.000000,0.000000,4132.307617,4304.102539,4220.512695,4158.461426,4137.948730,234.000000,4.000000,,,,0.000000,4.000000,4.000000,4.000000,4.000000,4.000000,,,,,,,,,,,,,,,,,,,,,,,,,
1577421733.479082,0.000000,0.000000,4141.538574,4290.256348,4217.436035,4155.897461,4152.820313,450.000000,4.000000,,,,0.000000,4.000000,4.000000,4.000000,4.000000,4.000000,,,,,,,,,,,,,,,,,,,,,,,,,
1577421733.486780,1.000000,0.000000,4127.179688,4279.487305,4203.589844,4133.846191,4144.615234,450.000000,4.000000,,,,0.000000,4.000000,4.000000,4.000000,4.000000,4.000000,,,,,,,,,,,,,,,,,,,,,,,,,
1577421733.494577,2.000000,0.000000,4134.871582,4294.871582,4206.666504,4131.282227,4152.307617,16220.000000,4.000000,,,,0.000000,4.000000,4.000000,4.000000,4.000000,4.000000,,,,,,,,,,,,,,,,,,,,,,,,,
1577421733.502375,3.000000,0.000000,4151.794922,4297.948730,4211.794922,4132.307617,4168.205078,450.000000,4.000000,,,,0.000000,4.000000,4.000000,4.000000,4.000000,4.000000,,,,,,,,,,,,,,,,,,,,,,,,,
1577421733.510072,4.000000,0.000000,4153.333496,4291.282227,4214.871582,4123.077148,4167.692383,16181.000000,4.000000,,,,0.000000,4.000000,4.000000,4.000000,4.000000,4.000000,,,,,,,,,,,,,,,,,,,,,,,,,
1577421733.517869,5.000000,0.000000,4150.256348,4296.922852,4213.846191,4115.897461,4158.974121,450.000000,4.000000,,,,0.000000,4.000000,4.000000,4.000000,4.000000,4.000000,,,,,,,,,,,,,,,,,,,,,,,,,
1577421733.525665,6.000000,0.000000,4152.307617,4307.692383,4215.384766,4121.025879,4158.461426,16137.000000,4.000000,,,,0.000000,4.000000,4.000000,4.000000,4.000000,4.000000,,,,,,,,,,,,,,,,,,,,,,,,,
1577421733.533361,7.000000,0.000000,4150.769043,4306.153809,4220.000000,4125.128418,4156.922852,450.000000,4.000000,,,,0.000000,4.000000,4.000000,4.000000,4.000000,4.000000,,,,,,,,,,,,,,,,,,,,,,,,,
1577421733.541058,8.000000,0.000000,4141.538574,4294.871582,4214.871582,4120.000000,4152.820313,450.000000,4.000000,,,,0.000000,4.000000,4.000000,4.000000,4.000000,4.000000,,,,,,,,,,,,,,,,,,,,,,,,,
1577421733.548756,9.000000,0.000000,4131.794922,4287.179688,4200.512695,4117.948730,4146.153809,16157.000000,4.000000,,,,0.000000,4.000000,4.000000,4.000000,4.000000,4.000000,8.848448,12.598365,2.937029,2.362484,0.744920,18.972328,2.102805,0.925173,0.929819,0.452288,344.399078,23.705816,1.860790,1.802592,0.288987,4.052602,2.085355,1.863117,1.866224,0.566306,6.803755,8.781749,1.571999,2.351573,0.715503
1577421733.556553,10.000000,0.000000,4122.051270,4284.615234,4183.077148,4116.410156,4136.410156,450.000000,4.000000,,,,0.000000,4.000000,4.000000,4.000000,4.000000,4.000000,,,,,,,,,,,,,,,,,,,,,,,,,
1577421733.564351,11.000000,0.000000,4105.128418,4283.077148,4161.538574,4101.538574,4122.051270,16211.000000,4.000000,,,,0.000000,4.000000,4.000000,4.000000,4.000000,4.000000,,,,,,,,,,,,,,,,,,,,,,,,,
1577421733.572047,12.000000,0.000000,4098.461426,4271.794922,4147.692383,4086.666748,4106.153809,450.000000,4.000000,,,,0.000000,4.000000,4.000000,4.000000,4.000000,4.000000,,,,,,,,,,,,,,,,,,,,,,,,,
1577421733.579844,13.000000,0.000000,4111.794922,4267.179688,4158.974121,4101.025879,4115.384766,450.000000,4.000000,,,,0.000000,4.000000,4.000000,4.000000,4.000000,4.000000,,,,,,,,,,,,,,,,,,,,,,,,,
1577421733.587540,14.000000,0.000000,4129.743652,4286.666504,4178.461426,4129.743652,4137.436035,450.000000,4.000000,,,,0.000000,4.000000,4.000000,4.000000,4.000000,4.000000,,,,,,,,,,,,,,,,,,,,,,,,,
1577421733.595337,15.000000,0.000000,4141.025879,4298.461426,4185.641113,4136.922852,4151.282227,16211.000000,4.000000,,,,0.000000,4.000000,4.000000,4.000000,4.000000,4.000000,,,,,,,,,,,,,,,,,,,,,,,,,
1577421733.603033,16.000000,0.000000,4150.769043,4276.410156,4182.563965,4135.897461,4168.717773,0.000000,4.000000,,,,0.000000,4.000000,4.000000,4.000000,4.000000,4.000000,,,,,,,,,,,,,,,,,,,,,,,,,
1577421733.610830,17.000000,0.000000,4144.615234,4253.333496,4172.820313,4134.358887,4171.282227,0.000000,4.000000,,,,0.000000,4.000000,4.000000,4.000000,4.000000,4.000000,,,,,,,,,,,,,,,,,,,,,,,,,
1577421733.618526,18.000000,0.000000,4126.666504,4257.948730,4162.563965,4121.025879,4156.410156,0.000000,4.000000,,,,0.000000,4.000000,4.000000,4.000000,4.000000,4.000000,,,,,,,,,,,,,,,,,,,,,,,,,
1577421733.626322,19.000000,0.000000,4138.461426,4272.820313,4160.512695,4117.948730,4165.641113,0.000000,4.000000,,,,0.000000,4.000000,4.000000,4.000000,4.000000,4.000000,,,,,,,,,,,,,,,,,,,,,,,,,
1577421733.634019,20.000000,0.000000,4162.051270,4262.051270,4153.333496,4127.692383,4192.820313,0.000000,4.000000,,,,0.000000,4.000000,4.000000,4.000000,4.000000,4.000000,,,,,,,,,,,,,,,,,,,,,,,,,
1577421733.641716,21.000000,0.000000,4149.230957,4237.436035,4129.230957,4122.563965,4189.230957,0.000000,4.000000,,,,0.000000,4.000000,4.000000,4.000000,4.000000,4.000000,,,,,,,,,,,,,,,,,,,,,,,,,
1577421733.649513,22.000000,0.000000,4121.538574,4223.077148,4091.794922,4102.563965,4159.487305,0.000000,4.000000,,,,0.000000,4.000000,4.000000,4.000000,4.000000,4.000000,,,,,,,,,,,,,,,,,,,,,,,,,
1577421733.657210,23.000000,0.000000,4114.358887,4206.153809,4053.333252,4089.743652,4147.692383,0.000000,4.000000,,,,0.000000,4.000000,4.000000,4.000000,4.000000,4.000000,,,,,,,,,,,,,,,,,,,,,,,,,
1577421733.665007,24.000000,0.000000,4124.102539,4190.256348,4047.179443,4102.563965,4156.410156,0.000000,4.000000,,,,0.000000,4.000000,4.000000,4.000000,4.000000,4.000000,,,,,,,,,,,,,,,,,,,,,,,,,
1577421733.672704,25.000000,0.000000,4117.436035,4178.974121,4053.846191,4101.538574,4146.666504,0.000000,4.000000,,,,0.000000,4.000000,4.000000,4.000000,4.000000,4.000000,9.039579,13.875398,2.330140,2.290435,0.771233,16.051153,1.746078,0.745281,0.882375,0.465693,292.005493,19.993467,1.532376,1.698308,0.290449,3.767923,2.183058,1.651554,1.740228,0.577633,7.283557,9.402323,1.562810,2.335727,0.737178
1577421733.680501,26.000000,0.000000,4111.794922,4173.846191,4050.769287,4086.666748,4136.410156,0.000000,4.000000,,,,0.000000,4.000000,4.000000,4.000000,4.000000,4.000000,,,,,,,,,,,,,,,,,,,,,,,,,
1577421733.688198,27.000000,0.000000,4116.922852,4174.871582,4055.384521,4086.666748,4140.000000,0.000000,4.000000,,,,0.000000,4.000000,4.000000,4.000000,4.000000,4.000000,,,,,,,,,,,,,,,,,,,,,,,,,
1577421733.695995,28.000000,0.000000,4105.128418,4170.256348,4066.153809,4081.538574,4130.256348,0.000000,4.000000,,,,0.000000,4.000000,4.000000,4.000000,4.000000,4.000000,,,,,,,,,,,,,,,,,,,,,,,,,
1577421733.703692,29.000000,0.000000,4106.153809,4169.230957,4080.000000,4081.538574,4133.846191,0.000000,4.000000,,,,0.000000,4.000000,4.000000,4.000000,4.000000,4.000000,,,,,,,,,,,,,,,,,,,,,,,,,
1577421733.711488,30.000000,0.000000,4115.897461,4172.307617,4090.256348,4089.230713,4143.077148,0.000000,4.000000,,,,0.000000,4.000000,4.000000,4.000000,4.000000,4.000000,,,,,,,,,,,,,,,,,,,,,,,,,
1577421733.719185,31.000000,0.000000,4103.077148,4172.307617,4090.256348,4082.564209,4127.692383,0.000000,4.000000,,,,0.000000,4.000000,4.000000,4.000000,4.000000,4.000000,,,,,,,,,,,,,,,,,,,,,,,,,
1577421733.726982,32.000000,0.000000,4109.743652,4180.000000,4105.128418,4084.615479,4132.307617,0.000000,4.000000,,,,0.000000,4.000000,4.000000,4.000000,4.000000,4.000000,,,,,,,,,,,,,,,,,,,,,,,,,
1577421733.734679,33.000000,0.000000,4151.794922,4197.948730,4133.333496,4115.897461,4177.436035,0.000000,4.000000,,,,0.000000,4.000000,4.000000,4.000000,4.000000,4.000000,,,,,,,,,,,,,,,,,,,,,,,,,
1577421733.742476,34.000000,0.000000,4169.743652,4205.128418,4146.153809,4130.769043,4201.538574,0.000000,4.000000,,,,0.000000,4.000000,4.000000,4.000000,4.000000,4.000000,,,,,,,,,,,,,,,,,,,,,,,,,
1577421733.750172,35.000000,0.000000,4140.000000,4185.641113,4134.358887,4101.538574,4161.538574,0.000000,4.000000,,,,0.000000,4.000000,4.000000,4.000000,4.000000,4.000000,,,,,,,,,,,,,,,,,,,,,,,,,
1577421733.757969,36.000000,0.000000,4125.641113,4173.846191,4132.307617,4088.718018,4132.307617,0.000000,4.000000,,,,0.000000,4.000000,4.000000,4.000000,4.000000,4.000000,,,,,,,,,,,,,,,,,,,,,,,,,
1577421733.765665,37.000000,0.000000,4159.487305,4195.897461,4160.000000,4121.025879,4166.666504,0.000000,4.000000,,,,0.000000,4.000000,4.000000,4.000000,4.000000,4.000000,,,,,,,,,,,,,,,,,,,,,,,,,
1577421733.773462,38.000000,0.000000,4180.000000,4211.282227,4176.922852,4140.512695,4191.282227,0.000000,4.000000,,,,0.000000,4.000000,4.000000,4.000000,4.000000,4.000000,,,,,,,,,,,,,,,,,,,,,,,,,
1577421733.781158,39.000000,0.000000,4162.051270,4194.871582,4162.051270,4124.102539,4173.333496,0.000000,4.000000,,,,0.000000,4.000000,4.000000,4.000000,4.000000,4.000000,,,,,,,,,,,,,,,,,,,,,,,,,
1577421733.788955,40.000000,0.000000,4140.000000,4180.000000,4151.282227,4109.743652,4154.871582,0.000000,4.000000,,,,0.000000,4.000000,4.000000,4.000000,4.000000,4.000000,,,,,,,,,,,,,,,,,,,,,,,,,
1577421733.796651,41.000000,0.000000,4133.333496,4187.692383,4155.384766,4110.256348,4153.846191,0.000000,4.000000,,,,0.000000,4.000000,4.000000,4.000000,4.000000,4.000000,9.173180,14.346462,1.681862,2.090526,0.796087,11.754618,1.433332,0.672759,0.818169,0.493371,218.850494,14.861486,1.215327,1.525805,0.306148,3.355635,2.170930,1.397446,1.561033,0.596466,7.593762,9.544939,1.595947,2.263651,0.756398
1577421733.804349,42.000000,0.000000,4136.922852,4191.282227,4154.358887,4103.077148,4148.717773,0.000000,4.000000,,,,0.000000,4.000000,4.000000,4.000000,4.000000,4.000000,,,,,,,,,,,,,,,,,,,,,,,,,
1577421733.812146,43.000000,0.000000,4132.820313,4177.436035,4154.871582,4088.718018,4137.948730,0.000000,4.000000,,,,0.000000,4.000000,4.000000,4.000000,4.000000,4.000000,,,,,,,,,,,,,,,,,,,,,,,,,
1577421733.819843,44.000000,0.000000,4129.743652,4178.974121,4172.820313,4091.794922,4142.051270,0.000000,4.000000,,,,0.000000,4.000000,4.000000,4.000000,4.000000,4.000000,,,,,,,,,,,,,,,,,,,,,,,,,
1577421733.827640,45.000000,0.000000,4129.230957,4186.666504,4183.077148,4099.487305,4138.974121,0.000000,4.000000,,,,0.000000,4.000000,4.000000,4.000000,4.000000,4.000000,,,,,,,,,,,,,,,,,,,,,,,,,
1577421733.835337,46.000000,0.000000,4117.436035,4178.974121,4186.666504,4090.256348,4124.102539,0.000000,4.000000,,,,0.000000,4.000000,4.000000,4.000000,4.000000,4.000000,,,,,,,,,,,,,,,,,,,,,,,,,
1577421733.843035,47.000000,0.000000,4099.487305,4183.589844,4213.333496,4084.102539,4112.820313,0.000000,4.000000,,,,0.000000,4.000000,4.000000,4.000000,4.000000,4.000000,,,,,,,,,,,,,,,,,,,,,,,,,
1577421733.850833,48.000000,0.000000,4095.897461,4197.436035,4244.615234,4088.718018,4111.794922,0.000000,4.000000,,,,0.000000,4.000000,4.000000,4.000000,4.000000,4.000000,,,,,,,,,,,,,,,,,,,,,,,,,
1577421733.858531,49.000000,0.000000,4109.743652,4203.077148,4259.487305,4084.615479,4119.487305,0.000000,4.000000,,,,0.000000,4.000000,4.000000,4.000000,4.000000,4.000000,,,,,,,,,,,,,,,,,,,,,,,,,
1577421733.866329,50.000000,0.000000,4115.384766,4220.000000,4282.051270,4078.974365,4122.051270,0.000000,4.000000,,,,0.000000,4.000000,4.000000,4.000000,4.000000,4.000000,,,,,,,,,,,,,,,,,,,,,,,,,
1577421733.874027,51.000000,0.000000,4112.307617,4240.000000,4318.461426,4086.666748,4125.641113,0.000000,4.000000,,,,0.000000,4.000000,4.000000,4.000000,4.000000,4.000000,,,,,,,,,,,,,,,,,,,,,,,,,
1577421733.881824,52.000000,0.000000,4125.641113,4240.512695,4354.871582,4101.025879,4137.948730,0.000000,4.000000,,,,0.000000,4.000000,4.000000,4.000000,4.000000,4.000000,,,,,,,,,,,,,,,,,,,,,,,,,
1577421733.889522,53.000000,0.000000,4138.461426,4235.384766,4381.025879,4110.256348,4147.692383,0.000000,4.000000,,,,0.000000,4.000000,4.000000,4.000000,4.000000,4.000000,,,,,,,,,,,,,,,,,,,,,,,,,
1577421733.897320,54.000000,0.000000,4126.666504,4241.025879,4384.615234,4110.769043,4145.128418,0.000000,4.000000,,,,0.000000,4.000000,4.000000,4.000000,4.000000,4.000000,,,,,,,,,,,,,,,,,,,,,,,,,
1577421733.905017,55.000000,0.000000,4120.000000,4245.128418,4376.410156,4103.077148,4138.974121,0.000000,4.000000,,,,0.000000,4.000000,4.000000,4.000000,4.000000,4.000000,,,,,,,,,,,,,,,,,,,,,,,,,
1577421733.912716,56.000000,0.000000,4128.717773,4234.871582,4363.589844,4088.718018,4140.512695,0.000000,4.000000,,,,0.000000,4.000000,4.000000,4.000000,4.000000,4.000000,,,,,,,,,,,,,,,,,,,,,,,,,
1577421733.920514,57.000000,0.000000,4125.128418,4239.487305,4353.333496,4082.564209,4136.410156,0.000000,4.000000,,,,0.000000,4.000000,4.000000,4.000000,4.000000,4.000000,9.161469,13.737688,1.178863,1.837861,0.811924,7.429184,1.233307,0.689212,0.755545,0.533258,144.795334,10.102177,0.976237,1.362391,0.328944,2.893523,2.050226,1.201574,1.394039,0.612507,7.643825,9.177700,1.682225,2.187845,0.765172
1577421733.928313,58.000000,0.000000,4107.692383,4251.794922,4340.512695,4087.179443,4122.051270,0.000000,4.000000,,,,0.000000,4.000000,4.000000,4.000000,4.000000,4.000000,,,,,,,,,,,,,,,,,,,,,,,,,
1577421733.936010,59.000000,0.000000,4094.358887,4230.256348,4318.461426,4083.589844,4113.846191,0.000000,4.000000,,,,0.000000,4.000000,4.000000,4.000000,4.000000,4.000000,,,,,,,,,,,,,,,,,,,,,,,,,
1577421733.943709,60.000000,0.000000,4073.333252,4209.743652,4293.846191,4061.538574,4096.922852,0.000000,4.000000,,,,0.000000,4.000000,4.000000,4.000000,4.000000,4.000000,,,,,,,,,,,,,,,,,,,,,,,,,
1577421733.951410,61.000000,0.000000,4062.051270,4225.641113,4283.589844,4057.435791,4084.102539,0.000000,4.000000,,,,0.000000,4.000000,4.000000,4.000000,4.000000,4.000000,,,,,,,,,,,,,,,,,,,,,,,,,
1577421733.959312,62.000000,0.000000,4100.512695,4251.282227,4310.256348,4098.974121,4121.538574,0.000000,4.000000,,,,0.000000,4.000000,4.000000,4.000000,4.000000,4.000000,,,,,,,,,,,,,,,,,,,,,,,,,
1577421733.967113,63.000000,0.000000,4120.512695,4244.615234,4333.846191,4116.410156,4142.051270,0.000000,4.000000,,,,0.000000,4.000000,4.000000,4.000000,4.000000,4.000000,,,,,,,,,,,,,,,,,,,,,,,,,
1577421733.974915,64.000000,0.000000,4089.230713,4221.538574,4317.436035,4088.205078,4114.358887,450.000000,4.000000,,,,0.000000,4.000000,4.000000,4.000000,4.000000,4.000000,,,,,,,,,,,,,,,,,,,,,,,,,
1577421733.982717,65.000000,0.000000,4086.153809,4219.487305,4302.563965,4087.692383,4113.333496,450.000000,4.000000,,,,0.000000,4.000000,4.000000,4.000000,4.000000,4.000000,,,,,,,,,,,,,,,,,,,,,,,,,
1577421733.990622,66.000000,0.000000,4100.512695,4224.615234,4307.179688,4097.436035,4125.128418,16218.000000,4.000000,,,,0.000000,4.000000,4.000000,4.000000,4.000000,4.000000,,,,,,,,,,,,,,,,,,,,,,,,,
1577421733.998527,67.000000,0.000000,4086.666748,4223.589844,4300.512695,4082.564209,4109.230957,450.000000,4.000000,,,,0.000000,4.000000,4.000000,4.000000,4.000000,4.000000,,,,,,,,,,,,,,,,,,,,,,,,,
1577421734.006333,68.000000,0.000000,4075.384521,4214.358887,4276.410156,4066.153809,4090.256348,16196.000000,4.000000,,,,0.000000,4.000000,4.000000,4.000000,4.000000,4.000000,,,,,,,,,,,,,,,,,,,,,,,,,
1577421734.014239,69.000000,1.000000,4081.823242,4221.367676,4278.632324,4069.971436,4095.441650,450.000000,4.000000,,,,0.000000,4.000000,4.000000,4.000000,4.000000,4.000000,,,,,,,,,,,,,,,,,,,,,,,,,
1577421734.022044,70.000000,1.000000,4088.262207,4228.375977,4280.854492,4073.789063,4100.626953,16137.000000,4.000000,,,,0.000000,4.000000,4.000000,4.000000,4.000000,4.000000,,,,,,,,,,,,,,,,,,,,,,,,,
1577421734.029850,71.000000,1.000000,4094.700928,4235.384766,4283.077148,4077.606934,4105.812012,450.000000,4.000000,,,,0.000000,4.000000,4.000000,4.000000,4.000000,4.000000,,,,,,,,,,,,,,,,,,,,,,,,,
1577421734.037655,72.000000,1.000000,4101.139648,4242.393066,4285.299316,4081.424561,4110.997070,450.000000,4.000000,,,,0.000000,4.000000,4.000000,4.000000,4.000000,4.000000,,,,,,,,,,,,,,,,,,,,,,,,,
1577421734.045461,73.000000,1.000000,4107.578125,4249.401855,4287.521484,4085.242188,4116.182129,16157.000000,4.000000,,,,0.000000,4.000000,4.000000,4.000000,4.000000,4.000000,8.912381,12.152828,0.919869,1.623264,0.831050,4.515357,1.189770,0.737147,0.721432,0.585390,85.524628,7.135290,0.832583,1.277514,0.358645,2.661850,1.850578,1.114612,1.290139,0.627414,7.466173,8.467886,1.792755,2.155737,0.779074
1577421734.053267,74.000000,1.000000,4114.017090,4256.410156,4289.743652,4089.059814,4121.367676,450.000000,4.000000,,,,0.000000,4.000000,4.000000,4.000000,4.000000,4.000000,,,,,,,,,,,,,,,,,,,,,,,,,
1577421734.061072,75.000000,1.000000,4120.456055,4263.418945,4291.965820,4092.877441,4126.552734,16211.000000,4.000000,,,,0.000000,4.000000,4.000000,4.000000,4.000000,4.000000,,,,,,,,,,,,,,,,,,,,,,,,,
1577421734.068878,76.000000,1.000000,4126.894531,4270.427246,4294.187988,4096.695313,4131.737793,450.000000,4.000000,,,,0.000000,4.000000,4.000000,4.000000,4.000000,4.000000,,,,,,,,,,,,,,,,,,,,,,,,,
1577421734.076683,77.000000,0.000000,4133.333496,4277.436035,4296.410156,4100.512695,4136.922852,450.000000,4.000000,,,,0.000000,4.000000,4.000000,4.000000,4.000000,4.000000,,,,,,,,,,,,,,,,,,,,,,,,,
1577421734.084489,78.000000,0.000000,4148.205078,4282.051270,4296.922852,4117.948730,4160.000000,450.000000,4.000000,,,,0.000000,4.000000,4.000000,4.000000,4.000000,4.000000,,,,,,,,,,,,,,,,,,,,,,,,,
1577421734.092188,79.000000,0.000000,4137.948730,4275.384766,4304.615234,4125.128418,4154.871582,16219.000000,4.000000,,,,0.000000,4.000000,4.000000,4.000000,4.000000,4.000000,,,,,,,,,,,,,,,,,,,,,,,,,
1577421734.099986,80.000000,0.000000,4131.282227,4270.256348,4306.153809,4128.717773,4146.666504,450.000000,4.000000,,,,0.000000,4.000000,4.000000,4.000000,4.000000,4.000000,,,,,,,,,,,,,,,,,,,,,,,,,
1577421734.107687,81.000000,0.000000,4136.410156,4273.846191,4298.461426,4132.307617,4146.153809,450.000000,4.000000,,,,0.000000,4.000000,4.000000,4.000000,4.000000,4.000000,,,,,,,,,,,,,,,,,,,,,,,,,
1577421734.115588,82.000000,0.000000,4120.512695,4262.563965,4275.384766,4125.641113,4133.333496,450.000000,4.000000,,,,0.000000,4.000000,4.000000,4.000000,4.000000,4.000000,,,,,,,,,,,,,,,,,,,,,,,,,
1577421734.123389,83.000000,0.000000,4105.641113,4255.897461,4261.025879,4125.128418,4129.230957,16219.000000,4.000000,,,,0.000000,4.000000,4.000000,4.000000,4.000000,4.000000,,,,,,,,,,,,,,,,,,,,,,,,,
1577421734.131190,84.000000,0.000000,4121.025879,4272.820313,4262.051270,4135.384766,4138.461426,450.000000,4.000000,,,,0.000000,4.000000,4.000000,4.000000,4.000000,4.000000,,,,,,,,,,,,,,,,,,,,,,,,,
1577421734.138991,85.000000,0.000000,4140.512695,4283.077148,4258.461426,4145.128418,4148.717773,450.000000,4.000000,,,,0.000000,4.000000,4.000000,4.000000,4.000000,4.000000,,,,,,,,,,,,,,,,,,,,,,,,,
1577421734.146690,86.000000,0.000000,4136.410156,4274.358887,4250.769043,4142.051270,4146.666504,450.000000,4.000000,,,,0.000000,4.000000,4.000000,4.000000,4.000000,4.000000,,,,,,,,,,,,,,,,,,,,,,,,,
1577421734.154489,87.000000,0.000000,4127.179688,4275.384766,4246.666504,4133.333496,4146.666504,16219.000000,4.000000,,,,0.000000,4.000000,4.000000,4.000000,4.000000,4.000000,,,,,,,,,,,,,,,,,,,,,,,,,
1577421734.162190,88.000000,0.000000,4153.333496,4286.153809,4251.794922,4152.307617,4179.487305,450.000000,4.000000,,,,0.000000,4.000000,4.000000,4.000000,4.000000,4.000000,,,,,,,,,,,,,,,,,,,,,,,,,
1577421734.170091,89.000000,0.000000,4178.974121,4284.615234,4251.282227,4166.153809,4202.051270,450.000000,4.000000,,,,0.000000,4.000000,4.000000,4.000000,4.000000,4.000000,8.780716,9.997902,0.876793,1.502185,0.870730,3.514999,1.295269,0.753056,0.730791,0.646690,49.427185,6.422929,0.770528,1.287459,0.398709,2.993029,1.630464,1.113032,1.257668,0.651526,7.400879,7.692775,1.871227,2.172101,0.822528
1577421734.177994,90.000000,0.000000,4176.922852,4288.717773,4242.563965,4157.948730,4202.563965,450.000000,4.000000,,,,0.000000,4.000000,4.000000,4.000000,4.000000,4.000000,,,,,,,,,,,,,,,,,,,,,,,,,
1577421734.185796,91.000000,0.000000,4190.769043,4296.922852,4237.436035,4168.205078,4219.487305,16219.000000,4.000000,,,,0.000000,4.000000,4.000000,4.000000,4.000000,4.000000,,,,,,,,,,,,,,,,,,,,,,,,,
1577421734.193599,92.000000,0.000000,4192.820313,4275.384766,4222.051270,4169.230957,4213.333496,450.000000,4.000000,,,,0.000000,4.000000,4.000000,4.000000,4.000000,4.000000,,,,,,,,,,,,,,,,,,,,,,,,,
1577421734.201500,93.000000,0.000000,4162.563965,4254.871582,4191.794922,4146.666504,4173.846191,450.000000,4.000000,,,,0.000000,4.000000,4.000000,4.000000,4.000000,4.000000,,,,,,,,,,,,,,,,,,,,,,,,,
1577421734.209302,94.000000,0.000000,4175.384766,4285.128418,4190.769043,4165.641113,4179.487305,450.000000,4.000000,,,,0.000000,4.000000,4.000000,4.000000,4.000000,4.000000,,,,,,,,,,,,,,,,,,,,,,,,,
1577421734.217203,95.000000,0.000000,4215.897461,4312.307617,4209.743652,4206.666504,4213.333496,16219.000000,4.000000,,,,0.000000,4.000000,4.000000,4.000000,4.000000,4.000000,,,,,,,,,,,,,,,,,,,,,,,,,
1577421734.225004,96.000000,0.000000,4185.128418,4277.436035,4178.461426,4179.487305,4176.410156,450.000000,4.000000,,,,0.000000,4.000000,4.000000,4.000000,4.000000,4.000000,,,,,,,,,,,,,,,,,,,,,,,,,
1577421734.232905,97.000000,0.000000,4133.333496,4246.153809,4134.358887,4141.025879,4125.128418,450.000000,4.000000,,,,0.000000,4.000000,4.000000,4.000000,4.000000,4.000000,,,,,,,,,,,,,,,,,,,,,,,,,
1577421734.240706,98.000000,0.000000,4166.666504,4279.487305,4159.487305,4170.256348,4160.512695,450.000000,4.000000,,,,0.000000,4.000000,4.000000,4.000000,4.000000,4.000000,,,,,,,,,,,,,,,,,,,,,,,,,
1577421734.248608,99.000000,0.000000,4206.666504,4310.769043,4184.615234,4190.769043,4196.410156,16219.000000,4.000000,,,,0.000000,4.000000,4.000000,4.000000,4.000000,4.000000,,,,,,,,,,,,,,,,,,,,,,,,,
1577421734.256409,100.000000,0.000000,4189.230957,4297.948730,4160.512695,4170.769043,4180.000000,450.000000,4.000000,,,,0.000000,4.000000,4.000000,4.000000,4.000000,4.000000,,,,,,,,,,,,,,,,,,,,,,,,,
1577421734.264312,101.000000,0.000000,4197.948730,4303.589844,4156.922852,4171.282227,4186.666504,450.000000,4.000000,,,,0.000000,4.000000,4.000000,4.000000,4.000000,4.000000,,,,,,,,,,,,,,,,,,,,,,,,,
1577421734.272215,102.000000,0.000000,4232.307617,4317.436035,4174.871582,4180.000000,4214.871582,450.000000,4.000000,,,,0.000000,4.000000,4.000000,4.000000,4.000000,4.000000,,,,,,,,,,,,,,,,,,,,,,,,,
1577421734.280019,103.000000,0.000000,4242.563965,4306.666504,4168.205078,4168.717773,4220.000000,16219.000000,4.000000,,,,0.000000,4.000000,4.000000,4.000000,4.000000,4.000000,,,,,,,,,,,,,,,,,,,,,,,,,
1577421734.287922,104.000000,0.000000,4235.897461,4302.563965,4155.384766,4160.000000,4208.717773,450.000000,4.000000,,,,0.000000,4.000000,4.000000,4.000000,4.000000,4.000000,,,,,,,,,,,,,,,,,,,,,,,,,
1577421734.295726,105.000000,0.000000,4227.692383,4303.077148,4153.333496,4154.358887,4202.051270,450.000000,4.000000,,,,0.000000,4.000000,4.000000,4.000000,4.000000,4.000000,8.900950,7.823809,0.964604,1.475724,0.939976,4.244906,1.504884,0.698456,0.776092,0.709787,32.979000,7.553824,0.803102,1.352434,0.451108,3.887312,1.492203,1.155858,1.267666,0.696538,7.655765,7.087801,1.887241,2.198711,0.910344
1577421734.303629,106.000000,0.000000,4231.794922,4300.000000,4157.948730,4154.871582,4209.743652,450.000000,4.000000,,,,0.000000,4.000000,4.000000,4.000000,4.000000,4.000000,,,,,,,,,,,,,,,,,,,,,,,,,
1577421734.311433,107.000000,0.000000,4235.384766,4292.820313,4156.922852,4163.589844,4210.769043,16219.000000,4.000000,,,,0.000000,4.000000,4.000000,4.000000,4.000000,4.000000,,,,,,,,,,,,,,,,,,,,,,,,,
1577421734.319336,108.000000,0.000000,4222.563965,4282.051270,4145.641113,4163.077148,4197.948730,450.000000,4.000000,,,,0.000000,4.000000,4.000000,4.000000,4.000000,4.000000,,,,,,,,,,,,,,,,,,,,,,,,,
1577421734.327140,109.000000,0.000000,4215.384766,4275.384766,4146.153809,4165.641113,4192.820313,450.000000,4.000000,,,,0.000000,4.000000,4.000000,4.000000,4.000000,4.000000,,,,,,,,,,,,,,,,,,,,,,,,,
1577421734.335043,110.000000,0.000000,4221.538574,4275.384766,4151.794922,4174.871582,4199.487305,450.000000,4.000000,,,,0.000000,4.000000,4.000000,4.000000,4.000000,4.000000,,,,,,,,,,,,,,,,,,,,,,,,,
1577421734.342947,111.000000,1.000000,4221.709473,4272.478516,4146.495605,4173.333496,4198.917480,2202.111084,4.000000,,,,0.000000,4.000000,4.000000,4.000000,4.000000,4.000000,,,,,,,,,,,,,,,,,,,,,,,,,
1577421734.350751,112.000000,1.000000,4221.880371,4269.572754,4141.196777,4171.794922,4198.347656,3954.222168,4.000000,,,,0.000000,4.000000,4.000000,4.000000,4.000000,4.000000,,,,,,,,,,,,,,,,,,,,,,,,,
1577421734.358555,113.000000,1.000000,4222.051270,4266.666504,4135.897461,4170.256348,4197.777832,5706.333496,4.000000,,,,0.000000,4.000000,4.000000,4.000000,4.000000,4.000000,,,,,,,,,,,,,,,,,,,,,,,,,
1577421734.366360,114.000000,1.000000,4222.222168,4263.760742,4130.598145,4168.717773,4197.208008,7458.444336,4.000000,,,,0.000000,4.000000,4.000000,4.000000,4.000000,4.000000,,,,,,,,,,,,,,,,,,,,,,,,,
1577421734.374164,115.000000,1.000000,4222.393066,4260.854492,4125.299316,4167.179688,4196.638184,9210.555664,4.000000,,,,0.000000,4.000000,4.000000,4.000000,4.000000,4.000000,,,,,,,,,,,,,,,,,,,,,,,,,
1577421734.381968,116.000000,1.000000,4222.563965,4257.948730,4120.000000,4165.641113,4196.068359,10962.666992,4.000000,,,,0.000000,4.000000,4.000000,4.000000,4.000000,4.000000,,,,,,,,,,,,,,,,,,,,,,,,,
1577421734.389772,117.000000,1.000000,4222.734863,4255.042969,4114.700684,4164.102539,4195.498535,12714.777344,4.000000,,,,0.000000,4.000000,4.000000,4.000000,4.000000,4.000000,,,,,,,,,,,,,,,,,,,,,,,,,
1577421734.397576,118.000000,1.000000,4222.905762,4252.136719,4109.401855,4162.563965,4194.928711,14466.888672,4.000000,,,,0.000000,4.000000,4.000000,4.000000,4.000000,4.000000,,,,,,,,,,,,,,,,,,,,,,,,,
1577421734.405380,119.000000,0.000000,4223.077148,4249.230957,4104.102539,4161.025879,4194.358887,16219.000000,4.000000,,,,0.000000,4.000000,4.000000,4.000000,4.000000,4.000000,,,,,,,,,,,,,,,,,,,,,,,,,
1577421734.413184,120.000000,0.000000,4204.615234,4247.179688,4085.641113,4142.051270,4166.153809,450.000000,4.000000,,,,0.000000,4.000000,4.000000,4.000000,4.000000,4.000000,,,,,,,,,,,,,,,,,,,,,,,,,
1577421734.420883,121.000000,0.000000,4210.769043,4271.282227,4108.205078,4150.769043,4174.358887,450.000000,4.000000,,,,0.000000,4.000000,4.000000,4.000000,4.000000,4.000000,9.332501,6.137711,1.094490,1.506913,1.040424,5.931718,1.771149,0.576669,0.833922,0.768129,28.849873,9.571279,0.950906,1.407956,0.514964,4.960397,1.537923,1.212697,1.284904,0.770045,8.247646,6.818273,1.834546,2.182553,1.041834
1577421734.428783,122.000000,0.000000,4233.333496,4284.615234,4150.256348,4171.794922,4197.436035,450.000000,4.000000,,,,0.000000,4.000000,4.000000,4.000000,4.000000,4.000000,,,,,,,,,,,,,,,,,,,,,,,,,
1577421734.436583,123.000000,0.000000,4231.282227,4270.769043,4163.589844,4167.692383,4194.871582,16219.000000,4.000000,,,,0.000000,4.000000,4.000000,4.000000,4.000000,4.000000,,,,,,,,,,,,,,,,,,,,,,,,,
1577421734.444484,124.000000,0.000000,4219.487305,4273.333496,4161.538574,4160.512695,4192.307617,450.000000,4.000000,,,,0.000000,4.000000,4.000000,4.000000,4.000000,4.000000,,,,,,,,,,,,,,,,,,,,,,,,,
1577421734.452386,125.000000,0.000000,4229.230957,4296.410156,4164.102539,4167.692383,4207.692383,450.000000,4.000000,,,,0.000000,4.000000,4.000000,4.000000,4.000000,4.000000,,,,,,,,,,,,,,,,,,,,,,,,,
1577421734.460188,126.000000,0.000000,4240.512695,4300.000000,4166.666504,4178.974121,4218.974121,450.000000,4.000000,,,,0.000000,4.000000,4.000000,4.000000,4.000000,4.000000,,,,,,,,,,,,,,,,,,,,,,,,,
1577421734.468091,127.000000,0.000000,4237.436035,4296.410156,4167.179688,4183.589844,4214.358887,234.000000,4.000000,,,,0.000000,4.000000,4.000000,4.000000,4.000000,4.000000,,,,,,,,,,,,,,,,,,,,,,,,,
1577421734.475996,0.000000,1.000000,4234.245117,4294.416016,4167.806152,4177.834961,4212.820313,450.000000,4.000000,,,,0.000000,4.000000,4.000000,4.000000,4.000000,4.000000,,,,,,,,,,,,,,,,,,,,,,,,,
1577421734.483800,1.000000,1.000000,4231.054199,4292.421875,4168.433105,4172.079590,4211.282227,450.000000,4.000000,,,,0.000000,4.000000,4.000000,4.000000,4.000000,4.000000,,,,,,,,,,,,,,,,,,,,,,,,,
1577421734.491604,2.000000,1.000000,4227.863281,4290.427246,4169.060059,4166.324707,4209.743652,16218.000000,4.000000,,,,0.000000,4.000000,4.000000,4.000000,4.000000,4.000000,,,,,,,,,,,,,,,,,,,,,,,,,
1577421734.499409,3.000000,1.000000,4224.672363,4288.433105,4169.686523,4160.569824,4208.205078,450.000000,4.000000,,,,0.000000,4.000000,4.000000,4.000000,4.000000,4.000000,,,,,,,,,,,,,,,,,,,,,,,,,
1577421734.507213,4.000000,1.000000,4221.481445,4286.438965,4170.313477,4154.814941,4206.666504,16196.000000,4.000000,,,,0.000000,4.000000,4.000000,4.000000,4.000000,4.000000,,,,,,,,,,,,,,,,,,,,,,,,,
1577421734.515018,5.000000,1.000000,4218.290527,4284.444336,4170.939941,4149.060059,4205.128418,450.000000,4.000000,,,,0.000000,4.000000,4.000000,4.000000,4.000000,4.000000,,,,,,,,,,,,,,,,,,,,,,,,,
1577421734.522822,6.000000,1.000000,4215.099609,4282.450195,4171.566895,4143.304688,4203.589844,16137.000000,4.000000,,,,0.000000,4.000000,4.000000,4.000000,4.000000,4.000000,,,,,,,,,,,,,,,,,,,,,,,,,
1577421734.530626,7.000000,1.000000,4211.908691,4280.456055,4172.193848,4137.549805,4202.051270,450.000000,4.000000,,,,0.000000,4.000000,4.000000,4.000000,4.000000,4.000000,,,,,,,,,,,,,,,,,,,,,,,,,
1577421734.538431,8.000000,0.000000,4208.717773,4278.461426,4172.820313,4131.794922,4200.512695,450.000000,4.000000,,,,0.000000,4.000000,4.000000,4.000000,4.000000,4.000000,,,,,,,,,,,,,,,,,,,,,,,,,
1577421734.546235,9.000000,0.000000,4205.641113,4278.461426,4162.051270,4135.897461,4193.333496,16157.000000,4.000000,,,,0.000000,4.000000,4.000000,4.000000,4.000000,4.000000,9.988485,5.245695,1.218867,1.553573,1.174238,7.735886,2.051886,0.431304,0.881646,0.824651,31.573267,11.538612,1.222459,1.405523,0.592762,5.850272,1.803535,1.286649,1.288809,0.875009,8.976759,6.988569,1.738208,2.095390,1.207255
1577421734.553932,10.000000,0.000000,4220.000000,4295.897461,4165.641113,4149.743652,4211.794922,450.000000,4.000000,,,,0.000000,4.000000,4.000000,4.000000,4.000000,4.000000,,,,,,,,,,,,,,,,,,,,,,,,,
1577421734.561730,11.000000,0.000000,4234.871582,4296.922852,4172.820313,4162.051270,4241.025879,16194.000000,4.000000,,,,0.000000,4.000000,4.000000,4.000000,4.000000,4.000000,,,,,,,,,,,,,,,,,,,,,,,,,
1577421734.569429,12.000000,0.000000,4235.897461,4281.025879,4153.846191,4160.000000,4243.077148,450.000000,4.000000,,,,0.000000,4.000000,4.000000,4.000000,4.000000,4.000000,,,,,,,,,,,,,,,,,,,,,,,,,
1577421734.577329,13.000000,0.000000,4225.641113,4268.717773,4110.769043,4146.153809,4224.615234,450.000000,4.000000,,,,0.000000,4.000000,4.000000,4.000000,4.000000,4.000000,,,,,,,,,,,,,,,,,,,,,,,,,
1577421734.585229,14.000000,0.000000,4218.461426,4266.153809,4077.435791,4141.025879,4218.974121,450.000000,4.000000,,,,0.000000,4.000000,4.000000,4.000000,4.000000,4.000000,,,,,,,,,,,,,,,,,,,,,,,,,
1577421734.593030,15.000000,0.000000,4216.410156,4264.102539,4060.000000,4138.974121,4216.410156,16194.000000,4.000000,,,,0.000000,4.000000,4.000000,4.000000,4.000000,4.000000,,,,,,,,,,,,,,,,,,,,,,,,,
1577421734.600830,16.000000,0.000000,4205.641113,4255.384766,4045.641113,4137.436035,4203.589844,0.000000,4.000000,,,,0.000000,4.000000,4.000000,4.000000,4.000000,4.000000,,,,,,,,,,,,,,,,,,,,,,,,,
1577421734.608730,17.000000,0.000000,4201.025879,4250.769043,4049.743652,4147.179688,4197.948730,0.000000,4.000000,,,,0.000000,4.000000,4.000000,4.000000,4.000000,4.000000,,,,,,,,,,,,,,,,,,,,,,,,,
1577421734.616630,18.000000,0.000000,4208.205078,4252.307617,4067.179443,4153.333496,4202.051270,0.000000,4.000000,,,,0.000000,4.000000,4.000000,4.000000,4.000000,4.000000,,,,,,,,,,,,,,,,,,,,,,,,,
1577421734.624431,19.000000,0.000000,4208.205078,4256.410156,4083.589844,4152.820313,4205.128418,0.000000,4.000000,,,,0.000000,4.000000,4.000000,4.000000,4.000000,4.000000,,,,,,,,,,,,,,,,,,,,,,,,,
1577421734.632232,20.000000,0.000000,4200.512695,4255.384766,4093.333252,4154.871582,4201.025879,0.000000,4.000000,,,,0.000000,4.000000,4.000000,4.000000,4.000000,4.000000,,,,,,,,,,,,,,,,,,,,,,,,,
1577421734.640032,21.000000,0.000000,4206.666504,4250.769043,4089.743652,4152.307617,4206.666504,0.000000,4.000000,,,,0.000000,4.000000,4.000000,4.000000,4.000000,4.000000,,,,,,,,,,,,,,,,,,,,,,,,,
1577421734.647731,22.000000,0.000000,4225.128418,4255.897461,4088.718018,4146.153809,4219.487305,0.000000,4.000000,,,,0.000000,4.000000,4.000000,4.000000,4.000000,4.000000,,,,,,,,,,,,,,,,,,,,,,,,,
1577421734.655430,23.000000,0.000000,4221.025879,4252.307617,4088.205078,4131.282227,4213.333496,0.000000,4.000000,,,,0.000000,4.000000,4.000000,4.000000,4.000000,4.000000,,,,,,,,,,,,,,,,,,,,,,,,,
1577421734.663230,24.000000,0.000000,4217.948730,4236.922852,4086.153809,4124.102539,4218.461426,0.000000,4.000000,,,,0.000000,4.000000,4.000000,4.000000,4.000000,4.000000,,,,,,,,,,,,,,,,,,,,,,,,,
1577421734.670929,25.000000,0.000000,4232.820313,4234.871582,4088.718018,4138.974121,4236.410156,0.000000,4.000000,,,,0.000000,4.000000,4.000000,4.000000,4.000000,4.000000,10.452608,5.103942,1.296395,1.567545,1.331771,9.281939,2.313114,0.309689,0.906274,0.885711,36.952774,12.872777,1.546429,1.327467,0.683397,6.184575,2.221045,1.364522,1.262340,0.997543,9.427976,7.503356,1.610173,1.930605,1.380915
1577421734.678729,26.000000,0.000000,4228.717773,4245.641113,4089.230713,4146.666504,4227.692383,0.000000,4.000000,,,,0.000000,4.000000,4.000000,4.000000,4.000000,4.000000,,,,,,,,,,,,,,,,,,,,,,,,,
1577421734.686428,27.000000,0.000000,4219.487305,4246.666504,4089.743652,4139.487305,4214.871582,0.000000,4.000000,,,,0.000000,4.000000,4.000000,4.000000,4.000000,4.000000,,,,,,,,,,,,,,,,,,,,,,,,,
1577421734.694328,28.000000,0.000000,4225.641113,4235.897461,4089.230713,4140.000000,4217.948730,0.000000,4.000000,,,,0.000000,4.000000,4.000000,4.000000,4.000000,4.000000,,,,,,,,,,,,,,,,,,,,,,,,,
1577421734.702232,29.000000,1.000000,4226.025879,4232.179688,4089.230713,4142.243652,4218.397461,0.000000,4.000000,,,,0.000000,4.000000,4.000000,4.000000,4.000000,4.000000,,,,,,,,,,,,,,,,,,,,,,,,,
1577421734.710037,30.000000,1.000000,4226.410156,4228.461426,4089.230713,4144.487305,4218.846191,0.000000,4.000000,,,,0.000000,4.000000,4.000000,4.000000,4.000000,4.000000,,,,,,,,,,,,,,,,,,,,,,,,,
1577421734.717841,31.000000,1.000000,4226.794922,4224.743652,4089.230713,4146.730957,4219.294922,0.000000,4.000000,,,,0.000000,4.000000,4.000000,4.000000,4.000000,4.000000,,,,,,,,,,,,,,,,,,,,,,,,,
1577421734.725646,32.000000,1.000000,4227.179688,4221.025879,4089.230713,4148.974121,4219.743652,0.000000,4.000000,,,,0.000000,4.000000,4.000000,4.000000,4.000000,4.000000,,,,,,,,,,,,,,,,,,,,,,,,,
1577421734.733450,33.000000,1.000000,4227.563965,4217.307617,4089.230713,4151.217773,4220.192383,0.000000,4.000000,,,,0.000000,4.000000,4.000000,4.000000,4.000000,4.000000,,,,,,,,,,,,,,,,,,,,,,,,,
1577421734.741254,34.000000,1.000000,4227.948730,4213.589844,4089.230713,4153.461426,4220.641113,0.000000,4.000000,,,,0.000000,4.000000,4.000000,4.000000,4.000000,4.000000,,,,,,,,,,,,,,,,,,,,,,,,,
1577421734.749059,35.000000,1.000000,4228.333496,4209.871582,4089.230713,4155.705078,4221.089844,0.000000,4.000000,,,,0.000000,4.000000,4.000000,4.000000,4.000000,4.000000,,,,,,,,,,,,,,,,,,,,,,,,,
1577421734.756863,36.000000,0.000000,4228.717773,4206.153809,4089.230713,4157.948730,4221.538574,0.000000,4.000000,,,,0.000000,4.000000,4.000000,4.000000,4.000000,4.000000,,,,,,,,,,,,,,,,,,,,,,,,,
1577421734.764562,37.000000,0.000000,4247.179688,4207.179688,4095.384521,4166.153809,4244.102539,0.000000,4.000000,,,,0.000000,4.000000,4.000000,4.000000,4.000000,4.000000,,,,,,,,,,,,,,,,,,,,,,,,,
1577421734.772361,38.000000,0.000000,4260.512695,4210.769043,4097.436035,4170.256348,4256.922852,0.000000,4.000000,,,,0.000000,4.000000,4.000000,4.000000,4.000000,4.000000,,,,,,,,,,,,,,,,,,,,,,,,,
1577421734.780160,39.000000,0.000000,4238.974121,4201.025879,4090.256348,4161.538574,4234.871582,0.000000,4.000000,,,,0.000000,4.000000,4.000000,4.000000,4.000000,4.000000,,,,,,,,,,,,,,,,,,,,,,,,,
1577421734.787862,40.000000,0.000000,4211.794922,4188.205078,4080.000000,4146.153809,4205.128418,0.000000,4.000000,,,,0.000000,4.000000,4.000000,4.000000,4.000000,4.000000,,,,,,,,,,,,,,,,,,,,,,,,,
1577421734.795764,41.000000,0.000000,4207.179688,4185.641113,4065.128174,4140.000000,4197.436035,0.000000,4.000000,,,,0.000000,4.000000,4.000000,4.000000,4.000000,4.000000,10.387075,5.407228,1.291234,1.517076,1.485168,10.280962,2.495844,0.234778,0.907759,0.951419,41.008709,13.173652,1.807665,1.199433,0.776826,5.825880,2.652665,1.396073,1.193880,1.106893,9.266966,8.142747,1.453540,1.708422,1.525587
1577421734.803566,42.000000,0.000000,4221.538574,4190.256348,4053.333252,4147.692383,4211.282227,0.000000,4.000000,,,,0.000000,4.000000,4.000000,4.000000,4.000000,4.000000,,,,,,,,,,,,,,,,,,,,,,,,,
1577421734.811368,43.000000,0.000000,4222.563965,4193.333496,4054.358887,4154.871582,4213.333496,0.000000,4.000000,,,,0.000000,4.000000,4.000000,4.000000,4.000000,4.000000,,,,,,,,,,,,,,,,,,,,,,,,,
1577421734.819269,44.000000,0.000000,4210.256348,4192.820313,4060.512939,4153.846191,4202.051270,0.000000,4.000000,,,,0.000000,4.000000,4.000000,4.000000,4.000000,4.000000,,,,,,,,,,,,,,,,,,,,,,,,,
1577421734.827171,45.000000,0.000000,4213.333496,4189.230957,4062.051270,4152.820313,4203.077148,0.000000,4.000000,,,,0.000000,4.000000,4.000000,4.000000,4.000000,4.000000,,,,,,,,,,,,,,,,,,,,,,,,,
1577421734.834973,46.000000,0.000000,4218.974121,4191.794922,4060.512939,4155.384766,4205.128418,0.000000,4.000000,,,,0.000000,4.000000,4.000000,4.000000,4.000000,4.000000,,,,,,,,,,,,,,,,,,,,,,,,,
1577421734.842775,47.000000,0.000000,4218.461426,4202.051270,4071.281982,4163.589844,4206.666504,0.000000,4.000000,,,,0.000000,4.000000,4.000000,4.000000,4.000000,4.000000,,,,,,,,,,,,,,,,,,,,,,,,,
1577421734.850676,48.000000,0.000000,4226.666504,4193.846191,4075.897461,4164.102539,4209.743652,0.000000,4.000000,,,,0.000000,4.000000,4.000000,4.000000,4.000000,4.000000,,,,,,,,,,,,,,,,,,,,,,,,,
1577421734.858477,49.000000,0.000000,4233.333496,4180.000000,4063.589844,4151.794922,4209.743652,0.000000,4.000000,,,,0.000000,4.000000,4.000000,4.000000,4.000000,4.000000,,,,,,,,,,,,,,,,,,,,,,,,,
1577421734.866378,50.000000,0.000000,4232.307617,4197.436035,4062.564209,4155.897461,4214.871582,0.000000,4.000000,,,,0.000000,4.000000,4.000000,4.000000,4.000000,4.000000,,,,,,,,,,,,,,,,,,,,,,,,,
1577421734.874280,51.000000,0.000000,4235.384766,4206.153809,4065.128174,4165.641113,4215.897461,0.000000,4.000000,,,,0.000000,4.000000,4.000000,4.000000,4.000000,4.000000,,,,,,,,,,,,,,,,,,,,,,,,,
1577421734.882082,52.000000,0.000000,4249.743652,4190.256348,4060.000000,4167.179688,4214.871582,0.000000,4.000000,,,,0.000000,4.000000,4.000000,4.000000,4.000000,4.000000,,,,,,,,,,,,,,,,,,,,,,,,,
1577421734.889884,53.000000,0.000000,4265.641113,4196.922852,4059.487061,4168.717773,4223.077148,0.000000,4.000000,,,,0.000000,4.000000,4.000000,4.000000,4.000000,4.000000,,,,,,,,,,,,,,,,,,,,,,,,,
1577421734.897785,54.000000,0.000000,4253.846191,4211.282227,4052.307617,4165.128418,4225.641113,0.000000,4.000000,,,,0.000000,4.000000,4.000000,4.000000,4.000000,4.000000,,,,,,,,,,,,,,,,,,,,,,,,,
1577421734.905586,55.000000,0.000000,4225.128418,4198.461426,4033.333252,4156.410156,4205.641113,0.000000,4.000000,,,,0.000000,4.000000,4.000000,4.000000,4.000000,4.000000,,,,,,,,,,,,,,,,,,,,,,,,,
1577421734.913489,56.000000,0.000000,4207.692383,4175.897461,4020.000000,4144.102539,4176.922852,0.000000,4.000000,,,,0.000000,4.000000,4.000000,4.000000,4.000000,4.000000,,,,,,,,,,,,,,,,,,,,,,,,,
1577421734.921392,57.000000,0.000000,4204.615234,4169.230957,4021.025635,4134.358887,4165.128418,0.000000,4.000000,,,,0.000000,4.000000,4.000000,4.000000,4.000000,4.000000,9.581970,5.835506,1.199398,1.398139,1.595226,10.642914,2.581035,0.210020,0.891467,1.008966,41.268326,12.578666,1.967398,1.075244,0.854428,4.974788,2.962109,1.350449,1.093690,1.167738,8.407502,8.733192,1.281078,1.467904,1.606399
1577421734.929195,58.000000,0.000000,4205.641113,4183.589844,4027.692383,4140.000000,4166.153809,0.000000,4.000000,,,,0.000000,4.000000,4.000000,4.000000,4.000000,4.000000,,,,,,,,,,,,,,,,,,,,,,,,,
1577421734.937099,59.000000,0.000000,4203.589844,4194.871582,4026.666748,4149.743652,4164.615234,0.000000,4.000000,,,,0.000000,4.000000,4.000000,4.000000,4.000000,4.000000,,,,,,,,,,,,,,,,,,,,,,,,,
1577421734.944902,60.000000,0.000000,4200.512695,4196.410156,4026.666748,4149.230957,4170.256348,0.000000,4.000000,,,,0.000000,4.000000,4.000000,4.000000,4.000000,4.000000,,,,,,,,,,,,,,,,,,,,,,,,,
1577421734.952705,61.000000,0.000000,4200.512695,4191.282227,4028.718018,4145.128418,4170.769043,0.000000,4.000000,,,,0.000000,4.000000,4.000000,4.000000,4.000000,4.000000,,,,,,,,,,,,,,,,,,,,,,,,,
1577421734.960607,62.000000,0.000000,4203.589844,4192.820313,4031.794922,4153.846191,4170.769043,0.000000,4.000000,,,,0.000000,4.000000,4.000000,4.000000,4.000000,4.000000,,,,,,,,,,,,,,,,,,,,,,,,,
1577421734.968510,63.000000,0.000000,4210.769043,4206.153809,4039.487061,4172.820313,4186.666504,0.000000,4.000000,,,,0.000000,4.000000,4.000000,4.000000,4.000000,4.000000,,,,,,,,,,,,,,,,,,,,,,,,,
1577421734.976314,64.000000,0.000000,4217.948730,4210.256348,4036.923096,4171.794922,4193.333496,450.000000,4.000000,,,,0.000000,4.000000,4.000000,4.000000,4.000000,4.000000,,,,,,,,,,,,,,,,,,,,,,,,,
1577421734.984117,65.000000,0.000000,4222.051270,4210.769043,4036.410156,4167.179688,4192.307617,450.000000,4.000000,,,,0.000000,4.000000,4.000000,4.000000,4.000000,4.000000,,,,,,,,,,,,,,,,,,,,,,,,,
