title:ang3, start timestamp:2019-12-27T07:42:59.498385+03:00, stop timestamp:2019-12-27T07:43:29.765056+03:00, headset type:INSIGHT, headset serial:A2D200FB, headset firmware:930, subject name:Qasim, channels:44, sampling rate:eeg_128;pow_8, samples:3889      , version:2.0
Timestamp,EEG.Counter,EEG.Interpolated,EEG.AF3,EEG.T7,EEG.Pz,EEG.T8,EEG.AF4,EEG.RawCq,EEG.Battery,MarkerIndex,MarkerType,MarkerValueInt,EEG.MarkerHardware,CQ.AF3,CQ.T7,CQ.Pz,CQ.T8,CQ.AF4,POW.AF3.Theta,POW.AF3.Alpha,POW.AF3.BetaL,POW.AF3.BetaH,POW.AF3.Gamma,POW.T7.Theta,POW.T7.Alpha,POW.T7.BetaL,POW.T7.BetaH,POW.T7.Gamma,POW.Pz.Theta,POW.Pz.Alpha,POW.Pz.BetaL,POW.Pz.BetaH,POW.Pz.Gamma,POW.T8.Theta,POW.T8.Alpha,POW.T8.BetaL,POW.T8.BetaH,POW.T8.Gamma,POW.AF4.Theta,POW.AF4.Alpha,POW.AF4.BetaL,POW.AF4.BetaH,POW.AF4.Gamma
1577421779.498385,6.000000,0.000000,4252.820313,4302.563965,4178.461426,4106.153809,4187.179688,267.000000,4.000000,,,,0.000000,4.000000,4.000000,2.000000,4.000000,4.000000,,,,,,,,,,,,,,,,,,,,,,,,,
1577421779.506231,7.000000,1.000000,4256.467285,4303.248047,4183.418945,4107.179688,4186.609863,450.000000,4.000000,,,,0.000000,4.000000,4.000000,2.000000,4.000000,4.000000,,,,,,,,,,,,,,,,,,,,,,,,,
1577421779.514178,8.000000,1.000000,4260.113770,4303.931641,4188.375977,4108.205078,4186.040039,450.000000,4.000000,,,,0.000000,4.000000,4.000000,2.000000,4.000000,4.000000,,,,,,,,,,,,,,,,,,,,,,,,,
1577421779.522125,9.000000,1.000000,4263.760742,4304.615234,4193.333496,4109.230957,4185.470215,16171.000000,4.000000,,,,0.000000,4.000000,4.000000,2.000000,4.000000,4.000000,,,,,,,,,,,,,,,,,,,,,,,,,
1577421779.530072,10.000000,1.000000,4267.407227,4305.299316,4198.290527,4110.256348,4184.900391,450.000000,4.000000,,,,0.000000,4.000000,4.000000,2.000000,4.000000,4.000000,,,,,,,,,,,,,,,,,,,,,,,,,
1577421779.538018,11.000000,1.000000,4271.054199,4305.982910,4203.248047,4111.282227,4184.330566,16231.000000,4.000000,,,,0.000000,4.000000,4.000000,2.000000,4.000000,4.000000,3.056677,1.716148,0.908738,0.418839,0.157748,3.001431,1.093632,0.962704,0.339579,0.283284,32.663765,13.655637,9.729952,19.750223,11.306382,2.106059,1.134188,0.500511,0.226974,0.200885,4.093381,1.833297,1.535595,0.333713,0.139815
1577421779.545965,12.000000,1.000000,4274.700684,4306.666504,4208.205078,4112.307617,4183.760742,450.000000,4.000000,,,,0.000000,4.000000,4.000000,2.000000,4.000000,4.000000,,,,,,,,,,,,,,,,,,,,,,,,,
1577421779.553912,13.000000,1.000000,4278.347656,4307.350586,4213.162598,4113.333496,4183.190918,450.000000,4.000000,,,,0.000000,4.000000,4.000000,2.000000,4.000000,4.000000,,,,,,,,,,,,,,,,,,,,,,,,,
1577421779.561858,14.000000,1.000000,4281.994141,4308.034180,4218.119629,4114.358887,4182.621094,450.000000,4.000000,,,,0.000000,4.000000,4.000000,2.000000,4.000000,4.000000,,,,,,,,,,,,,,,,,,,,,,,,,
1577421779.569805,15.000000,0.000000,4285.641113,4308.717773,4223.077148,4115.384766,4182.051270,16208.000000,4.000000,,,,0.000000,4.000000,4.000000,2.000000,4.000000,4.000000,,,,,,,,,,,,,,,,,,,,,,,,,
1577421779.577590,16.000000,0.000000,4281.025879,4325.641113,4155.384766,4105.641113,4177.436035,0.000000,4.000000,,,,0.000000,4.000000,4.000000,2.000000,4.000000,4.000000,,,,,,,,,,,,,,,,,,,,,,,,,
1577421779.585544,17.000000,1.000000,4278.582031,4325.429688,4156.289551,4105.399902,4178.371094,0.000000,4.000000,,,,0.000000,4.000000,4.000000,2.000000,4.000000,4.000000,,,,,,,,,,,,,,,,,,,,,,,,,
1577421779.593597,18.000000,1.000000,4276.138672,4325.218750,4157.194336,4105.158203,4179.306152,0.000000,4.000000,,,,0.000000,4.000000,4.000000,2.000000,4.000000,4.000000,,,,,,,,,,,,,,,,,,,,,,,,,
1577421779.601650,19.000000,1.000000,4273.695313,4325.007324,4158.099609,4104.916992,4180.241211,0.000000,4.000000,,,,0.000000,4.000000,4.000000,2.000000,4.000000,4.000000,,,,,,,,,,,,,,,,,,,,,,,,,
1577421779.609704,20.000000,1.000000,4271.251953,4324.796387,4159.004395,4104.675781,4181.176270,0.000000,4.000000,,,,0.000000,4.000000,4.000000,2.000000,4.000000,4.000000,,,,,,,,,,,,,,,,,,,,,,,,,
1577421779.617757,21.000000,1.000000,4268.808594,4324.585449,4159.909668,4104.434570,4182.111816,0.000000,4.000000,,,,0.000000,4.000000,4.000000,2.000000,4.000000,4.000000,,,,,,,,,,,,,,,,,,,,,,,,,
1577421779.625810,22.000000,1.000000,4266.365234,4324.374023,4160.814453,4104.192871,4183.046875,0.000000,4.000000,,,,0.000000,4.000000,4.000000,2.000000,4.000000,4.000000,,,,,,,,,,,,,,,,,,,,,,,,,
1577421779.633863,23.000000,1.000000,4263.921387,4324.163086,4161.719238,4103.951660,4183.981934,0.000000,4.000000,,,,0.000000,4.000000,4.000000,2.000000,4.000000,4.000000,,,,,,,,,,,,,,,,,,,,,,,,,
1577421779.641917,24.000000,1.000000,4261.478027,4323.951660,4162.624512,4103.710449,4184.916992,0.000000,4.000000,,,,0.000000,4.000000,4.000000,2.000000,4.000000,4.000000,,,,,,,,,,,,,,,,,,,,,,,,,
1577421779.649970,25.000000,1.000000,4259.034668,4323.740723,4163.529297,4103.469238,4185.852051,0.000000,4.000000,,,,0.000000,4.000000,4.000000,2.000000,4.000000,4.000000,,,,,,,,,,,,,,,,,,,,,,,,,
1577421779.658023,26.000000,1.000000,4256.591309,4323.529297,4164.434570,4103.227539,4186.787109,0.000000,4.000000,,,,0.000000,4.000000,4.000000,2.000000,4.000000,4.000000,,,,,,,,,,,,,,,,,,,,,,,,,
1577421779.666077,27.000000,1.000000,4254.147949,4323.318359,4165.339355,4102.986328,4187.722656,0.000000,4.000000,,,,0.000000,4.000000,4.000000,2.000000,4.000000,4.000000,2.984003,1.611781,0.759109,0.348956,0.132169,3.013034,0.958811,0.857442,0.283568,0.254964,34.334721,13.594441,11.938094,16.816702,9.754052,2.179571,0.848641,0.439159,0.148413,0.163227,4.332771,1.591974,1.518160,0.341150,0.105248
1577421779.674130,28.000000,1.000000,4251.704590,4323.106934,4166.244141,4102.745117,4188.657715,0.000000,4.000000,,,,0.000000,4.000000,4.000000,2.000000,4.000000,4.000000,,,,,,,,,,,,,,,,,,,,,,,,,
1577421779.682183,29.000000,1.000000,4249.260742,4322.895996,4167.149414,4102.503906,4189.592773,0.000000,4.000000,,,,0.000000,4.000000,4.000000,2.000000,4.000000,4.000000,,,,,,,,,,,,,,,,,,,,,,,,,
1577421779.690237,30.000000,1.000000,4246.817383,4322.684570,4168.054199,4102.262207,4190.527832,0.000000,4.000000,,,,0.000000,4.000000,4.000000,2.000000,4.000000,4.000000,,,,,,,,,,,,,,,,,,,,,,,,,
1577421779.698290,31.000000,1.000000,4244.374023,4322.473633,4168.959473,4102.020996,4191.462891,0.000000,4.000000,,,,0.000000,4.000000,4.000000,2.000000,4.000000,4.000000,,,,,,,,,,,,,,,,,,,,,,,,,
1577421779.706343,32.000000,1.000000,4241.930664,4322.262207,4169.864258,4101.779785,4192.397949,0.000000,4.000000,,,,0.000000,4.000000,4.000000,2.000000,4.000000,4.000000,,,,,,,,,,,,,,,,,,,,,,,,,
1577421779.714397,33.000000,0.000000,4239.487305,4322.051270,4170.769043,4101.538574,4193.333496,0.000000,4.000000,,,,0.000000,4.000000,4.000000,2.000000,4.000000,4.000000,,,,,,,,,,,,,,,,,,,,,,,,,
1577421779.722421,34.000000,0.000000,4271.282227,4309.230957,4134.358887,4101.025879,4209.743652,0.000000,4.000000,,,,0.000000,4.000000,4.000000,2.000000,4.000000,4.000000,,,,,,,,,,,,,,,,,,,,,,,,,
1577421779.730346,35.000000,0.000000,4277.436035,4271.794922,4133.846191,4071.281982,4190.256348,0.000000,4.000000,,,,0.000000,4.000000,4.000000,2.000000,4.000000,4.000000,,,,,,,,,,,,,,,,,,,,,,,,,
1577421779.738272,36.000000,0.000000,4293.333496,4278.974121,4145.641113,4083.076904,4197.948730,0.000000,4.000000,,,,0.000000,4.000000,4.000000,2.000000,4.000000,4.000000,,,,,,,,,,,,,,,,,,,,,,,,,
1577421779.746197,37.000000,1.000000,4289.060059,4278.233398,4143.304688,4080.854736,4193.447266,0.000000,4.000000,,,,0.000000,4.000000,4.000000,2.000000,4.000000,4.000000,,,,,,,,,,,,,,,,,,,,,,,,,
1577421779.754122,38.000000,1.000000,4284.786133,4277.492676,4140.968750,4078.632568,4188.945801,0.000000,4.000000,,,,0.000000,4.000000,4.000000,2.000000,4.000000,4.000000,,,,,,,,,,,,,,,,,,,,,,,,,
1577421779.762047,39.000000,1.000000,4280.512695,4276.751953,4138.632324,4076.410156,4184.444336,0.000000,4.000000,,,,0.000000,4.000000,4.000000,2.000000,4.000000,4.000000,,,,,,,,,,,,,,,,,,,,,,,,,
1577421779.769972,40.000000,1.000000,4276.239258,4276.011230,4136.296387,4074.187988,4179.942871,0.000000,4.000000,,,,0.000000,4.000000,4.000000,2.000000,4.000000,4.000000,,,,,,,,,,,,,,,,,,,,,,,,,
1577421779.777897,41.000000,1.000000,4271.965820,4275.270508,4133.959961,4071.965820,4175.441406,0.000000,4.000000,,,,0.000000,4.000000,4.000000,2.000000,4.000000,4.000000,,,,,,,,,,,,,,,,,,,,,,,,,
1577421779.785822,42.000000,1.000000,4267.692383,4274.529785,4131.624023,4069.743652,4170.939941,0.000000,4.000000,,,,0.000000,4.000000,4.000000,2.000000,4.000000,4.000000,,,,,,,,,,,,,,,,,,,,,,,,,
1577421779.793747,43.000000,1.000000,4263.418945,4273.789063,4129.287598,4067.521484,4166.438965,0.000000,4.000000,,,,0.000000,4.000000,4.000000,2.000000,4.000000,4.000000,3.544606,1.579571,0.608714,0.301546,0.110841,3.034508,0.893999,0.723321,0.267267,0.230837,35.430752,13.446303,13.368584,13.303432,8.151971,2.355773,0.690613,0.380090,0.102595,0.148346,4.836699,1.438038,1.459670,0.360980,0.078188
1577421779.801672,44.000000,1.000000,4259.145508,4273.048340,4126.951660,4065.299072,4161.937500,0.000000,4.000000,,,,0.000000,4.000000,4.000000,2.000000,4.000000,4.000000,,,,,,,,,,,,,,,,,,,,,,,,,
1577421779.809597,45.000000,0.000000,4254.871582,4272.307617,4124.615234,4063.076904,4157.436035,0.000000,4.000000,,,,0.000000,4.000000,4.000000,2.000000,4.000000,4.000000,,,,,,,,,,,,,,,,,,,,,,,,,
1577421779.817339,46.000000,0.000000,4260.512695,4283.077148,4142.051270,4088.205078,4180.512695,0.000000,4.000000,,,,0.000000,4.000000,4.000000,2.000000,4.000000,4.000000,,,,,,,,,,,,,,,,,,,,,,,,,
1577421779.825181,47.000000,0.000000,4258.461426,4276.410156,4133.333496,4076.410156,4169.230957,0.000000,4.000000,,,,0.000000,4.000000,4.000000,2.000000,4.000000,4.000000,,,,,,,,,,,,,,,,,,,,,,,,,
1577421779.833022,48.000000,0.000000,4229.230957,4259.487305,4136.922852,4049.743652,4132.307617,0.000000,4.000000,,,,0.000000,4.000000,4.000000,2.000000,4.000000,4.000000,,,,,,,,,,,,,,,,,,,,,,,,,
1577421779.840864,49.000000,0.000000,4216.922852,4266.666504,4120.512695,4072.820557,4145.641113,0.000000,4.000000,,,,0.000000,4.000000,4.000000,2.000000,4.000000,4.000000,,,,,,,,,,,,,,,,,,,,,,,,,
1577421779.848706,50.000000,0.000000,4241.025879,4279.487305,4124.102539,4062.564209,4142.051270,0.000000,4.000000,,,,0.000000,4.000000,4.000000,2.000000,4.000000,4.000000,,,,,,,,,,,,,,,,,,,,,,,,,
1577421779.856548,51.000000,0.000000,4272.307617,4284.102539,4163.589844,4092.307617,4176.922852,0.000000,4.000000,,,,0.000000,4.000000,4.000000,2.000000,4.000000,4.000000,,,,,,,,,,,,,,,,,,,,,,,,,
1577421779.864273,52.000000,0.000000,4270.256348,4280.000000,4124.102539,4082.564209,4181.025879,0.000000,4.000000,,,,0.000000,4.000000,4.000000,2.000000,4.000000,4.000000,,,,,,,,,,,,,,,,,,,,,,,,,
1577421779.872005,53.000000,0.000000,4262.563965,4270.769043,4130.769043,4046.153809,4153.846191,0.000000,4.000000,,,,0.000000,4.000000,4.000000,2.000000,4.000000,4.000000,,,,,,,,,,,,,,,,,,,,,,,,,
1577421779.879744,54.000000,0.000000,4303.589844,4285.641113,4180.512695,4118.461426,4215.897461,0.000000,4.000000,,,,0.000000,4.000000,4.000000,2.000000,4.000000,4.000000,,,,,,,,,,,,,,,,,,,,,,,,,
1577421779.887583,55.000000,0.000000,4318.461426,4292.307617,4160.000000,4106.666504,4230.769043,0.000000,4.000000,,,,0.000000,4.000000,4.000000,2.000000,4.000000,4.000000,,,,,,,,,,,,,,,,,,,,,,,,,
1577421779.895422,56.000000,0.000000,4294.358887,4275.384766,4187.692383,4082.051270,4204.615234,0.000000,4.000000,,,,0.000000,4.000000,4.000000,2.000000,4.000000,4.000000,,,,,,,,,,,,,,,,,,,,,,,,,
1577421779.903153,57.000000,0.000000,4286.666504,4263.077148,4148.717773,4087.692383,4200.000000,0.000000,4.000000,,,,0.000000,4.000000,4.000000,2.000000,4.000000,4.000000,,,,,,,,,,,,,,,,,,,,,,,,,
1577421779.910984,58.000000,0.000000,4260.512695,4255.897461,4142.563965,4039.487061,4173.333496,0.000000,4.000000,,,,0.000000,4.000000,4.000000,2.000000,4.000000,4.000000,,,,,,,,,,,,,,,,,,,,,,,,,
1577421779.918714,59.000000,0.000000,4280.512695,4274.358887,4216.410156,4082.564209,4196.922852,0.000000,4.000000,,,,0.000000,4.000000,4.000000,2.000000,4.000000,4.000000,4.544539,1.597472,0.486784,0.284298,0.095996,3.077852,0.932539,0.588968,0.286891,0.210732,36.827995,13.187247,13.527651,9.888722,6.719750,2.538359,0.628796,0.324400,0.082215,0.147545,5.293390,1.346022,1.357591,0.375673,0.059769
1577421779.926544,60.000000,0.000000,4345.128418,4276.922852,4156.922852,4093.333252,4245.128418,0.000000,4.000000,,,,0.000000,4.000000,4.000000,2.000000,4.000000,4.000000,,,,,,,,,,,,,,,,,,,,,,,,,
1577421779.934273,61.000000,0.000000,4348.205078,4233.846191,4207.179688,4060.512939,4243.589844,0.000000,4.000000,,,,0.000000,4.000000,4.000000,2.000000,4.000000,4.000000,,,,,,,,,,,,,,,,,,,,,,,,,
1577421779.942103,62.000000,0.000000,4332.820313,4209.230957,4167.692383,4066.153809,4227.692383,0.000000,4.000000,,,,0.000000,4.000000,4.000000,2.000000,4.000000,4.000000,,,,,,,,,,,,,,,,,,,,,,,,,
1577421779.949832,63.000000,0.000000,4344.102539,4201.025879,4110.769043,4051.794922,4236.922852,0.000000,4.000000,,,,0.000000,4.000000,4.000000,2.000000,4.000000,4.000000,,,,,,,,,,,,,,,,,,,,,,,,,
1577421779.957661,64.000000,0.000000,4366.666504,4194.871582,4265.128418,4097.436035,4267.692383,450.000000,4.000000,,,,0.000000,4.000000,4.000000,2.000000,4.000000,4.000000,,,,,,,,,,,,,,,,,,,,,,,,,
1577421779.965390,65.000000,0.000000,4342.563965,4156.410156,4116.922852,4079.487061,4246.153809,450.000000,4.000000,,,,0.000000,4.000000,4.000000,2.000000,4.000000,4.000000,,,,,,,,,,,,,,,,,,,,,,,,,
1577421779.973218,66.000000,0.000000,4287.692383,4095.384521,4129.230957,4028.718018,4197.948730,16214.000000,4.000000,,,,0.000000,4.000000,4.000000,2.000000,4.000000,4.000000,,,,,,,,,,,,,,,,,,,,,,,,,
1577421779.980945,67.000000,0.000000,4298.974121,4083.076904,4215.897461,4076.923096,4211.282227,450.000000,4.000000,,,,0.000000,4.000000,4.000000,2.000000,4.000000,4.000000,,,,,,,,,,,,,,,,,,,,,,,,,
1577421779.988773,68.000000,0.000000,4287.179688,4050.256348,4046.666748,4050.769287,4195.897461,16194.000000,4.000000,,,,0.000000,4.000000,4.000000,2.000000,4.000000,4.000000,,,,,,,,,,,,,,,,,,,,,,,,,
1577421779.996500,69.000000,0.000000,4261.538574,4015.384521,4204.615234,4036.923096,4173.846191,450.000000,4.000000,,,,0.000000,4.000000,4.000000,2.000000,4.000000,4.000000,,,,,,,,,,,,,,,,,,,,,,,,,
1577421780.004327,70.000000,0.000000,4283.589844,4020.000000,4126.153809,4061.025635,4189.743652,324.000000,4.000000,,,,0.000000,4.000000,4.000000,2.000000,4.000000,4.000000,,,,,,,,,,,,,,,,,,,,,,,,,
1577421780.012053,71.000000,0.000000,4254.358887,3984.102539,4060.000000,4030.769287,4161.538574,450.000000,4.000000,,,,0.000000,4.000000,4.000000,2.000000,4.000000,4.000000,,,,,,,,,,,,,,,,,,,,,,,,,
1577421780.019879,72.000000,0.000000,4251.282227,3977.948730,4244.102539,4066.666748,4173.846191,450.000000,4.000000,,,,0.000000,4.000000,4.000000,2.000000,4.000000,4.000000,,,,,,,,,,,,,,,,,,,,,,,,,
1577421780.027605,73.000000,0.000000,4308.205078,4023.076904,4089.743652,4095.897461,4215.897461,16134.000000,4.000000,,,,0.000000,4.000000,4.000000,2.000000,4.000000,4.000000,,,,,,,,,,,,,,,,,,,,,,,,,
1577421780.035338,74.000000,0.000000,4257.948730,3993.333252,4136.410156,4028.205078,4149.230957,450.000000,4.000000,,,,0.000000,4.000000,4.000000,2.000000,4.000000,4.000000,,,,,,,,,,,,,,,,,,,,,,,,,
1577421780.043171,75.000000,0.000000,4216.922852,3970.256348,4173.846191,4037.435791,4147.179688,16178.000000,4.000000,,,,0.000000,4.000000,4.000000,2.000000,4.000000,4.000000,5.671119,1.611626,0.433674,0.301677,0.090990,3.167396,1.086234,0.484196,0.327846,0.193758,38.682049,12.770384,12.354438,7.114119,5.531204,2.627107,0.598465,0.283115,0.081087,0.151265,5.398170,1.250835,1.225476,0.378893,0.053234
1577421780.051004,76.000000,0.000000,4317.436035,4040.512939,4108.205078,4089.230713,4234.358887,450.000000,4.000000,,,,0.000000,4.000000,4.000000,2.000000,4.000000,4.000000,,,,,,,,,,,,,,,,,,,,,,,,,
1577421780.058729,77.000000,0.000000,4262.563965,3984.102539,4153.846191,3986.666748,4159.487305,450.000000,4.000000,,,,0.000000,4.000000,4.000000,2.000000,4.000000,4.000000,,,,,,,,,,,,,,,,,,,,,,,,,
1577421780.066554,78.000000,0.000000,4220.512695,3955.897461,4074.871826,3989.230713,4180.512695,450.000000,4.000000,,,,0.000000,4.000000,4.000000,2.000000,4.000000,4.000000,,,,,,,,,,,,,,,,,,,,,,,,,
1577421780.074278,79.000000,0.000000,4299.487305,4017.435791,4131.794922,4006.666748,4230.769043,16178.000000,4.000000,,,,0.000000,4.000000,4.000000,2.000000,4.000000,4.000000,,,,,,,,,,,,,,,,,,,,,,,,,
1577421780.082009,80.000000,0.000000,4239.487305,3966.153809,4098.461426,3912.307617,4158.974121,450.000000,4.000000,,,,0.000000,4.000000,4.000000,2.000000,4.000000,4.000000,,,,,,,,,,,,,,,,,,,,,,,,,
1577421780.089840,81.000000,0.000000,4262.563965,3997.948730,4067.692383,3976.923096,4234.871582,450.000000,4.000000,,,,0.000000,4.000000,4.000000,2.000000,4.000000,4.000000,,,,,,,,,,,,,,,,,,,,,,,,,
1577421780.097570,82.000000,0.000000,4315.897461,4043.589844,4160.512695,3996.410156,4257.436035,450.000000,4.000000,,,,0.000000,4.000000,4.000000,2.000000,4.000000,4.000000,,,,,,,,,,,,,,,,,,,,,,,,,
1577421780.105400,83.000000,0.000000,4255.897461,3981.538574,4029.743652,3945.128174,4208.205078,16178.000000,4.000000,,,,0.000000,4.000000,4.000000,2.000000,4.000000,4.000000,,,,,,,,,,,,,,,,,,,,,,,,,
1577421780.113129,84.000000,0.000000,4273.333496,4002.564209,4058.974365,4031.794922,4275.384766,450.000000,4.000000,,,,0.000000,4.000000,4.000000,2.000000,4.000000,4.000000,,,,,,,,,,,,,,,,,,,,,,,,,
1577421780.120958,85.000000,0.000000,4365.641113,4106.153809,4168.717773,4111.282227,4316.410156,450.000000,4.000000,,,,0.000000,4.000000,4.000000,2.000000,4.000000,4.000000,,,,,,,,,,,,,,,,,,,,,,,,,
1577421780.128687,86.000000,0.000000,4189.230957,3974.871826,3892.820557,4010.769287,4160.512695,450.000000,4.000000,,,,0.000000,4.000000,4.000000,2.000000,4.000000,4.000000,,,,,,,,,,,,,,,,,,,,,,,,,
1577421780.136515,87.000000,0.000000,4164.615234,3982.564209,3892.820557,4178.461426,4257.436035,16178.000000,4.000000,,,,0.000000,4.000000,4.000000,2.000000,4.000000,4.000000,,,,,,,,,,,,,,,,,,,,,,,,,
1577421780.144343,88.000000,0.000000,4445.128418,4234.358887,4205.128418,4331.282227,4373.333496,450.000000,4.000000,,,,0.000000,4.000000,4.000000,2.000000,4.000000,4.000000,,,,,,,,,,,,,,,,,,,,,,,,,
1577421780.152063,89.000000,0.000000,4240.000000,4055.384521,4065.641113,4096.410156,4091.281982,450.000000,4.000000,,,,0.000000,4.000000,4.000000,2.000000,4.000000,4.000000,,,,,,,,,,,,,,,,,,,,,,,,,
1577421780.159791,90.000000,0.000000,4201.538574,4019.487061,3993.333252,4302.051270,4255.384766,450.000000,4.000000,,,,0.000000,4.000000,4.000000,2.000000,4.000000,4.000000,,,,,,,,,,,,,,,,,,,,,,,,,
1577421780.167619,91.000000,0.000000,4381.025879,4164.615234,4253.333496,4429.230957,4388.205078,16178.000000,4.000000,,,,0.000000,4.000000,4.000000,2.000000,4.000000,4.000000,6.794730,1.601548,0.550658,0.346230,0.115309,3.598293,1.325140,0.421828,0.371967,0.187649,40.225395,12.098342,10.196700,5.168364,4.544170,2.588577,0.557386,0.279695,0.095077,0.168830,5.198236,1.084009,1.123499,0.373969,0.078078
1577421780.175345,92.000000,0.000000,4219.487305,4041.025635,4550.256348,4221.538574,4171.794922,450.000000,4.000000,,,,0.000000,4.000000,4.000000,2.000000,4.000000,4.000000,,,,,,,,,,,,,,,,,,,,,,,,,
1577421780.183171,93.000000,0.000000,4226.666504,4077.948730,4620.512695,4288.205078,4234.871582,450.000000,4.000000,,,,0.000000,4.000000,4.000000,2.000000,4.000000,4.000000,,,,,,,,,,,,,,,,,,,,,,,,,
1577421780.190898,94.000000,0.000000,4234.358887,4180.000000,3943.076904,4257.948730,4214.871582,450.000000,4.000000,,,,0.000000,4.000000,4.000000,2.000000,4.000000,4.000000,,,,,,,,,,,,,,,,,,,,,,,,,
1577421780.198725,95.000000,0.000000,4184.615234,4298.974121,3230.769287,4198.461426,4168.717773,16178.000000,4.000000,,,,0.000000,4.000000,4.000000,2.000000,4.000000,4.000000,,,,,,,,,,,,,,,,,,,,,,,,,
1577421780.206451,96.000000,0.000000,4214.871582,4417.948730,3262.051270,4209.743652,4205.128418,450.000000,4.000000,,,,0.000000,4.000000,4.000000,2.000000,4.000000,4.000000,,,,,,,,,,,,,,,,,,,,,,,,,
1577421780.214276,97.000000,0.000000,4197.436035,4415.897461,3632.820557,4182.563965,4179.487305,450.000000,4.000000,,,,0.000000,4.000000,4.000000,2.000000,4.000000,4.000000,,,,,,,,,,,,,,,,,,,,,,,,,
1577421780.222002,98.000000,0.000000,4196.922852,4411.282227,3841.025635,4192.820313,4171.794922,450.000000,4.000000,,,,0.000000,4.000000,4.000000,2.000000,4.000000,4.000000,,,,,,,,,,,,,,,,,,,,,,,,,
1577421780.229734,99.000000,0.000000,4200.000000,4381.538574,3792.307617,4206.153809,4163.589844,16178.000000,4.000000,,,,0.000000,4.000000,4.000000,2.000000,4.000000,4.000000,,,,,,,,,,,,,,,,,,,,,,,,,
1577421780.237565,100.000000,0.000000,4192.820313,4295.897461,3817.948730,4219.487305,4155.384766,450.000000,4.000000,,,,0.000000,4.000000,4.000000,2.000000,4.000000,4.000000,,,,,,,,,,,,,,,,,,,,,,,,,
1577421780.245397,101.000000,0.000000,4183.077148,4211.794922,3929.743652,4227.692383,4148.205078,450.000000,4.000000,,,,0.000000,4.000000,4.000000,2.000000,4.000000,4.000000,,,,,,,,,,,,,,,,,,,,,,,,,
1577421780.253121,102.000000,0.000000,4173.846191,4154.871582,3620.512939,4227.179688,4136.410156,450.000000,4.000000,,,,0.000000,4.000000,4.000000,2.000000,4.000000,4.000000,,,,,,,,,,,,,,,,,,,,,,,,,
1577421780.260851,103.000000,0.000000,4173.846191,4098.461426,2995.384521,4221.025879,4129.230957,16178.000000,4.000000,,,,0.000000,4.000000,4.000000,2.000000,4.000000,4.000000,,,,,,,,,,,,,,,,,,,,,,,,,
1577421780.268681,104.000000,0.000000,4183.077148,4050.769287,2864.615479,4213.846191,4133.333496,450.000000,4.000000,,,,0.000000,4.000000,4.000000,2.000000,4.000000,4.000000,,,,,,,,,,,,,,,,,,,,,,,,,
1577421780.276511,105.000000,0.000000,4184.102539,4030.256348,3373.846191,4200.000000,4128.205078,450.000000,4.000000,,,,0.000000,4.000000,4.000000,2.000000,4.000000,4.000000,,,,,,,,,,,,,,,,,,,,,,,,,
1577421780.284233,106.000000,0.000000,4174.871582,4024.102539,3825.128174,4185.128418,4114.871582,450.000000,4.000000,,,,0.000000,4.000000,4.000000,2.000000,4.000000,4.000000,,,,,,,,,,,,,,,,,,,,,,,,,
1577421780.291962,107.000000,0.000000,4173.333496,4012.307617,3945.128174,4185.128418,4112.307617,16178.000000,4.000000,,,,0.000000,4.000000,4.000000,2.000000,4.000000,4.000000,8.219322,1.641769,0.976295,0.411879,0.272227,5.285316,1.694713,0.411614,0.414148,0.259889,40.346840,11.219974,7.852092,4.091081,3.842813,2.722332,0.655210,0.335351,0.124344,0.287319,5.499893,0.880907,1.150293,0.377885,0.225472
1577421780.299791,108.000000,0.000000,4173.333496,4001.538574,3943.589844,4183.589844,4115.384766,450.000000,4.000000,,,,0.000000,4.000000,4.000000,2.000000,4.000000,4.000000,,,,,,,,,,,,,,,,,,,,,,,,,
1577421780.307619,109.000000,0.000000,4163.077148,4016.410156,3860.512939,4161.538574,4106.153809,450.000000,4.000000,,,,0.000000,4.000000,4.000000,2.000000,4.000000,4.000000,,,,,,,,,,,,,,,,,,,,,,,,,
1577421780.315340,110.000000,0.000000,4161.538574,4055.384521,3702.051270,4146.666504,4100.512695,450.000000,4.000000,,,,0.000000,4.000000,4.000000,2.000000,4.000000,4.000000,,,,,,,,,,,,,,,,,,,,,,,,,
1577421780.323068,111.000000,0.000000,4176.922852,4098.974121,3559.487061,4155.897461,4115.897461,16178.000000,4.000000,,,,0.000000,4.000000,4.000000,2.000000,4.000000,4.000000,,,,,,,,,,,,,,,,,,,,,,,,,
1577421780.330803,112.000000,0.000000,4184.615234,4125.128418,3449.743652,4155.897461,4119.487305,450.000000,4.000000,,,,0.000000,4.000000,4.000000,2.000000,4.000000,4.000000,,,,,,,,,,,,,,,,,,,,,,,,,
1577421780.338638,113.000000,0.000000,4185.641113,4142.051270,3341.538574,4144.615234,4116.410156,450.000000,4.000000,,,,0.000000,4.000000,4.000000,2.000000,4.000000,4.000000,,,,,,,,,,,,,,,,,,,,,,,,,
1577421780.346472,114.000000,0.000000,4193.846191,4158.974121,3277.948730,4147.179688,4131.282227,450.000000,4.000000,,,,0.000000,4.000000,4.000000,2.000000,4.000000,4.000000,,,,,,,,,,,,,,,,,,,,,,,,,
1577421780.354199,115.000000,0.000000,4201.025879,4155.384766,3250.769287,4154.358887,4140.000000,16178.000000,4.000000,,,,0.000000,4.000000,4.000000,2.000000,4.000000,4.000000,,,,,,,,,,,,,,,,,,,,,,,,,
1577421780.362025,116.000000,0.000000,4197.948730,4126.666504,3238.461426,4153.846191,4134.358887,450.000000,4.000000,,,,0.000000,4.000000,4.000000,2.000000,4.000000,4.000000,,,,,,,,,,,,,,,,,,,,,,,,,
1577421780.369752,117.000000,0.000000,4182.563965,4074.871826,3270.256348,4143.077148,4113.846191,450.000000,4.000000,,,,0.000000,4.000000,4.000000,2.000000,4.000000,4.000000,,,,,,,,,,,,,,,,,,,,,,,,,
1577421780.377578,118.000000,0.000000,4168.717773,4012.820557,3331.281982,4134.358887,4102.051270,450.000000,4.000000,,,,0.000000,4.000000,4.000000,2.000000,4.000000,4.000000,,,,,,,,,,,,,,,,,,,,,,,,,
1577421780.385304,119.000000,0.000000,4164.615234,3963.589844,3395.897461,4140.000000,4111.794922,16178.000000,4.000000,,,,0.000000,4.000000,4.000000,2.000000,4.000000,4.000000,,,,,,,,,,,,,,,,,,,,,,,,,
1577421780.393131,120.000000,0.000000,4144.615234,3936.923096,3421.538574,4140.000000,4099.487305,450.000000,4.000000,,,,0.000000,4.000000,4.000000,2.000000,4.000000,4.000000,,,,,,,,,,,,,,,,,,,,,,,,,
1577421780.400856,121.000000,0.000000,4126.666504,3936.410156,3416.410156,4141.538574,4085.128174,450.000000,4.000000,,,,0.000000,4.000000,4.000000,2.000000,4.000000,4.000000,,,,,,,,,,,,,,,,,,,,,,,,,
1577421780.408681,122.000000,0.000000,4147.179688,3945.641113,3424.615479,4163.077148,4109.230957,450.000000,4.000000,,,,0.000000,4.000000,4.000000,2.000000,4.000000,4.000000,,,,,,,,,,,,,,,,,,,,,,,,,
1577421780.416406,123.000000,0.000000,4164.615234,3929.230713,3425.641113,4170.256348,4121.025879,16178.000000,4.000000,,,,0.000000,4.000000,4.000000,2.000000,4.000000,4.000000,10.399193,1.805373,1.787591,0.514754,0.915491,9.968498,2.868904,0.684614,0.538650,0.669570,41.250885,12.406064,14.519020,7.755274,4.895278,5.650084,1.660907,0.446645,0.175727,0.841353,7.625281,0.711756,1.395655,0.426086,0.827699
1577421780.424230,124.000000,0.000000,4154.358887,3916.410156,3387.179443,4154.358887,4100.000000,450.000000,4.000000,,,,0.000000,4.000000,4.000000,2.000000,4.000000,4.000000,,,,,,,,,,,,,,,,,,,,,,,,,
1577421780.431954,125.000000,0.000000,4156.922852,3944.102539,3343.589844,4152.820313,4101.025879,450.000000,4.000000,,,,0.000000,4.000000,4.000000,2.000000,4.000000,4.000000,,,,,,,,,,,,,,,,,,,,,,,,,
1577421780.439778,126.000000,0.000000,4178.461426,3963.589844,3311.281982,4163.077148,4127.692383,450.000000,4.000000,,,,0.000000,4.000000,4.000000,2.000000,4.000000,4.000000,,,,,,,,,,,,,,,,,,,,,,,,,
1577421780.447501,127.000000,0.000000,4176.922852,3953.333252,3247.692383,4153.846191,4127.179688,234.000000,4.000000,,,,0.000000,4.000000,4.000000,2.000000,4.000000,4.000000,,,,,,,,,,,,,,,,,,,,,,,,,
1577421780.455324,0.000000,0.000000,4163.077148,3956.923096,3163.589844,4147.179688,4116.410156,450.000000,4.000000,,,,0.000000,4.000000,4.000000,2.000000,4.000000,4.000000,,,,,,,,,,,,,,,,,,,,,,,,,
1577421780.463047,1.000000,0.000000,4178.461426,3985.641113,3112.307617,4164.615234,4136.410156,450.000000,4.000000,,,,0.000000,4.000000,4.000000,2.000000,4.000000,4.000000,,,,,,,,,,,,,,,,,,,,,,,,,
1577421780.470776,2.000000,0.000000,4199.487305,4003.589844,3097.435791,4171.794922,4157.948730,16234.000000,4.000000,,,,0.000000,4.000000,4.000000,2.000000,4.000000,4.000000,,,,,,,,,,,,,,,,,,,,,,,,,
1577421780.478606,3.000000,0.000000,4200.000000,3997.948730,3094.358887,4158.461426,4159.487305,450.000000,4.000000,,,,0.000000,4.000000,4.000000,2.000000,4.000000,4.000000,,,,,,,,,,,,,,,,,,,,,,,,,
1577421780.486435,4.000000,0.000000,4198.974121,3990.769287,3100.512939,4158.974121,4160.512695,16206.000000,4.000000,,,,0.000000,4.000000,4.000000,2.000000,4.000000,4.000000,,,,,,,,,,,,,,,,,,,,,,,,,
1577421780.494156,5.000000,0.000000,4194.871582,3989.743652,3113.846191,4165.128418,4158.974121,450.000000,4.000000,,,,0.000000,4.000000,4.000000,2.000000,4.000000,4.000000,,,,,,,,,,,,,,,,,,,,,,,,,
1577421780.501885,6.000000,0.000000,4182.563965,3983.076904,3132.307617,4154.358887,4145.128418,16130.000000,4.000000,,,,0.000000,4.000000,4.000000,4.000000,4.000000,4.000000,,,,,,,,,,,,,,,,,,,,,,,,,
1577421780.509713,7.000000,0.000000,4177.436035,3975.384521,3150.769287,4147.692383,4134.871582,450.000000,4.000000,,,,0.000000,4.000000,4.000000,4.000000,4.000000,4.000000,,,,,,,,,,,,,,,,,,,,,,,,,
1577421780.517440,8.000000,0.000000,4183.077148,3981.538574,3155.384521,4157.948730,4144.615234,450.000000,4.000000,,,,0.000000,4.000000,4.000000,4.000000,4.000000,4.000000,,,,,,,,,,,,,,,,,,,,,,,,,
1577421780.525267,9.000000,0.000000,4194.871582,3994.358887,3161.025635,4167.692383,4161.538574,16140.000000,4.000000,,,,0.000000,4.000000,4.000000,4.000000,4.000000,4.000000,,,,,,,,,,,,,,,,,,,,,,,,,
1577421780.532993,10.000000,0.000000,4199.487305,3994.871826,3176.923096,4167.179688,4164.102539,450.000000,4.000000,,,,0.000000,4.000000,4.000000,4.000000,4.000000,4.000000,,,,,,,,,,,,,,,,,,,,,,,,,
1577421780.540820,11.000000,0.000000,4193.333496,4004.102539,3183.076904,4169.743652,4165.641113,16199.000000,4.000000,,,,0.000000,4.000000,4.000000,4.000000,4.000000,4.000000,13.697323,2.133973,2.942128,0.681598,2.495220,22.705521,7.330890,2.015251,0.926829,1.764372,54.668251,22.249121,60.439327,28.977697,11.454970,15.110077,4.829640,0.658906,0.257672,2.288659,12.418270,0.639184,1.889278,0.559174,2.337170
1577421780.548546,12.000000,0.000000,4188.205078,4025.641113,3173.333252,4173.333496,4168.717773,450.000000,4.000000,,,,0.000000,4.000000,4.000000,4.000000,4.000000,4.000000,,,,,,,,,,,,,,,,,,,,,,,,,
1577421780.556372,13.000000,0.000000,4188.205078,4038.974365,3158.461426,4162.563965,4158.974121,450.000000,4.000000,,,,0.000000,4.000000,4.000000,4.000000,4.000000,4.000000,,,,,,,,,,,,,,,,,,,,,,,,,
1577421780.564097,14.000000,0.000000,4198.461426,4071.281982,3154.358887,4161.025879,4161.538574,450.000000,4.000000,,,,0.000000,4.000000,4.000000,4.000000,4.000000,4.000000,,,,,,,,,,,,,,,,,,,,,,,,,
1577421780.571922,15.000000,0.000000,4212.307617,4122.051270,3156.923096,4170.256348,4175.897461,16199.000000,4.000000,,,,0.000000,4.000000,4.000000,4.000000,4.000000,4.000000,,,,,,,,,,,,,,,,,,,,,,,,,
1577421780.579647,16.000000,0.000000,4219.487305,4159.487305,3158.974365,4167.179688,4182.051270,0.000000,4.000000,,,,0.000000,4.000000,4.000000,4.000000,4.000000,4.000000,,,,,,,,,,,,,,,,,,,,,,,,,
1577421780.587471,17.000000,0.000000,4231.282227,4192.307617,3170.769287,4165.641113,4193.333496,0.000000,4.000000,,,,0.000000,4.000000,4.000000,4.000000,4.000000,4.000000,,,,,,,,,,,,,,,,,,,,,,,,,
1577421780.595195,18.000000,0.000000,4247.692383,4216.410156,3187.179443,4175.384766,4205.641113,0.000000,4.000000,,,,0.000000,4.000000,4.000000,4.000000,4.000000,4.000000,,,,,,,,,,,,,,,,,,,,,,,,,
1577421780.602927,19.000000,0.000000,4255.384766,4226.153809,3207.692383,4181.538574,4206.666504,0.000000,4.000000,,,,0.000000,4.000000,4.000000,4.000000,4.000000,4.000000,,,,,,,,,,,,,,,,,,,,,,,,,
1577421780.610758,20.000000,0.000000,4250.256348,4228.717773,3224.615479,4172.820313,4205.128418,0.000000,4.000000,,,,0.000000,4.000000,4.000000,4.000000,4.000000,4.000000,,,,,,,,,,,,,,,,,,,,,,,,,
1577421780.618589,21.000000,0.000000,4246.666504,4221.538574,3228.718018,4161.538574,4206.153809,0.000000,4.000000,,,,0.000000,4.000000,4.000000,4.000000,4.000000,4.000000,,,,,,,,,,,,,,,,,,,,,,,,,
1577421780.626313,22.000000,0.000000,4270.256348,4218.974121,3250.256348,4176.410156,4224.615234,0.000000,4.000000,,,,0.000000,4.000000,4.000000,4.000000,4.000000,4.000000,,,,,,,,,,,,,,,,,,,,,,,,,
1577421780.634136,23.000000,0.000000,4285.128418,4227.179688,3281.538574,4193.846191,4242.051270,0.000000,4.000000,,,,0.000000,4.000000,4.000000,4.000000,4.000000,4.000000,,,,,,,,,,,,,,,,,,,,,,,,,
1577421780.641859,24.000000,0.000000,4264.102539,4218.461426,3290.256348,4178.461426,4227.692383,0.000000,4.000000,,,,0.000000,4.000000,4.000000,4.000000,4.000000,4.000000,,,,,,,,,,,,,,,,,,,,,,,,,
1577421780.649591,25.000000,0.000000,4250.256348,4187.692383,3298.974365,4163.077148,4210.769043,0.000000,4.000000,,,,0.000000,4.000000,4.000000,4.000000,4.000000,4.000000,,,,,,,,,,,,,,,,,,,,,,,,,
1577421780.657424,26.000000,0.000000,4251.794922,4159.487305,3318.461426,4166.153809,4211.794922,0.000000,4.000000,,,,0.000000,4.000000,4.000000,4.000000,4.000000,4.000000,,,,,,,,,,,,,,,,,,,,,,,,,
1577421780.665152,27.000000,0.000000,4244.102539,4144.102539,3341.025635,4169.230957,4207.692383,0.000000,4.000000,,,,0.000000,4.000000,4.000000,4.000000,4.000000,4.000000,17.852446,2.626657,4.248852,0.915019,5.177054,49.832233,18.767433,5.253160,1.721395,3.700318,100.331444,53.739227,181.821167,82.123116,27.208698,33.071873,10.879466,1.020727,0.374587,4.832310,19.446815,0.705666,2.551267,0.789638,4.952362
1577421780.672981,28.000000,0.000000,4229.743652,4128.205078,3367.692383,4161.538574,4191.282227,0.000000,4.000000,,,,0.000000,4.000000,4.000000,4.000000,4.000000,4.000000,,,,,,,,,,,,,,,,,,,,,,,,,
1577421780.680709,29.000000,0.000000,4210.769043,4101.025879,3387.179443,4137.436035,4173.333496,0.000000,4.000000,,,,0.000000,4.000000,4.000000,4.000000,4.000000,4.000000,,,,,,,,,,,,,,,,,,,,,,,,,
1577421780.688537,30.000000,0.000000,4201.538574,4077.435791,3394.358887,4118.974121,4167.692383,0.000000,4.000000,,,,0.000000,4.000000,4.000000,4.000000,4.000000,4.000000,,,,,,,,,,,,,,,,,,,,,,,,,
1577421780.696264,31.000000,0.000000,4205.128418,4057.948730,3397.435791,4121.025879,4173.846191,0.000000,4.000000,,,,0.000000,4.000000,4.000000,4.000000,4.000000,4.000000,,,,,,,,,,,,,,,,,,,,,,,,,
1577421780.704091,32.000000,0.000000,4205.128418,4045.128174,3397.948730,4121.538574,4175.384766,0.000000,4.000000,,,,0.000000,4.000000,4.000000,4.000000,4.000000,4.000000,,,,,,,,,,,,,,,,,,,,,,,,,
1577421780.711918,33.000000,0.000000,4201.538574,4056.410156,3390.769287,4112.820313,4173.846191,0.000000,4.000000,,,,0.000000,4.000000,4.000000,4.000000,4.000000,4.000000,,,,,,,,,,,,,,,,,,,,,,,,,
1577421780.719639,34.000000,0.000000,4201.025879,4062.051270,3372.820557,4111.794922,4166.666504,0.000000,4.000000,,,,0.000000,4.000000,4.000000,4.000000,4.000000,4.000000,,,,,,,,,,,,,,,,,,,,,,,,,
1577421780.727459,35.000000,0.000000,4212.307617,4052.820557,3371.281982,4121.538574,4169.230957,0.000000,4.000000,,,,0.000000,4.000000,4.000000,4.000000,4.000000,4.000000,,,,,,,,,,,,,,,,,,,,,,,,,
1577421780.735178,36.000000,0.000000,4223.077148,4056.410156,3391.794922,4120.512695,4185.641113,0.000000,4.000000,,,,0.000000,4.000000,4.000000,4.000000,4.000000,4.000000,,,,,,,,,,,,,,,,,,,,,,,,,
1577421780.742904,37.000000,0.000000,4205.128418,4067.179443,3393.846191,4105.128418,4175.897461,0.000000,4.000000,,,,0.000000,4.000000,4.000000,4.000000,4.000000,4.000000,,,,,,,,,,,,,,,,,,,,,,,,,
1577421780.750637,38.000000,0.000000,4189.743652,4071.794922,3383.589844,4100.000000,4158.974121,0.000000,4.000000,,,,0.000000,4.000000,4.000000,4.000000,4.000000,4.000000,,,,,,,,,,,,,,,,,,,,,,,,,
1577421780.758469,39.000000,0.000000,4206.153809,4077.948730,3402.051270,4104.615234,4170.769043,0.000000,4.000000,,,,0.000000,4.000000,4.000000,4.000000,4.000000,4.000000,,,,,,,,,,,,,,,,,,,,,,,,,
1577421780.766301,40.000000,0.000000,4211.282227,4082.051270,3427.692383,4099.487305,4173.333496,0.000000,4.000000,,,,0.000000,4.000000,4.000000,4.000000,4.000000,4.000000,,,,,,,,,,,,,,,,,,,,,,,,,
1577421780.774025,41.000000,0.000000,4194.871582,4083.076904,3431.794922,4101.025879,4165.128418,0.000000,4.000000,,,,0.000000,4.000000,4.000000,4.000000,4.000000,4.000000,,,,,,,,,,,,,,,,,,,,,,,,,
1577421780.781849,42.000000,0.000000,4206.153809,4093.333252,3447.179443,4126.153809,4178.461426,0.000000,4.000000,,,,0.000000,4.000000,4.000000,4.000000,4.000000,4.000000,,,,,,,,,,,,,,,,,,,,,,,,,
1577421780.789573,43.000000,0.000000,4235.384766,4097.948730,3478.461426,4147.179688,4200.512695,0.000000,4.000000,,,,0.000000,4.000000,4.000000,4.000000,4.000000,4.000000,22.039585,3.226911,5.388254,1.185038,8.585140,95.503914,39.226879,10.588666,2.903832,6.233948,182.737030,118.018509,390.067108,170.711182,52.408783,57.321335,19.223896,1.529536,0.518901,8.147904,27.242985,0.904006,3.194119,1.088789,8.342728
1577421780.797398,44.000000,0.000000,4240.512695,4096.410156,3496.923096,4149.743652,4209.230957,0.000000,4.000000,,,,0.000000,4.000000,4.000000,4.000000,4.000000,4.000000,,,,,,,,,,,,,,,,,,,,,,,,,
1577421780.805121,45.000000,0.000000,4226.666504,4096.410156,3505.128174,4141.025879,4196.410156,0.000000,4.000000,,,,0.000000,4.000000,4.000000,4.000000,4.000000,4.000000,,,,,,,,,,,,,,,,,,,,,,,,,
1577421780.812945,46.000000,0.000000,4223.589844,4093.333252,3524.102539,4134.871582,4184.102539,0.000000,4.000000,,,,0.000000,4.000000,4.000000,4.000000,4.000000,4.000000,,,,,,,,,,,,,,,,,,,,,,,,,
1577421780.820668,47.000000,0.000000,4231.282227,4090.256348,3557.948730,4140.512695,4189.743652,0.000000,4.000000,,,,0.000000,4.000000,4.000000,4.000000,4.000000,4.000000,,,,,,,,,,,,,,,,,,,,,,,,,
1577421780.828491,48.000000,0.000000,4229.743652,4090.256348,3585.128174,4141.538574,4184.102539,0.000000,4.000000,,,,0.000000,4.000000,4.000000,4.000000,4.000000,4.000000,,,,,,,,,,,,,,,,,,,,,,,,,
1577421780.836214,49.000000,0.000000,4228.205078,4095.897461,3609.743652,4134.871582,4174.871582,0.000000,4.000000,,,,0.000000,4.000000,4.000000,4.000000,4.000000,4.000000,,,,,,,,,,,,,,,,,,,,,,,,,
1577421780.844036,50.000000,0.000000,4234.871582,4100.512695,3647.179443,4130.256348,4179.487305,0.000000,4.000000,,,,0.000000,4.000000,4.000000,4.000000,4.000000,4.000000,,,,,,,,,,,,,,,,,,,,,,,,,
1577421780.851758,51.000000,0.000000,4238.461426,4103.589844,3686.153809,4129.743652,4186.153809,0.000000,4.000000,,,,0.000000,4.000000,4.000000,4.000000,4.000000,4.000000,,,,,,,,,,,,,,,,,,,,,,,,,
1577421780.859579,52.000000,0.000000,4237.948730,4110.256348,3711.281982,4129.230957,4191.282227,0.000000,4.000000,,,,0.000000,4.000000,4.000000,4.000000,4.000000,4.000000,,,,,,,,,,,,,,,,,,,,,,,,,
1577421780.867314,53.000000,0.000000,4241.025879,4112.307617,3726.666748,4122.051270,4191.794922,0.000000,4.000000,,,,0.000000,4.000000,4.000000,4.000000,4.000000,4.000000,,,,,,,,,,,,,,,,,,,,,,,,,
1577421780.875056,54.000000,0.000000,4241.025879,4104.615234,3730.256348,4113.846191,4185.641113,0.000000,4.000000,,,,0.000000,4.000000,4.000000,4.000000,4.000000,4.000000,,,,,,,,,,,,,,,,,,,,,,,,,
1577421780.882897,55.000000,0.000000,4235.897461,4104.102539,3720.000000,4107.692383,4179.487305,0.000000,4.000000,,,,0.000000,4.000000,4.000000,4.000000,4.000000,4.000000,,,,,,,,,,,,,,,,,,,,,,,,,
1577421780.890638,56.000000,0.000000,4230.256348,4110.769043,3707.692383,4106.666504,4180.000000,0.000000,4.000000,,,,0.000000,4.000000,4.000000,4.000000,4.000000,4.000000,,,,,,,,,,,,,,,,,,,,,,,,,
1577421780.898478,57.000000,0.000000,4225.641113,4107.692383,3704.615479,4117.436035,4181.538574,0.000000,4.000000,,,,0.000000,4.000000,4.000000,4.000000,4.000000,4.000000,,,,,,,,,,,,,,,,,,,,,,,,,
1577421780.906218,58.000000,0.000000,4224.102539,4109.743652,3706.153809,4128.717773,4180.512695,0.000000,4.000000,,,,0.000000,4.000000,4.000000,4.000000,4.000000,4.000000,,,,,,,,,,,,,,,,,,,,,,,,,
1577421780.914058,59.000000,0.000000,4225.641113,4125.128418,3707.692383,4130.769043,4183.589844,0.000000,4.000000,,,,0.000000,4.000000,4.000000,4.000000,4.000000,4.000000,25.237038,3.811942,6.041244,1.437469,11.846092,155.154221,66.395515,17.130033,4.237840,8.732383,295.771942,213.332626,653.404968,280.072784,82.293648,81.829445,27.918810,2.114181,0.668537,11.402164,33.543865,1.179155,3.604654,1.392481,11.664647
1577421780.921798,60.000000,0.000000,4229.230957,4132.820313,3714.871826,4135.384766,4192.820313,0.000000,4.000000,,,,0.000000,4.000000,4.000000,4.000000,4.000000,4.000000,,,,,,,,,,,,,,,,,,,,,,,,,
1577421780.929637,61.000000,0.000000,4234.358887,4136.922852,3730.256348,4138.974121,4194.358887,0.000000,4.000000,,,,0.000000,4.000000,4.000000,4.000000,4.000000,4.000000,,,,,,,,,,,,,,,,,,,,,,,,,
1577421780.937375,62.000000,0.000000,4234.358887,4149.230957,3743.076904,4139.487305,4196.410156,0.000000,4.000000,,,,0.000000,4.000000,4.000000,4.000000,4.000000,4.000000,,,,,,,,,,,,,,,,,,,,,,,,,
1577421780.945213,63.000000,0.000000,4230.256348,4167.179688,3754.358887,4146.153809,4204.615234,0.000000,4.000000,,,,0.000000,4.000000,4.000000,4.000000,4.000000,4.000000,,,,,,,,,,,,,,,,,,,,,,,,,
1577421780.952951,64.000000,0.000000,4231.282227,4186.153809,3771.794922,4149.743652,4203.589844,450.000000,4.000000,,,,0.000000,4.000000,4.000000,4.000000,4.000000,4.000000,,,,,,,,,,,,,,,,,,,,,,,,,
1577421780.960789,65.000000,0.000000,4241.538574,4209.230957,3792.307617,4155.897461,4203.589844,450.000000,4.000000,,,,0.000000,4.000000,4.000000,4.000000,4.000000,4.000000,,,,,,,,,,,,,,,,,,,,,,,,,
1577421780.968527,66.000000,0.000000,4248.717773,4225.641113,3808.718018,4166.666504,4206.666504,16221.000000,4.000000,,,,0.000000,4.000000,4.000000,4.000000,4.000000,4.000000,,,,,,,,,,,,,,,,,,,,,,,,,
1577421780.976365,67.000000,0.000000,4244.102539,4212.307617,3820.000000,4157.948730,4201.025879,450.000000,4.000000,,,,0.000000,4.000000,4.000000,4.000000,4.000000,4.000000,,,,,,,,,,,,,,,,,,,,,,,,,
1577421780.984101,68.000000,0.000000,4236.922852,4193.846191,3847.179443,4143.589844,4195.897461,16198.000000,4.000000,,,,0.000000,4.000000,4.000000,4.000000,4.000000,4.000000,,,,,,,,,,,,,,,,,,,,,,,,,
1577421780.991938,69.000000,0.000000,4237.948730,4202.051270,3897.435791,4146.153809,4201.538574,450.000000,4.000000,,,,0.000000,4.000000,4.000000,4.000000,4.000000,4.000000,,,,,,,,,,,,,,,,,,,,,,,,,
1577421780.999674,70.000000,0.000000,4240.000000,4212.820313,3941.538574,4148.205078,4202.563965,16160.000000,4.000000,,,,0.000000,4.000000,4.000000,4.000000,4.000000,4.000000,,,,,,,,,,,,,,,,,,,,,,,,,
1577421781.007510,71.000000,0.000000,4235.384766,4210.256348,3963.589844,4142.051270,4190.769043,450.000000,4.000000,,,,0.000000,4.000000,4.000000,4.000000,4.000000,4.000000,,,,,,,,,,,,,,,,,,,,,,,,,
1577421781.015245,72.000000,0.000000,4230.256348,4210.256348,3974.358887,4141.538574,4190.256348,450.000000,4.000000,,,,0.000000,4.000000,4.000000,4.000000,4.000000,4.000000,,,,,,,,,,,,,,,,,,,,,,,,,
1577421781.022987,73.000000,0.000000,4225.641113,4214.358887,3981.025635,4138.461426,4197.436035,16158.000000,4.000000,,,,0.000000,4.000000,4.000000,4.000000,4.000000,4.000000,,,,,,,,,,,,,,,,,,,,,,,,,
1577421781.030828,74.000000,0.000000,4214.358887,4207.692383,3974.358887,4125.128418,4182.051270,450.000000,4.000000,,,,0.000000,4.000000,4.000000,4.000000,4.000000,4.000000,,,,,,,,,,,,,,,,,,,,,,,,,
1577421781.038570,75.000000,0.000000,4207.179688,4200.000000,3961.538574,4121.025879,4171.282227,16210.000000,4.000000,,,,0.000000,4.000000,4.000000,4.000000,4.000000,4.000000,26.792950,4.249369,6.033738,1.607023,13.932070,218.021744,93.863205,23.112955,5.341347,10.413431,408.217224,320.459076,901.376953,380.382233,108.290184,98.728409,34.225101,2.656301,0.795893,13.573457,36.464428,1.458035,3.658823,1.620295,13.883574
1577421781.046412,76.000000,0.000000,4212.820313,4198.974121,3958.974365,4132.820313,4175.384766,450.000000,4.000000,,,,0.000000,4.000000,4.000000,4.000000,4.000000,4.000000,,,,,,,,,,,,,,,,,,,,,,,,,
1577421781.054153,77.000000,0.000000,4212.307617,4198.461426,3956.410156,4139.487305,4164.615234,450.000000,4.000000,,,,0.000000,4.000000,4.000000,4.000000,4.000000,4.000000,,,,,,,,,,,,,,,,,,,,,,,,,
1577421781.061993,78.000000,0.000000,4204.102539,4204.102539,3949.743652,4143.589844,4155.897461,450.000000,4.000000,,,,0.000000,4.000000,4.000000,4.000000,4.000000,4.000000,,,,,,,,,,,,,,,,,,,,,,,,,
1577421781.069834,79.000000,0.000000,4198.974121,4192.820313,3948.718018,4148.205078,4152.307617,16210.000000,4.000000,,,,0.000000,4.000000,4.000000,4.000000,4.000000,4.000000,,,,,,,,,,,,,,,,,,,,,,,,,
1577421781.077568,80.000000,0.000000,4189.230957,4155.897461,3943.076904,4140.512695,4133.333496,450.000000,4.000000,,,,0.000000,4.000000,4.000000,4.000000,4.000000,4.000000,,,,,,,,,,,,,,,,,,,,,,,,,
1577421781.085307,81.000000,0.000000,4176.922852,4143.077148,3939.487061,4137.948730,4120.000000,450.000000,4.000000,,,,0.000000,4.000000,4.000000,4.000000,4.000000,4.000000,,,,,,,,,,,,,,,,,,,,,,,,,
1577421781.093147,82.000000,0.000000,4160.512695,4150.769043,3949.230713,4141.025879,4112.820313,450.000000,4.000000,,,,0.000000,4.000000,4.000000,4.000000,4.000000,4.000000,,,,,,,,,,,,,,,,,,,,,,,,,
1577421781.100886,83.000000,0.000000,4147.692383,4143.077148,3966.666748,4137.948730,4105.128418,16210.000000,4.000000,,,,0.000000,4.000000,4.000000,4.000000,4.000000,4.000000,,,,,,,,,,,,,,,,,,,,,,,,,
1577421781.108725,84.000000,0.000000,4155.897461,4141.538574,3991.281982,4146.153809,4109.230957,450.000000,4.000000,,,,0.000000,4.000000,4.000000,4.000000,4.000000,4.000000,,,,,,,,,,,,,,,,,,,,,,,,,
1577421781.116564,85.000000,0.000000,4168.205078,4152.307617,4025.641113,4160.000000,4118.974121,450.000000,4.000000,,,,0.000000,4.000000,4.000000,4.000000,4.000000,4.000000,,,,,,,,,,,,,,,,,,,,,,,,,
1577421781.124296,86.000000,0.000000,4178.974121,4152.307617,4063.589844,4170.769043,4127.692383,450.000000,4.000000,,,,0.000000,4.000000,4.000000,4.000000,4.000000,4.000000,,,,,,,,,,,,,,,,,,,,,,,,,
1577421781.132034,87.000000,0.000000,4192.307617,4148.717773,4084.615479,4188.717773,4136.922852,16210.000000,4.000000,,,,0.000000,4.000000,4.000000,4.000000,4.000000,4.000000,,,,,,,,,,,,,,,,,,,,,,,,,
1577421781.139872,88.000000,0.000000,4192.820313,4138.461426,4077.435791,4200.000000,4135.897461,450.000000,4.000000,,,,0.000000,4.000000,4.000000,4.000000,4.000000,4.000000,,,,,,,,,,,,,,,,,,,,,,,,,
1577421781.147609,89.000000,0.000000,4179.487305,4120.512695,4061.538574,4195.384766,4122.563965,450.000000,4.000000,,,,0.000000,4.000000,4.000000,4.000000,4.000000,4.000000,,,,,,,,,,,,,,,,,,,,,,,,,
1577421781.155446,90.000000,0.000000,4166.666504,4108.205078,4047.692383,4201.025879,4114.871582,450.000000,4.000000,,,,0.000000,4.000000,4.000000,4.000000,4.000000,4.000000,,,,,,,,,,,,,,,,,,,,,,,,,
1577421781.163183,91.000000,0.000000,4161.025879,4105.128418,4043.076904,4220.512695,4113.333496,16210.000000,4.000000,,,,0.000000,4.000000,4.000000,4.000000,4.000000,4.000000,26.610628,4.439007,5.407011,1.643139,14.130991,267.273926,113.363274,26.631762,5.859961,10.699552,486.229095,409.353668,1053.567627,438.683319,121.659676,102.236450,35.913567,3.027918,0.879489,13.916564,35.371445,1.685403,3.379224,1.709591,14.242485
1577421781.171020,92.000000,0.000000,4154.871582,4110.256348,4048.718018,4223.077148,4104.615234,450.000000,4.000000,,,,0.000000,4.000000,4.000000,4.000000,4.000000,4.000000,,,,,,,,,,,,,,,,,,,,,,,,,
1577421781.178756,93.000000,0.000000,4152.307617,4124.615234,4052.307617,4220.512695,4110.256348,450.000000,4.000000,,,,0.000000,4.000000,4.000000,4.000000,4.000000,4.000000,,,,,,,,,,,,,,,,,,,,,,,,,
1577421781.186591,94.000000,0.000000,4152.307617,4134.358887,4057.435791,4227.692383,4118.461426,450.000000,4.000000,,,,0.000000,4.000000,4.000000,4.000000,4.000000,4.000000,,,,,,,,,,,,,,,,,,,,,,,,,
1577421781.194327,95.000000,0.000000,4149.230957,4130.769043,4071.794922,4227.692383,4108.205078,16210.000000,4.000000,,,,0.000000,4.000000,4.000000,4.000000,4.000000,4.000000,,,,,,,,,,,,,,,,,,,,,,,,,
1577421781.202069,96.000000,0.000000,4154.871582,4147.179688,4094.358887,4225.128418,4108.205078,450.000000,4.000000,,,,0.000000,4.000000,4.000000,4.000000,4.000000,4.000000,,,,,,,,,,,,,,,,,,,,,,,,,
1577421781.209910,97.000000,0.000000,4157.436035,4173.333496,4112.307617,4223.077148,4114.358887,450.000000,4.000000,,,,0.000000,4.000000,4.000000,4.000000,4.000000,4.000000,,,,,,,,,,,,,,,,,,,,,,,,,
1577421781.217752,98.000000,0.000000,4152.307617,4181.025879,4127.692383,4223.589844,4115.897461,450.000000,4.000000,,,,0.000000,4.000000,4.000000,4.000000,4.000000,4.000000,,,,,,,,,,,,,,,,,,,,,,,,,
1577421781.225486,99.000000,0.000000,4158.461426,4184.102539,4146.666504,4234.871582,4121.538574,16210.000000,4.000000,,,,0.000000,4.000000,4.000000,4.000000,4.000000,4.000000,,,,,,,,,,,,,,,,,,,,,,,,,
1577421781.233320,100.000000,0.000000,4163.077148,4191.794922,4151.794922,4236.410156,4121.025879,450.000000,4.000000,,,,0.000000,4.000000,4.000000,4.000000,4.000000,4.000000,,,,,,,,,,,,,,,,,,,,,,,,,
1577421781.241054,101.000000,0.000000,4158.974121,4205.128418,4151.794922,4229.230957,4120.000000,450.000000,4.000000,,,,0.000000,4.000000,4.000000,4.000000,4.000000,4.000000,,,,,,,,,,,,,,,,,,,,,,,,,
1577421781.248887,102.000000,0.000000,4149.230957,4211.282227,4153.333496,4226.153809,4121.025879,450.000000,4.000000,,,,0.000000,4.000000,4.000000,4.000000,4.000000,4.000000,,,,,,,,,,,,,,,,,,,,,,,,,
1577421781.256620,103.000000,0.000000,4130.769043,4204.615234,4152.820313,4219.487305,4108.717773,16210.000000,4.000000,,,,0.000000,4.000000,4.000000,4.000000,4.000000,4.000000,,,,,,,,,,,,,,,,,,,,,,,,,
1577421781.264359,104.000000,0.000000,4130.769043,4209.230957,4169.743652,4226.153809,4104.615234,450.000000,4.000000,,,,0.000000,4.000000,4.000000,4.000000,4.000000,4.000000,,,,,,,,,,,,,,,,,,,,,,,,,
1577421781.272198,105.000000,0.000000,4139.487305,4222.051270,4183.077148,4237.948730,4115.384766,450.000000,4.000000,,,,0.000000,4.000000,4.000000,4.000000,4.000000,4.000000,,,,,,,,,,,,,,,,,,,,,,,,,
1577421781.280037,106.000000,0.000000,4125.128418,4218.461426,4160.000000,4222.051270,4106.153809,450.000000,4.000000,,,,0.000000,4.000000,4.000000,4.000000,4.000000,4.000000,,,,,,,,,,,,,,,,,,,,,,,,,
1577421781.287769,107.000000,0.000000,4113.846191,4206.153809,4142.051270,4206.153809,4090.769287,16210.000000,4.000000,,,,0.000000,4.000000,4.000000,4.000000,4.000000,4.000000,24.982750,4.318554,4.387484,1.530471,12.383862,289.455200,118.275108,26.490854,5.621869,9.494456,503.466095,450.618530,1056.193481,434.124146,117.582779,91.887413,32.486221,3.142170,0.908245,12.318302,30.945717,1.804678,2.918615,1.635918,12.623516
1577421781.295507,108.000000,0.000000,4129.743652,4207.179688,4152.820313,4215.384766,4106.666504,450.000000,4.000000,,,,0.000000,4.000000,4.000000,4.000000,4.000000,4.000000,,,,,,,,,,,,,,,,,,,,,,,,,
1577421781.303345,109.000000,0.000000,4140.000000,4218.461426,4153.846191,4217.436035,4118.974121,450.000000,4.000000,,,,0.000000,4.000000,4.000000,4.000000,4.000000,4.000000,,,,,,,,,,,,,,,,,,,,,,,,,
1577421781.311184,110.000000,0.000000,4138.974121,4226.666504,4146.153809,4210.769043,4114.358887,450.000000,4.000000,,,,0.000000,4.000000,4.000000,4.000000,4.000000,4.000000,,,,,,,,,,,,,,,,,,,,,,,,,
1577421781.318914,111.000000,0.000000,4156.410156,4229.743652,4157.436035,4226.666504,4128.205078,16210.000000,4.000000,,,,0.000000,4.000000,4.000000,4.000000,4.000000,4.000000,,,,,,,,,,,,,,,,,,,,,,,,,
1577421781.326651,112.000000,0.000000,4174.358887,4230.256348,4166.153809,4242.051270,4147.179688,450.000000,4.000000,,,,0.000000,4.000000,4.000000,4.000000,4.000000,4.000000,,,,,,,,,,,,,,,,,,,,,,,,,
1577421781.334488,113.000000,0.000000,4174.358887,4223.077148,4148.205078,4237.948730,4149.743652,450.000000,4.000000,,,,0.000000,4.000000,4.000000,4.000000,4.000000,4.000000,,,,,,,,,,,,,,,,,,,,,,,,,
1577421781.342224,114.000000,0.000000,4169.743652,4204.615234,4115.384766,4232.307617,4146.666504,450.000000,4.000000,,,,0.000000,4.000000,4.000000,4.000000,4.000000,4.000000,,,,,,,,,,,,,,,,,,,,,,,,,
1577421781.350060,115.000000,0.000000,4164.102539,4188.717773,4087.179443,4224.615234,4136.410156,16210.000000,4.000000,,,,0.000000,4.000000,4.000000,4.000000,4.000000,4.000000,,,,,,,,,,,,,,,,,,,,,,,,,
1577421781.357796,116.000000,0.000000,4155.897461,4186.153809,4072.820557,4215.384766,4126.153809,450.000000,4.000000,,,,0.000000,4.000000,4.000000,4.000000,4.000000,4.000000,,,,,,,,,,,,,,,,,,,,,,,,,
1577421781.365631,117.000000,0.000000,4153.846191,4183.077148,4068.205078,4213.846191,4127.692383,450.000000,4.000000,,,,0.000000,4.000000,4.000000,4.000000,4.000000,4.000000,,,,,,,,,,,,,,,,,,,,,,,,,
1577421781.373367,118.000000,0.000000,4163.589844,4182.563965,4066.666748,4213.333496,4136.410156,450.000000,4.000000,,,,0.000000,4.000000,4.000000,4.000000,4.000000,4.000000,,,,,,,,,,,,,,,,,,,,,,,,,
1577421781.381202,119.000000,0.000000,4177.948730,4192.820313,4068.205078,4208.717773,4147.179688,16210.000000,4.000000,,,,0.000000,4.000000,4.000000,4.000000,4.000000,4.000000,,,,,,,,,,,,,,,,,,,,,,,,,
1577421781.388937,120.000000,0.000000,4179.487305,4188.205078,4066.666748,4201.538574,4149.230957,450.000000,4.000000,,,,0.000000,4.000000,4.000000,4.000000,4.000000,4.000000,,,,,,,,,,,,,,,,,,,,,,,,,
1577421781.396772,121.000000,0.000000,4171.794922,4174.358887,4060.512939,4193.333496,4140.000000,450.000000,4.000000,,,,0.000000,4.000000,4.000000,4.000000,4.000000,4.000000,,,,,,,,,,,,,,,,,,,,,,,,,
1577421781.404506,122.000000,0.000000,4184.615234,4190.256348,4076.410156,4200.000000,4142.051270,450.000000,4.000000,,,,0.000000,4.000000,4.000000,4.000000,4.000000,4.000000,,,,,,,,,,,,,,,,,,,,,,,,,
1577421781.412340,123.000000,0.000000,4201.538574,4209.230957,4103.077148,4217.948730,4152.820313,16210.000000,4.000000,,,,0.000000,4.000000,4.000000,4.000000,4.000000,4.000000,22.500132,3.943867,3.315180,1.302168,9.310859,278.293640,106.985527,22.791924,4.740620,7.229606,454.915009,429.717133,908.164368,368.139465,97.463722,72.106430,25.194788,2.984576,0.886028,9.346948,24.685694,1.823101,2.460563,1.423473,9.601457
1577421781.420073,124.000000,0.000000,4191.794922,4209.230957,4108.717773,4215.384766,4148.205078,450.000000,4.000000,,,,0.000000,4.000000,4.000000,4.000000,4.000000,4.000000,,,,,,,,,,,,,,,,,,,,,,,,,
1577421781.427906,125.000000,0.000000,4174.358887,4216.410156,4110.769043,4196.922852,4131.794922,450.000000,4.000000,,,,0.000000,4.000000,4.000000,4.000000,4.000000,4.000000,,,,,,,,,,,,,,,,,,,,,,,,,
1577421781.435639,126.000000,0.000000,4168.205078,4230.256348,4126.153809,4189.743652,4126.153809,450.000000,4.000000,,,,0.000000,4.000000,4.000000,4.000000,4.000000,4.000000,,,,,,,,,,,,,,,,,,,,,,,,,
1577421781.443471,127.000000,0.000000,4158.461426,4233.333496,4140.512695,4188.205078,4122.051270,234.000000,4.000000,,,,0.000000,4.000000,4.000000,4.000000,4.000000,4.000000,,,,,,,,,,,,,,,,,,,,,,,,,
1577421781.451204,0.000000,0.000000,4148.205078,4238.461426,4154.871582,4185.641113,4117.436035,450.000000,4.000000,,,,0.000000,4.000000,4.000000,4.000000,4.000000,4.000000,,,,,,,,,,,,,,,,,,,,,,,,,
1577421781.459036,1.000000,0.000000,4150.256348,4257.948730,4171.794922,4182.563965,4117.948730,450.000000,4.000000,,,,0.000000,4.000000,4.000000,4.000000,4.000000,4.000000,,,,,,,,,,,,,,,,,,,,,,,,,
1577421781.466767,2.000000,0.000000,4138.974121,4271.794922,4164.615234,4164.102539,4102.051270,16225.000000,4.000000,,,,0.000000,4.000000,4.000000,4.000000,4.000000,4.000000,,,,,,,,,,,,,,,,,,,,,,,,,
1577421781.474505,3.000000,0.000000,4114.871582,4272.820313,4148.205078,4142.051270,4081.538574,450.000000,4.000000,,,,0.000000,4.000000,4.000000,4.000000,4.000000,4.000000,,,,,,,,,,,,,,,,,,,,,,,,,
1577421781.482343,4.000000,0.000000,4129.230957,4289.743652,4168.205078,4156.922852,4093.846191,16202.000000,4.000000,,,,0.000000,4.000000,4.000000,4.000000,4.000000,4.000000,,,,,,,,,,,,,,,,,,,,,,,,,
1577421781.490079,5.000000,0.000000,4165.641113,4317.436035,4200.512695,4184.102539,4121.538574,450.000000,4.000000,,,,0.000000,4.000000,4.000000,4.000000,4.000000,4.000000,,,,,,,,,,,,,,,,,,,,,,,,,
1577421781.497916,6.000000,0.000000,4169.743652,4328.717773,4206.153809,4182.563965,4124.102539,16162.000000,4.000000,,,,0.000000,4.000000,4.000000,4.000000,4.000000,4.000000,,,,,,,,,,,,,,,,,,,,,,,,,
1577421781.505653,7.000000,0.000000,4155.384766,4319.487305,4197.436035,4170.256348,4108.205078,450.000000,4.000000,,,,0.000000,4.000000,4.000000,4.000000,4.000000,4.000000,,,,,,,,,,,,,,,,,,,,,,,,,
1577421781.513489,8.000000,0.000000,4172.307617,4320.000000,4198.974121,4184.102539,4119.487305,450.000000,4.000000,,,,0.000000,4.000000,4.000000,4.000000,4.000000,4.000000,,,,,,,,,,,,,,,,,,,,,,,,,
1577421781.521226,9.000000,0.000000,4215.897461,4346.666504,4213.846191,4215.897461,4158.974121,16167.000000,4.000000,,,,0.000000,4.000000,4.000000,4.000000,4.000000,4.000000,,,,,,,,,,,,,,,,,,,,,,,,,
1577421781.529062,10.000000,0.000000,4241.025879,4370.256348,4229.230957,4233.333496,4188.717773,450.000000,4.000000,,,,0.000000,4.000000,4.000000,4.000000,4.000000,4.000000,,,,,,,,,,,,,,,,,,,,,,,,,
1577421781.536798,11.000000,0.000000,4245.128418,4366.153809,4234.871582,4231.794922,4206.153809,16221.000000,4.000000,,,,0.000000,4.000000,4.000000,4.000000,4.000000,4.000000,19.660751,3.520926,2.474161,1.027030,5.911259,239.095016,83.607689,16.834930,3.540526,4.653566,360.454681,354.958435,661.774963,263.921906,68.270821,49.167328,16.513151,2.613899,0.830514,5.978928,18.615028,1.818311,2.118042,1.132737,6.166559
1577421781.544634,12.000000,0.000000,4257.948730,4353.333496,4237.436035,4226.153809,4218.974121,450.000000,4.000000,,,,0.000000,4.000000,4.000000,4.000000,4.000000,4.000000,,,,,,,,,,,,,,,,,,,,,,,,,
1577421781.552369,13.000000,0.000000,4271.282227,4343.077148,4238.461426,4223.589844,4222.051270,450.000000,4.000000,,,,0.000000,4.000000,4.000000,4.000000,4.000000,4.000000,,,,,,,,,,,,,,,,,,,,,,,,,
1577421781.560204,14.000000,0.000000,4272.307617,4324.615234,4227.692383,4225.641113,4217.948730,450.000000,4.000000,,,,0.000000,4.000000,4.000000,4.000000,4.000000,4.000000,,,,,,,,,,,,,,,,,,,,,,,,,
1577421781.568039,15.000000,0.000000,4266.153809,4305.641113,4204.615234,4216.922852,4209.230957,16221.000000,4.000000,,,,0.000000,4.000000,4.000000,4.000000,4.000000,4.000000,,,,,,,,,,,,,,,,,,,,,,,,,
1577421781.575767,16.000000,0.000000,4253.333496,4291.794922,4182.051270,4200.512695,4198.461426,0.000000,4.000000,,,,0.000000,4.000000,4.000000,4.000000,4.000000,4.000000,,,,,,,,,,,,,,,,,,,,,,,,,
1577421781.583501,17.000000,0.000000,4231.794922,4270.769043,4155.384766,4185.128418,4181.025879,0.000000,4.000000,,,,0.000000,4.000000,4.000000,4.000000,4.000000,4.000000,,,,,,,,,,,,,,,,,,,,,,,,,
1577421781.591334,18.000000,0.000000,4212.820313,4252.307617,4130.769043,4170.769043,4157.948730,0.000000,4.000000,,,,0.000000,4.000000,4.000000,4.000000,4.000000,4.000000,,,,,,,,,,,,,,,,,,,,,,,,,
1577421781.599067,19.000000,0.000000,4194.358887,4241.025879,4112.820313,4154.358887,4136.922852,0.000000,4.000000,,,,0.000000,4.000000,4.000000,4.000000,4.000000,4.000000,,,,,,,,,,,,,,,,,,,,,,,,,
1577421781.606901,20.000000,0.000000,4162.563965,4206.153809,4078.974365,4130.256348,4107.692383,0.000000,4.000000,,,,0.000000,4.000000,4.000000,4.000000,4.000000,4.000000,,,,,,,,,,,,,,,,,,,,,,,,,
1577421781.614633,21.000000,0.000000,4140.512695,4176.922852,4055.384521,4118.461426,4089.743652,0.000000,4.000000,,,,0.000000,4.000000,4.000000,4.000000,4.000000,4.000000,,,,,,,,,,,,,,,,,,,,,,,,,
1577421781.622371,22.000000,0.000000,4162.563965,4210.769043,4086.153809,4141.025879,4114.871582,0.000000,4.000000,,,,0.000000,4.000000,4.000000,4.000000,4.000000,4.000000,,,,,,,,,,,,,,,,,,,,,,,,,
1577421781.630210,23.000000,0.000000,4196.410156,4248.717773,4124.615234,4160.512695,4144.615234,0.000000,4.000000,,,,0.000000,4.000000,4.000000,4.000000,4.000000,4.000000,,,,,,,,,,,,,,,,,,,,,,,,,
1577421781.637948,24.000000,0.000000,4201.025879,4226.666504,4126.666504,4148.717773,4144.615234,0.000000,4.000000,,,,0.000000,4.000000,4.000000,4.000000,4.000000,4.000000,,,,,,,,,,,,,,,,,,,,,,,,,
1577421781.645787,25.000000,0.000000,4203.077148,4215.384766,4135.384766,4146.153809,4144.102539,0.000000,4.000000,,,,0.000000,4.000000,4.000000,4.000000,4.000000,4.000000,,,,,,,,,,,,,,,,,,,,,,,,,
1577421781.653524,26.000000,0.000000,4227.179688,4248.717773,4167.692383,4173.333496,4167.692383,0.000000,4.000000,,,,0.000000,4.000000,4.000000,4.000000,4.000000,4.000000,,,,,,,,,,,,,,,,,,,,,,,,,
1577421781.661362,27.000000,0.000000,4242.051270,4262.051270,4191.282227,4188.717773,4186.153809,0.000000,4.000000,,,,0.000000,4.000000,4.000000,4.000000,4.000000,4.000000,16.778065,3.242426,1.998390,0.776487,3.106071,184.509567,55.770077,10.550779,2.397155,2.485337,252.919357,252.208359,397.671539,155.244339,39.166790,30.008450,9.099341,2.124434,0.763736,3.149000,13.762177,1.868423,1.930834,0.839435,3.269860
1577421781.669199,28.000000,0.000000,4236.410156,4244.615234,4198.974121,4177.436035,4187.179688,0.000000,4.000000,,,,0.000000,4.000000,4.000000,4.000000,4.000000,4.000000,,,,,,,,,,,,,,,,,,,,,,,,,
1577421781.676930,29.000000,0.000000,4244.102539,4240.512695,4211.282227,4171.282227,4195.897461,0.000000,4.000000,,,,0.000000,4.000000,4.000000,4.000000,4.000000,4.000000,,,,,,,,,,,,,,,,,,,,,,,,,
1577421781.684666,30.000000,0.000000,4261.025879,4250.769043,4222.563965,4176.922852,4208.717773,0.000000,4.000000,,,,0.000000,4.000000,4.000000,4.000000,4.000000,4.000000,,,,,,,,,,,,,,,,,,,,,,,,,
1577421781.692502,31.000000,0.000000,4263.589844,4249.743652,4220.000000,4173.846191,4214.871582,0.000000,4.000000,,,,0.000000,4.000000,4.000000,4.000000,4.000000,4.000000,,,,,,,,,,,,,,,,,,,,,,,,,
1577421781.700238,32.000000,0.000000,4262.563965,4232.307617,4215.384766,4161.025879,4217.436035,0.000000,4.000000,,,,0.000000,4.000000,4.000000,4.000000,4.000000,4.000000,,,,,,,,,,,,,,,,,,,,,,,,,
1577421781.708074,33.000000,0.000000,4261.025879,4226.666504,4213.333496,4147.692383,4209.743652,0.000000,4.000000,,,,0.000000,4.000000,4.000000,4.000000,4.000000,4.000000,,,,,,,,,,,,,,,,,,,,,,,,,
1577421781.715809,34.000000,0.000000,4249.743652,4242.563965,4220.512695,4137.948730,4198.974121,0.000000,4.000000,,,,0.000000,4.000000,4.000000,4.000000,4.000000,4.000000,,,,,,,,,,,,,,,,,,,,,,,,,
1577421781.723645,35.000000,0.000000,4242.563965,4251.794922,4245.641113,4136.410156,4194.358887,0.000000,4.000000,,,,0.000000,4.000000,4.000000,4.000000,4.000000,4.000000,,,,,,,,,,,,,,,,,,,,,,,,,
1577421781.731380,36.000000,0.000000,4246.153809,4252.820313,4267.692383,4136.922852,4196.410156,0.000000,4.000000,,,,0.000000,4.000000,4.000000,4.000000,4.000000,4.000000,,,,,,,,,,,,,,,,,,,,,,,,,
1577421781.739214,37.000000,0.000000,4256.922852,4283.589844,4287.692383,4136.922852,4209.743652,0.000000,4.000000,,,,0.000000,4.000000,4.000000,4.000000,4.000000,4.000000,,,,,,,,,,,,,,,,,,,,,,,,,
1577421781.746949,38.000000,0.000000,4301.538574,4353.846191,4342.051270,4163.077148,4250.769043,0.000000,4.000000,,,,0.000000,4.000000,4.000000,4.000000,4.000000,4.000000,,,,,,,,,,,,,,,,,,,,,,,,,
1577421781.754689,39.000000,0.000000,4369.230957,4411.282227,4400.512695,4199.487305,4299.487305,0.000000,4.000000,,,,0.000000,4.000000,4.000000,4.000000,4.000000,4.000000,,,,,,,,,,,,,,,,,,,,,,,,,
1577421781.762529,40.000000,0.000000,4394.358887,4407.692383,4406.153809,4188.205078,4307.692383,0.000000,4.000000,,,,0.000000,4.000000,4.000000,4.000000,4.000000,4.000000,,,,,,,,,,,,,,,,,,,,,,,,,
1577421781.770369,41.000000,0.000000,4400.000000,4395.897461,4398.974121,4156.922852,4301.538574,0.000000,4.000000,,,,0.000000,4.000000,4.000000,4.000000,4.000000,4.000000,,,,,,,,,,,,,,,,,,,,,,,,,
1577421781.778102,42.000000,0.000000,4452.307617,4427.692383,4432.820313,4158.461426,4332.307617,0.000000,4.000000,,,,0.000000,4.000000,4.000000,4.000000,4.000000,4.000000,,,,,,,,,,,,,,,,,,,,,,,,,
1577421781.785935,43.000000,0.000000,4499.487305,4433.846191,4448.717773,4148.205078,4348.205078,0.000000,4.000000,,,,0.000000,4.000000,4.000000,4.000000,4.000000,4.000000,14.506534,3.325634,1.843263,0.595707,1.369479,130.465485,31.121220,5.606348,1.584009,1.119881,163.650070,152.857590,187.211609,70.687836,17.353394,17.897631,4.584288,1.634542,0.706637,1.366070,11.015249,2.125004,1.835407,0.608948,1.431761
1577421781.793667,44.000000,0.000000,4490.256348,4398.974121,4404.102539,4097.948730,4318.461426,0.000000,4.000000,,,,0.000000,4.000000,4.000000,4.000000,4.000000,4.000000,,,,,,,,,,,,,,,,,,,,,,,,,
1577421781.801500,45.000000,0.000000,4485.128418,4412.820313,4365.641113,4068.205078,4302.051270,0.000000,4.000000,,,,0.000000,4.000000,4.000000,4.000000,4.000000,4.000000,,,,,,,,,,,,,,,,,,,,,,,,,
1577421781.809232,46.000000,0.000000,4501.025879,4446.153809,4356.922852,4062.564209,4299.487305,0.000000,4.000000,,,,0.000000,4.000000,4.000000,4.000000,4.000000,4.000000,,,,,,,,,,,,,,,,,,,,,,,,,
1577421781.817064,47.000000,0.000000,4498.974121,4420.000000,4346.153809,4052.307617,4292.307617,0.000000,4.000000,,,,0.000000,4.000000,4.000000,4.000000,4.000000,4.000000,,,,,,,,,,,,,,,,,,,,,,,,,
1577421781.824795,48.000000,0.000000,4492.307617,4390.769043,4335.897461,4053.846191,4292.820313,0.000000,4.000000,,,,0.000000,4.000000,4.000000,4.000000,4.000000,4.000000,,,,,,,,,,,,,,,,,,,,,,,,,
1577421781.832627,49.000000,0.000000,4510.256348,4406.666504,4336.922852,4071.794922,4307.179688,0.000000,4.000000,,,,0.000000,4.000000,4.000000,4.000000,4.000000,4.000000,,,,,,,,,,,,,,,,,,,,,,,,,
1577421781.840358,50.000000,0.000000,4539.487305,4423.077148,4350.769043,4093.333252,4337.948730,0.000000,4.000000,,,,0.000000,4.000000,4.000000,4.000000,4.000000,4.000000,,,,,,,,,,,,,,,,,,,,,,,,,
1577421781.848188,51.000000,0.000000,4548.205078,4402.563965,4355.384766,4098.974121,4357.436035,0.000000,4.000000,,,,0.000000,4.000000,4.000000,4.000000,4.000000,4.000000,,,,,,,,,,,,,,,,,,,,,,,,,
1577421781.855918,52.000000,0.000000,4546.666504,4377.948730,4341.025879,4097.948730,4356.922852,0.000000,4.000000,,,,0.000000,4.000000,4.000000,4.000000,4.000000,4.000000,,,,,,,,,,,,,,,,,,,,,,,,,
1577421781.863655,53.000000,0.000000,4551.282227,4379.487305,4322.563965,4098.461426,4350.769043,0.000000,4.000000,,,,0.000000,4.000000,4.000000,4.000000,4.000000,4.000000,,,,,,,,,,,,,,,,,,,,,,,,,
1577421781.871491,54.000000,0.000000,4549.743652,4388.717773,4307.179688,4095.897461,4348.717773,0.000000,4.000000,,,,0.000000,4.000000,4.000000,4.000000,4.000000,4.000000,,,,,,,,,,,,,,,,,,,,,,,,,
1577421781.879227,55.000000,0.000000,4555.897461,4394.358887,4297.948730,4099.487305,4360.000000,0.000000,4.000000,,,,0.000000,4.000000,4.000000,4.000000,4.000000,4.000000,,,,,,,,,,,,,,,,,,,,,,,,,
1577421781.887063,56.000000,0.000000,4565.641113,4398.461426,4285.128418,4097.948730,4370.256348,0.000000,4.000000,,,,0.000000,4.000000,4.000000,4.000000,4.000000,4.000000,,,,,,,,,,,,,,,,,,,,,,,,,
1577421781.894899,57.000000,0.000000,4570.256348,4400.000000,4261.025879,4098.461426,4377.948730,0.000000,4.000000,,,,0.000000,4.000000,4.000000,4.000000,4.000000,4.000000,,,,,,,,,,,,,,,,,,,,,,,,,
1577421781.902628,58.000000,0.000000,4580.000000,4398.461426,4239.487305,4111.282227,4385.641113,0.000000,4.000000,,,,0.000000,4.000000,4.000000,4.000000,4.000000,4.000000,,,,,,,,,,,,,,,,,,,,,,,,,
1577421781.910363,59.000000,0.000000,4573.846191,4388.717773,4215.897461,4102.051270,4373.333496,0.000000,4.000000,,,,0.000000,4.000000,4.000000,4.000000,4.000000,4.000000,13.973654,4.150599,1.873059,0.501058,0.634106,89.175468,14.756984,2.688076,1.173883,0.539474,109.350121,79.632774,63.073925,22.361790,5.359764,13.062979,3.076569,1.215501,0.673548,0.595213,10.935381,2.997221,1.756276,0.486139,0.620069
1577421781.918198,60.000000,0.000000,4547.179688,4377.436035,4190.256348,4078.974365,4348.717773,0.000000,4.000000,,,,0.000000,4.000000,4.000000,4.000000,4.000000,4.000000,,,,,,,,,,,,,,,,,,,,,,,,,
1577421781.925933,61.000000,0.000000,4550.256348,4380.512695,4192.820313,4087.692383,4352.307617,0.000000,4.000000,,,,0.000000,4.000000,4.000000,4.000000,4.000000,4.000000,,,,,,,,,,,,,,,,,,,,,,,,,
1577421781.933767,62.000000,0.000000,4602.563965,4405.641113,4233.846191,4128.717773,4398.974121,0.000000,4.000000,,,,0.000000,4.000000,4.000000,4.000000,4.000000,4.000000,,,,,,,,,,,,,,,,,,,,,,,,,
1577421781.941501,63.000000,0.000000,4656.922852,4423.077148,4280.512695,4171.794922,4451.794922,0.000000,4.000000,,,,0.000000,4.000000,4.000000,4.000000,4.000000,4.000000,,,,,,,,,,,,,,,,,,,,,,,,,
1577421781.949335,64.000000,0.000000,4680.512695,4414.871582,4301.538574,4200.000000,4480.512695,450.000000,4.000000,,,,0.000000,4.000000,4.000000,4.000000,4.000000,4.000000,,,,,,,,,,,,,,,,,,,,,,,,,
1577421781.957068,65.000000,0.000000,4684.615234,4407.179688,4303.077148,4206.666504,4492.307617,450.000000,4.000000,,,,0.000000,4.000000,4.000000,4.000000,4.000000,4.000000,,,,,,,,,,,,,,,,,,,,,,,,,
1577421781.964901,66.000000,0.000000,4691.282227,4412.820313,4310.769043,4204.615234,4498.974121,16212.000000,4.000000,,,,0.000000,4.000000,4.000000,4.000000,4.000000,4.000000,,,,,,,,,,,,,,,,,,,,,,,,,
1577421781.972634,67.000000,0.000000,4709.743652,4420.000000,4337.436035,4215.897461,4518.461426,450.000000,4.000000,,,,0.000000,4.000000,4.000000,4.000000,4.000000,4.000000,,,,,,,,,,,,,,,,,,,,,,,,,
1577421781.980466,68.000000,0.000000,4721.538574,4420.000000,4367.179688,4226.153809,4533.846191,16189.000000,4.000000,,,,0.000000,4.000000,4.000000,4.000000,4.000000,4.000000,,,,,,,,,,,,,,,,,,,,,,,,,
1577421781.988198,69.000000,0.000000,4713.846191,4419.487305,4385.641113,4217.948730,4531.282227,450.000000,4.000000,,,,0.000000,4.000000,4.000000,4.000000,4.000000,4.000000,,,,,,,,,,,,,,,,,,,,,,,,,
1577421781.996030,70.000000,0.000000,4709.230957,4431.794922,4411.282227,4212.307617,4536.922852,16148.000000,4.000000,,,,0.000000,4.000000,4.000000,4.000000,4.000000,4.000000,,,,,,,,,,,,,,,,,,,,,,,,,
1577421782.003761,71.000000,0.000000,4715.384766,4442.563965,4444.615234,4216.410156,4540.512695,450.000000,4.000000,,,,0.000000,4.000000,4.000000,4.000000,4.000000,4.000000,,,,,,,,,,,,,,,,,,,,,,,,,
1577421782.011498,72.000000,0.000000,4716.410156,4439.487305,4471.282227,4224.102539,4534.871582,450.000000,4.000000,,,,0.000000,4.000000,4.000000,4.000000,4.000000,4.000000,,,,,,,,,,,,,,,,,,,,,,,,,
1577421782.019335,73.000000,0.000000,4720.512695,4443.589844,4496.410156,4244.615234,4549.230957,16171.000000,4.000000,,,,0.000000,4.000000,4.000000,4.000000,4.000000,4.000000,,,,,,,,,,,,,,,,,,,,,,,,,
1577421782.027172,74.000000,0.000000,4718.974121,4451.794922,4511.794922,4258.974121,4563.077148,450.000000,4.000000,,,,0.000000,4.000000,4.000000,4.000000,4.000000,4.000000,,,,,,,,,,,,,,,,,,,,,,,,,
1577421782.034902,75.000000,0.000000,4707.179688,4442.051270,4507.179688,4254.358887,4556.922852,16211.000000,4.000000,,,,0.000000,4.000000,4.000000,4.000000,4.000000,4.000000,17.003504,6.296899,1.982648,0.493475,0.496062,65.776344,7.593118,1.527974,1.079627,0.460014,88.116272,40.224251,14.006794,4.391526,1.114450,12.577545,3.960597,0.917546,0.675007,0.441547,13.977942,5.038599,1.701555,0.494250,0.436216
1577421782.042637,76.000000,0.000000,4693.846191,4420.000000,4493.846191,4245.641113,4550.769043,450.000000,4.000000,,,,0.000000,4.000000,4.000000,4.000000,4.000000,4.000000,,,,,,,,,,,,,,,,,,,,,,,,,
1577421782.050473,77.000000,0.000000,4685.128418,4407.692383,4486.666504,4235.384766,4545.128418,450.000000,4.000000,,,,0.000000,4.000000,4.000000,4.000000,4.000000,4.000000,,,,,,,,,,,,,,,,,,,,,,,,,
1577421782.058209,78.000000,0.000000,4689.743652,4406.666504,4490.769043,4236.922852,4545.128418,450.000000,4.000000,,,,0.000000,4.000000,4.000000,4.000000,4.000000,4.000000,,,,,,,,,,,,,,,,,,,,,,,,,
1577421782.066045,79.000000,0.000000,4700.000000,4396.922852,4497.436035,4249.230957,4555.384766,16211.000000,4.000000,,,,0.000000,4.000000,4.000000,4.000000,4.000000,4.000000,,,,,,,,,,,,,,,,,,,,,,,,,
1577421782.073780,80.000000,0.000000,4707.179688,4389.230957,4506.153809,4251.794922,4569.230957,450.000000,4.000000,,,,0.000000,4.000000,4.000000,4.000000,4.000000,4.000000,,,,,,,,,,,,,,,,,,,,,,,,,
1577421782.081614,81.000000,0.000000,4719.487305,4401.025879,4514.358887,4243.077148,4573.333496,450.000000,4.000000,,,,0.000000,4.000000,4.000000,4.000000,4.000000,4.000000,,,,,,,,,,,,,,,,,,,,,,,,,
1577421782.089348,82.000000,0.000000,4723.077148,4397.948730,4505.128418,4231.794922,4558.461426,450.000000,4.000000,,,,0.000000,4.000000,4.000000,4.000000,4.000000,4.000000,,,,,,,,,,,,,,,,,,,,,,,,,
1577421782.097182,83.000000,0.000000,4715.384766,4369.230957,4486.153809,4224.615234,4553.333496,16211.000000,4.000000,,,,0.000000,4.000000,4.000000,4.000000,4.000000,4.000000,,,,,,,,,,,,,,,,,,,,,,,,,
1577421782.104916,84.000000,0.000000,4712.820313,4352.820313,4478.461426,4224.615234,4563.589844,450.000000,4.000000,,,,0.000000,4.000000,4.000000,4.000000,4.000000,4.000000,,,,,,,,,,,,,,,,,,,,,,,,,
1577421782.112749,85.000000,0.000000,4708.717773,4347.692383,4466.153809,4221.025879,4559.487305,450.000000,4.000000,,,,0.000000,4.000000,4.000000,4.000000,4.000000,4.000000,,,,,,,,,,,,,,,,,,,,,,,,,
1577421782.120482,86.000000,0.000000,4690.769043,4332.307617,4441.025879,4209.743652,4540.000000,450.000000,4.000000,,,,0.000000,4.000000,4.000000,4.000000,4.000000,4.000000,,,,,,,,,,,,,,,,,,,,,,,,,
1577421782.128315,87.000000,0.000000,4667.692383,4304.615234,4421.538574,4198.461426,4524.102539,16211.000000,4.000000,,,,0.000000,4.000000,4.000000,4.000000,4.000000,4.000000,,,,,,,,,,,,,,,,,,,,,,,,,
1577421782.136048,88.000000,0.000000,4664.102539,4292.820313,4424.615234,4200.512695,4524.102539,450.000000,4.000000,,,,0.000000,4.000000,4.000000,4.000000,4.000000,4.000000,,,,,,,,,,,,,,,,,,,,,,,,,
1577421782.143881,89.000000,0.000000,4676.410156,4321.538574,4445.641113,4220.000000,4530.769043,450.000000,4.000000,,,,0.000000,4.000000,4.000000,4.000000,4.000000,4.000000,,,,,,,,,,,,,,,,,,,,,,,,,
1577421782.151613,90.000000,0.000000,4673.333496,4344.102539,4452.820313,4231.794922,4525.128418,450.000000,4.000000,,,,0.000000,4.000000,4.000000,4.000000,4.000000,4.000000,,,,,,,,,,,,,,,,,,,,,,,,,
1577421782.159445,91.000000,0.000000,4652.307617,4333.846191,4440.512695,4212.820313,4508.717773,16211.000000,4.000000,,,,0.000000,4.000000,4.000000,4.000000,4.000000,4.000000,24.224508,10.068784,2.157981,0.572812,0.568479,58.832161,7.161756,1.310263,1.158068,0.595588,88.604752,27.860573,4.149637,1.492451,0.498552,13.999210,6.624943,0.799771,0.717385,0.499358,19.967518,8.609900,1.752531,0.640355,0.466435
1577421782.167176,92.000000,0.000000,4643.589844,4327.692383,4445.641113,4187.179688,4498.974121,450.000000,4.000000,,,,0.000000,4.000000,4.000000,4.000000,4.000000,4.000000,,,,,,,,,,,,,,,,,,,,,,,,,
1577421782.175008,93.000000,0.000000,4651.282227,4339.487305,4474.871582,4189.230957,4503.077148,450.000000,4.000000,,,,0.000000,4.000000,4.000000,4.000000,4.000000,4.000000,,,,,,,,,,,,,,,,,,,,,,,,,
1577421782.182739,94.000000,0.000000,4648.717773,4349.743652,4498.974121,4196.922852,4503.077148,450.000000,4.000000,,,,0.000000,4.000000,4.000000,4.000000,4.000000,4.000000,,,,,,,,,,,,,,,,,,,,,,,,,
1577421782.190475,95.000000,0.000000,4641.538574,4356.922852,4506.153809,4190.769043,4496.922852,16211.000000,4.000000,,,,0.000000,4.000000,4.000000,4.000000,4.000000,4.000000,,,,,,,,,,,,,,,,,,,,,,,,,
1577421782.198312,96.000000,0.000000,4646.153809,4362.051270,4512.820313,4188.717773,4499.487305,450.000000,4.000000,,,,0.000000,4.000000,4.000000,4.000000,4.000000,4.000000,,,,,,,,,,,,,,,,,,,,,,,,,
1577421782.206049,97.000000,0.000000,4646.153809,4363.589844,4516.922852,4192.307617,4499.487305,450.000000,4.000000,,,,0.000000,4.000000,4.000000,4.000000,4.000000,4.000000,,,,,,,,,,,,,,,,,,,,,,,,,
1577421782.213885,98.000000,0.000000,4639.487305,4367.179688,4509.230957,4200.512695,4501.025879,450.000000,4.000000,,,,0.000000,4.000000,4.000000,4.000000,4.000000,4.000000,,,,,,,,,,,,,,,,,,,,,,,,,
1577421782.221722,99.000000,0.000000,4637.436035,4360.000000,4496.410156,4219.487305,4504.102539,16211.000000,4.000000,,,,0.000000,4.000000,4.000000,4.000000,4.000000,4.000000,,,,,,,,,,,,,,,,,,,,,,,,,
1577421782.229452,100.000000,0.000000,4624.615234,4340.512695,4481.025879,4225.128418,4487.179688,450.000000,4.000000,,,,0.000000,4.000000,4.000000,4.000000,4.000000,4.000000,,,,,,,,,,,,,,,,,,,,,,,,,
1577421782.237283,101.000000,0.000000,4603.589844,4337.436035,4464.615234,4217.436035,4464.102539,450.000000,4.000000,,,,0.000000,4.000000,4.000000,4.000000,4.000000,4.000000,,,,,,,,,,,,,,,,,,,,,,,,,
1577421782.245012,102.000000,0.000000,4591.282227,4336.922852,4444.615234,4212.820313,4455.897461,450.000000,4.000000,,,,0.000000,4.000000,4.000000,4.000000,4.000000,4.000000,,,,,,,,,,,,,,,,,,,,,,,,,
1577421782.252842,103.000000,0.000000,4589.230957,4316.922852,4425.641113,4209.743652,4456.922852,16211.000000,4.000000,,,,0.000000,4.000000,4.000000,4.000000,4.000000,4.000000,,,,,,,,,,,,,,,,,,,,,,,,,
1577421782.260571,104.000000,0.000000,4595.897461,4295.384766,4425.641113,4209.743652,4463.589844,450.000000,4.000000,,,,0.000000,4.000000,4.000000,4.000000,4.000000,4.000000,,,,,,,,,,,,,,,,,,,,,,,,,
1577421782.268400,105.000000,0.000000,4590.769043,4280.512695,4429.743652,4198.974121,4457.948730,450.000000,4.000000,,,,0.000000,4.000000,4.000000,4.000000,4.000000,4.000000,,,,,,,,,,,,,,,,,,,,,,,,,
1577421782.276128,106.000000,0.000000,4583.077148,4268.205078,4432.820313,4182.563965,4450.256348,450.000000,4.000000,,,,0.000000,4.000000,4.000000,4.000000,4.000000,4.000000,,,,,,,,,,,,,,,,,,,,,,,,,
1577421782.283957,107.000000,0.000000,4582.563965,4253.846191,4443.589844,4178.461426,4445.641113,16211.000000,4.000000,,,,0.000000,4.000000,4.000000,4.000000,4.000000,4.000000,35.496593,14.957262,2.423528,0.755088,0.707156,63.758209,9.482315,1.402923,1.311935,0.827344,97.084587,29.354759,3.374158,1.613497,0.608112,16.442680,10.654050,0.938633,0.809328,0.604270,27.956240,13.482659,1.996101,0.928108,0.540891
1577421782.291685,108.000000,0.000000,4568.717773,4245.641113,4448.717773,4174.871582,4430.256348,450.000000,4.000000,,,,0.000000,4.000000,4.000000,4.000000,4.000000,4.000000,,,,,,,,,,,,,,,,,,,,,,,,,
1577421782.299419,109.000000,0.000000,4560.000000,4254.358887,4447.179688,4167.692383,4429.743652,450.000000,4.000000,,,,0.000000,4.000000,4.000000,4.000000,4.000000,4.000000,,,,,,,,,,,,,,,,,,,,,,,,,
1577421782.307252,110.000000,0.000000,4568.717773,4264.615234,4461.025879,4176.410156,4445.641113,450.000000,4.000000,,,,0.000000,4.000000,4.000000,4.000000,4.000000,4.000000,,,,,,,,,,,,,,,,,,,,,,,,,
1577421782.314985,111.000000,0.000000,4576.410156,4265.641113,4487.179688,4197.436035,4452.307617,16211.000000,4.000000,,,,0.000000,4.000000,4.000000,4.000000,4.000000,4.000000,,,,,,,,,,,,,,,,,,,,,,,,,
1577421782.322818,112.000000,0.000000,4569.230957,4268.717773,4496.410156,4201.538574,4444.102539,450.000000,4.000000,,,,0.000000,4.000000,4.000000,4.000000,4.000000,4.000000,,,,,,,,,,,,,,,,,,,,,,,,,
1577421782.330550,113.000000,0.000000,4556.410156,4279.487305,4492.820313,4194.871582,4434.358887,450.000000,4.000000,,,,0.000000,4.000000,4.000000,4.000000,4.000000,4.000000,,,,,,,,,,,,,,,,,,,,,,,,,
1577421782.338383,114.000000,0.000000,4547.692383,4287.179688,4498.461426,4197.948730,4428.205078,450.000000,4.000000,,,,0.000000,4.000000,4.000000,4.000000,4.000000,4.000000,,,,,,,,,,,,,,,,,,,,,,,,,
1577421782.346114,115.000000,0.000000,4526.666504,4284.615234,4503.589844,4195.897461,4408.717773,16211.000000,4.000000,,,,0.000000,4.000000,4.000000,4.000000,4.000000,4.000000,,,,,,,,,,,,,,,,,,,,,,,,,
1577421782.353945,116.000000,0.000000,4502.563965,4283.077148,4500.512695,4187.179688,4393.333496,450.000000,4.000000,,,,0.000000,4.000000,4.000000,4.000000,4.000000,4.000000,,,,,,,,,,,,,,,,,,,,,,,,,
1577421782.361677,117.000000,0.000000,4498.974121,4297.436035,4491.282227,4181.538574,4393.333496,450.000000,4.000000,,,,0.000000,4.000000,4.000000,4.000000,4.000000,4.000000,,,,,,,,,,,,,,,,,,,,,,,,,
1577421782.369509,118.000000,0.000000,4501.538574,4320.000000,4481.538574,4178.461426,4386.666504,450.000000,4.000000,,,,0.000000,4.000000,4.000000,4.000000,4.000000,4.000000,,,,,,,,,,,,,,,,,,,,,,,,,
1577421782.377240,119.000000,0.000000,4506.666504,4329.743652,4484.615234,4187.692383,4389.743652,16211.000000,4.000000,,,,0.000000,4.000000,4.000000,4.000000,4.000000,4.000000,,,,,,,,,,,,,,,,,,,,,,,,,
1577421782.385070,120.000000,0.000000,4522.051270,4324.615234,4497.948730,4197.436035,4408.205078,450.000000,4.000000,,,,0.000000,4.000000,4.000000,4.000000,4.000000,4.000000,,,,,,,,,,,,,,,,,,,,,,,,,
1577421782.392801,121.000000,0.000000,4534.871582,4332.307617,4503.077148,4203.077148,4425.641113,450.000000,4.000000,,,,0.000000,4.000000,4.000000,4.000000,4.000000,4.000000,,,,,,,,,,,,,,,,,,,,,,,,,
1577421782.400631,122.000000,0.000000,4522.563965,4350.256348,4491.282227,4206.666504,4426.153809,450.000000,4.000000,,,,0.000000,4.000000,4.000000,4.000000,4.000000,4.000000,,,,,,,,,,,,,,,,,,,,,,,,,
1577421782.408361,123.000000,0.000000,4493.333496,4336.922852,4475.384766,4195.384766,4404.615234,16211.000000,4.000000,,,,0.000000,4.000000,4.000000,4.000000,4.000000,4.000000,47.774551,19.782713,2.828391,1.042399,0.870877,74.178307,12.301809,1.655876,1.484926,1.104853,112.900230,34.035439,3.100560,1.764539,0.754333,19.409887,15.443595,1.351696,0.965028,0.717461,35.792385,18.726742,2.445944,1.342194,0.625526
1577421782.416096,124.000000,0.000000,4474.358887,4310.769043,4466.153809,4182.051270,4383.077148,450.000000,4.000000,,,,0.000000,4.000000,4.000000,4.000000,4.000000,4.000000,,,,,,,,,,,,,,,,,,,,,,,,,
1577421782.423931,125.000000,0.000000,4455.897461,4294.871582,4452.307617,4178.461426,4369.743652,450.000000,4.000000,,,,0.000000,4.000000,4.000000,4.000000,4.000000,4.000000,,,,,,,,,,,,,,,,,,,,,,,,,
1577421782.431766,126.000000,0.000000,4432.820313,4292.307617,4463.077148,4182.563965,4360.512695,450.000000,4.000000,,,,0.000000,4.000000,4.000000,4.000000,4.000000,4.000000,,,,,,,,,,,,,,,,,,,,,,,,,
1577421782.439495,127.000000,0.000000,4417.948730,4295.897461,4523.589844,4186.666504,4350.256348,234.000000,4.000000,,,,0.000000,4.000000,4.000000,4.000000,4.000000,4.000000,,,,,,,,,,,,,,,,,,,,,,,,,
1577421782.447228,0.000000,0.000000,4414.871582,4284.102539,4583.589844,4182.563965,4343.077148,450.000000,4.000000,,,,0.000000,4.000000,4.000000,4.000000,4.000000,4.000000,,,,,,,,,,,,,,,,,,,,,,,,,
1577421782.455062,1.000000,0.000000,4404.615234,4272.307617,4598.974121,4171.282227,4338.461426,450.000000,4.000000,,,,0.000000,4.000000,4.000000,4.000000,4.000000,4.000000,,,,,,,,,,,,,,,,,,,,,,,,,
1577421782.462796,2.000000,0.000000,4366.153809,4257.948730,4585.641113,4144.615234,4304.615234,16212.000000,4.000000,,,,0.000000,4.000000,4.000000,4.000000,4.000000,4.000000,,,,,,,,,,,,,,,,,,,,,,,,,
1577421782.470629,3.000000,0.000000,4342.563965,4235.897461,4589.230957,4127.692383,4278.461426,450.000000,4.000000,,,,0.000000,4.000000,4.000000,4.000000,4.000000,4.000000,,,,,,,,,,,,,,,,,,,,,,,,,
1577421782.478362,4.000000,0.000000,4351.282227,4233.333496,4608.717773,4137.948730,4287.692383,16189.000000,4.000000,,,,0.000000,4.000000,4.000000,4.000000,4.000000,4.000000,,,,,,,,,,,,,,,,,,,,,,,,,
1577421782.486195,5.000000,0.000000,4326.666504,4235.384766,4590.769043,4132.307617,4271.282227,450.000000,4.000000,,,,0.000000,4.000000,4.000000,4.000000,4.000000,4.000000,,,,,,,,,,,,,,,,,,,,,,,,,
1577421782.493928,6.000000,0.000000,4292.820313,4225.128418,4554.871582,4118.461426,4243.077148,16149.000000,4.000000,,,,0.000000,4.000000,4.000000,4.000000,4.000000,4.000000,,,,,,,,,,,,,,,,,,,,,,,,,
1577421782.501761,7.000000,0.000000,4283.589844,4203.077148,4527.692383,4117.436035,4231.794922,450.000000,4.000000,,,,0.000000,4.000000,4.000000,4.000000,4.000000,4.000000,,,,,,,,,,,,,,,,,,,,,,,,,
1577421782.509494,8.000000,0.000000,4251.282227,4180.512695,4483.589844,4103.589844,4208.717773,450.000000,4.000000,,,,0.000000,4.000000,4.000000,4.000000,4.000000,4.000000,,,,,,,,,,,,,,,,,,,,,,,,,
1577421782.517326,9.000000,0.000000,4224.102539,4178.974121,4446.666504,4105.641113,4193.333496,16170.000000,4.000000,,,,0.000000,4.000000,4.000000,4.000000,4.000000,4.000000,,,,,,,,,,,,,,,,,,,,,,,,,
1577421782.525058,10.000000,0.000000,4231.282227,4178.974121,4437.436035,4131.794922,4206.153809,450.000000,4.000000,,,,0.000000,4.000000,4.000000,4.000000,4.000000,4.000000,,,,,,,,,,,,,,,,,,,,,,,,,
1577421782.532889,11.000000,0.000000,4220.000000,4161.025879,4426.666504,4140.000000,4209.230957,16218.000000,4.000000,,,,0.000000,4.000000,4.000000,4.000000,4.000000,4.000000,58.417789,23.347673,3.383989,1.413886,1.008729,83.606491,14.470527,2.118233,1.630721,1.360365,129.398056,38.227741,3.190647,1.908122,0.879596,21.903811,19.916809,1.976152,1.188533,0.803669,41.302006,23.099644,3.006723,1.829488,0.691693
1577421782.540720,12.000000,0.000000,4192.307617,4147.692383,4414.871582,4131.794922,4190.769043,450.000000,4.000000,,,,0.000000,4.000000,4.000000,4.000000,4.000000,4.000000,,,,,,,,,,,,,,,,,,,,,,,,,
1577421782.548445,13.000000,0.000000,4192.820313,4157.436035,4422.563965,4133.846191,4189.743652,450.000000,4.000000,,,,0.000000,4.000000,4.000000,4.000000,4.000000,4.000000,,,,,,,,,,,,,,,,,,,,,,,,,
1577421782.556176,14.000000,0.000000,4204.615234,4171.282227,4448.205078,4140.512695,4205.128418,450.000000,4.000000,,,,0.000000,4.000000,4.000000,4.000000,4.000000,4.000000,,,,,,,,,,,,,,,,,,,,,,,,,
1577421782.564007,15.000000,0.000000,4205.128418,4170.256348,4477.948730,4139.487305,4207.179688,16218.000000,4.000000,,,,0.000000,4.000000,4.000000,4.000000,4.000000,4.000000,,,,,,,,,,,,,,,,,,,,,,,,,
1577421782.571737,16.000000,0.000000,4215.384766,4176.922852,4515.384766,4141.538574,4210.769043,0.000000,4.000000,,,,0.000000,4.000000,4.000000,4.000000,4.000000,4.000000,,,,,,,,,,,,,,,,,,,,,,,,,
1577421782.579568,17.000000,0.000000,4233.846191,4204.102539,4560.512695,4152.307617,4225.641113,0.000000,4.000000,,,,0.000000,4.000000,4.000000,4.000000,4.000000,4.000000,,,,,,,,,,,,,,,,,,,,,,,,,
1577421782.587297,18.000000,0.000000,4240.000000,4215.384766,4593.846191,4158.461426,4232.307617,0.000000,4.000000,,,,0.000000,4.000000,4.000000,4.000000,4.000000,4.000000,,,,,,,,,,,,,,,,,,,,,,,,,
1577421782.595127,19.000000,0.000000,4230.256348,4198.974121,4602.563965,4148.717773,4216.410156,0.000000,4.000000,,,,0.000000,4.000000,4.000000,4.000000,4.000000,4.000000,,,,,,,,,,,,,,,,,,,,,,,,,
1577421782.602856,20.000000,0.000000,4225.128418,4190.769043,4605.641113,4141.025879,4207.692383,0.000000,4.000000,,,,0.000000,4.000000,4.000000,4.000000,4.000000,4.000000,,,,,,,,,,,,,,,,,,,,,,,,,
1577421782.610686,21.000000,0.000000,4235.897461,4197.436035,4618.461426,4157.436035,4221.538574,0.000000,4.000000,,,,0.000000,4.000000,4.000000,4.000000,4.000000,4.000000,,,,,,,,,,,,,,,,,,,,,,,,,
1577421782.618414,22.000000,0.000000,4223.589844,4198.974121,4610.256348,4160.512695,4205.641113,0.000000,4.000000,,,,0.000000,4.000000,4.000000,4.000000,4.000000,4.000000,,,,,,,,,,,,,,,,,,,,,,,,,
1577421782.626149,23.000000,0.000000,4184.615234,4192.307617,4567.179688,4133.846191,4162.563965,0.000000,4.000000,,,,0.000000,4.000000,4.000000,4.000000,4.000000,4.000000,,,,,,,,,,,,,,,,,,,,,,,,,
1577421782.633982,24.000000,0.000000,4175.897461,4188.205078,4530.256348,4130.256348,4161.538574,0.000000,4.000000,,,,0.000000,4.000000,4.000000,4.000000,4.000000,4.000000,,,,,,,,,,,,,,,,,,,,,,,,,
1577421782.641716,25.000000,0.000000,4186.666504,4204.102539,4510.256348,4148.205078,4177.436035,0.000000,4.000000,,,,0.000000,4.000000,4.000000,4.000000,4.000000,4.000000,,,,,,,,,,,,,,,,,,,,,,,,,
1577421782.649549,26.000000,0.000000,4170.769043,4215.384766,4472.307617,4137.436035,4157.948730,0.000000,4.000000,,,,0.000000,4.000000,4.000000,4.000000,4.000000,4.000000,,,,,,,,,,,,,,,,,,,,,,,,,
1577421782.657382,27.000000,0.000000,4160.512695,4201.538574,4440.512695,4124.102539,4150.256348,0.000000,4.000000,,,,0.000000,4.000000,4.000000,4.000000,4.000000,4.000000,62.578285,24.670818,3.973938,1.814051,1.075293,85.326859,15.092565,2.742150,1.709491,1.523107,139.428375,40.070000,3.673671,2.057980,0.946764,22.807020,22.835672,2.647225,1.454631,0.836193,41.731186,25.403019,3.503496,2.304582,0.718331
1577421782.665109,28.000000,0.000000,4172.307617,4183.077148,4443.077148,4134.871582,4168.717773,0.000000,4.000000,,,,0.000000,4.000000,4.000000,4.000000,4.000000,4.000000,,,,,,,,,,,,,,,,,,,,,,,,,
1577421782.672936,29.000000,0.000000,4173.846191,4184.102539,4447.692383,4137.436035,4174.358887,0.000000,4.000000,,,,0.000000,4.000000,4.000000,4.000000,4.000000,4.000000,,,,,,,,,,,,,,,,,,,,,,,,,
1577421782.680662,30.000000,0.000000,4165.641113,4200.512695,4454.358887,4126.153809,4167.692383,0.000000,4.000000,,,,0.000000,4.000000,4.000000,4.000000,4.000000,4.000000,,,,,,,,,,,,,,,,,,,,,,,,,
1577421782.688395,31.000000,0.000000,4159.487305,4202.051270,4480.512695,4113.333496,4160.512695,0.000000,4.000000,,,,0.000000,4.000000,4.000000,4.000000,4.000000,4.000000,,,,,,,,,,,,,,,,,,,,,,,,,
1577421782.696227,32.000000,0.000000,4154.358887,4182.051270,4506.666504,4104.102539,4153.333496,0.000000,4.000000,,,,0.000000,4.000000,4.000000,4.000000,4.000000,4.000000,,,,,,,,,,,,,,,,,,,,,,,,,
1577421782.703959,33.000000,0.000000,4143.589844,4170.256348,4515.384766,4098.461426,4142.051270,0.000000,4.000000,,,,0.000000,4.000000,4.000000,4.000000,4.000000,4.000000,,,,,,,,,,,,,,,,,,,,,,,,,
1577421782.711791,34.000000,0.000000,4123.077148,4168.205078,4523.077148,4086.666748,4126.666504,0.000000,4.000000,,,,0.000000,4.000000,4.000000,4.000000,4.000000,4.000000,,,,,,,,,,,,,,,,,,,,,,,,,
1577421782.719522,35.000000,0.000000,4111.282227,4161.538574,4554.871582,4076.923096,4114.358887,0.000000,4.000000,,,,0.000000,4.000000,4.000000,4.000000,4.000000,4.000000,,,,,,,,,,,,,,,,,,,,,,,,,
1577421782.727353,36.000000,0.000000,4114.871582,4163.589844,4603.077148,4075.384521,4113.333496,0.000000,4.000000,,,,0.000000,4.000000,4.000000,4.000000,4.000000,4.000000,,,,,,,,,,,,,,,,,,,,,,,,,
1577421782.735084,37.000000,0.000000,4125.128418,4189.743652,4653.333496,4076.923096,4123.589844,0.000000,4.000000,,,,0.000000,4.000000,4.000000,4.000000,4.000000,4.000000,,,,,,,,,,,,,,,,,,,,,,,,,
1577421782.742914,38.000000,0.000000,4131.794922,4213.846191,4696.922852,4077.435791,4132.307617,0.000000,4.000000,,,,0.000000,4.000000,4.000000,4.000000,4.000000,4.000000,,,,,,,,,,,,,,,,,,,,,,,,,
1577421782.750644,39.000000,0.000000,4127.692383,4217.436035,4723.077148,4075.384521,4137.436035,0.000000,4.000000,,,,0.000000,4.000000,4.000000,4.000000,4.000000,4.000000,,,,,,,,,,,,,,,,,,,,,,,,,
1577421782.758380,40.000000,0.000000,4147.692383,4233.333496,4742.051270,4085.128174,4164.102539,0.000000,4.000000,,,,0.000000,4.000000,4.000000,4.000000,4.000000,4.000000,,,,,,,,,,,,,,,,,,,,,,,,,
1577421782.766215,41.000000,0.000000,4185.128418,4264.102539,4751.794922,4103.077148,4198.974121,0.000000,4.000000,,,,0.000000,4.000000,4.000000,4.000000,4.000000,4.000000,,,,,,,,,,,,,,,,,,,,,,,,,
1577421782.774051,42.000000,0.000000,4194.871582,4271.282227,4729.743652,4106.666504,4201.025879,0.000000,4.000000,,,,0.000000,4.000000,4.000000,4.000000,4.000000,4.000000,,,,,,,,,,,,,,,,,,,,,,,,,
1577421782.781780,43.000000,0.000000,4178.974121,4253.333496,4667.179688,4084.615479,4171.282227,0.000000,4.000000,,,,0.000000,4.000000,4.000000,4.000000,4.000000,4.000000,59.530334,23.450636,4.434007,2.148959,1.052292,81.358948,13.905238,3.372944,1.692744,1.547480,147.002930,39.171616,4.382977,2.228529,0.940082,21.558403,23.301891,3.180430,1.703516,0.807377,37.423496,24.983156,3.787622,2.657516,0.699101
1577421782.789609,44.000000,0.000000,4163.077148,4244.102539,4600.512695,4062.564209,4152.307617,0.000000,4.000000,,,,0.000000,4.000000,4.000000,4.000000,4.000000,4.000000,,,,,,,,,,,,,,,,,,,,,,,,,
1577421782.797337,45.000000,0.000000,4177.436035,4265.641113,4578.974121,4079.487061,4174.871582,0.000000,4.000000,,,,0.000000,4.000000,4.000000,4.000000,4.000000,4.000000,,,,,,,,,,,,,,,,,,,,,,,,,
1577421782.805166,46.000000,0.000000,4220.512695,4289.743652,4581.025879,4104.615234,4200.512695,0.000000,4.000000,,,,0.000000,4.000000,4.000000,4.000000,4.000000,4.000000,,,,,,,,,,,,,,,,,,,,,,,,,
1577421782.812893,47.000000,0.000000,4258.461426,4283.077148,4565.128418,4106.153809,4207.692383,0.000000,4.000000,,,,0.000000,4.000000,4.000000,4.000000,4.000000,4.000000,,,,,,,,,,,,,,,,,,,,,,,,,
1577421782.820721,48.000000,0.000000,4268.205078,4260.000000,4548.205078,4101.538574,4208.717773,0.000000,4.000000,,,,0.000000,4.000000,4.000000,4.000000,4.000000,4.000000,,,,,,,,,,,,,,,,,,,,,,,,,
1577421782.828449,49.000000,0.000000,4266.666504,4252.307617,4547.179688,4101.025879,4210.256348,0.000000,4.000000,,,,0.000000,4.000000,4.000000,4.000000,4.000000,4.000000,,,,,,,,,,,,,,,,,,,,,,,,,
1577421782.836276,50.000000,0.000000,4281.538574,4258.461426,4553.846191,4106.666504,4216.410156,0.000000,4.000000,,,,0.000000,4.000000,4.000000,4.000000,4.000000,4.000000,,,,,,,,,,,,,,,,,,,,,,,,,
1577421782.844004,51.000000,0.000000,4303.077148,4250.769043,4563.077148,4111.794922,4217.948730,0.000000,4.000000,,,,0.000000,4.000000,4.000000,4.000000,4.000000,4.000000,,,,,,,,,,,,,,,,,,,,,,,,,
1577421782.851831,52.000000,0.000000,4304.615234,4221.025879,4574.358887,4105.641113,4211.794922,0.000000,4.000000,,,,0.000000,4.000000,4.000000,4.000000,4.000000,4.000000,,,,,,,,,,,,,,,,,,,,,,,,,
1577421782.859558,53.000000,0.000000,4294.358887,4198.974121,4590.256348,4100.000000,4218.974121,0.000000,4.000000,,,,0.000000,4.000000,4.000000,4.000000,4.000000,4.000000,,,,,,,,,,,,,,,,,,,,,,,,,
1577421782.867290,54.000000,0.000000,4293.333496,4203.589844,4604.615234,4103.589844,4237.948730,0.000000,4.000000,,,,0.000000,4.000000,4.000000,4.000000,4.000000,4.000000,,,,,,,,,,,,,,,,,,,,,,,,,
1577421782.875122,55.000000,0.000000,4291.794922,4210.256348,4606.666504,4103.077148,4245.641113,0.000000,4.000000,,,,0.000000,4.000000,4.000000,4.000000,4.000000,4.000000,,,,,,,,,,,,,,,,,,,,,,,,,
1577421782.882954,56.000000,0.000000,4278.974121,4195.897461,4602.563965,4097.948730,4237.436035,0.000000,4.000000,,,,0.000000,4.000000,4.000000,4.000000,4.000000,4.000000,,,,,,,,,,,,,,,,,,,,,,,,,
1577421782.890680,57.000000,0.000000,4262.563965,4196.922852,4596.922852,4090.769287,4229.743652,0.000000,4.000000,,,,0.000000,4.000000,4.000000,4.000000,4.000000,4.000000,,,,,,,,,,,,,,,,,,,,,,,,,
1577421782.898411,58.000000,0.000000,4257.948730,4225.128418,4609.743652,4088.205078,4233.846191,0.000000,4.000000,,,,0.000000,4.000000,4.000000,4.000000,4.000000,4.000000,,,,,,,,,,,,,,,,,,,,,,,,,
1577421782.906242,59.000000,0.000000,4254.871582,4227.179688,4641.025879,4101.538574,4237.948730,0.000000,4.000000,,,,0.000000,4.000000,4.000000,4.000000,4.000000,4.000000,51.054169,20.333422,4.641231,2.341581,0.957944,74.441940,11.297826,3.817455,1.591987,1.434412,145.905579,36.569626,5.110185,2.434290,0.871979,18.623400,21.191849,3.443702,1.874557,0.729882,30.311258,22.121946,3.811268,2.812195,0.647753
1577421782.913972,60.000000,0.000000,4219.487305,4207.179688,4644.615234,4110.769043,4226.666504,0.000000,4.000000,,,,0.000000,4.000000,4.000000,4.000000,4.000000,4.000000,,,,,,,,,,,,,,,,,,,,,,,,,
1577421782.921803,61.000000,0.000000,4171.282227,4207.692383,4622.563965,4099.487305,4195.384766,0.000000,4.000000,,,,0.000000,4.000000,4.000000,4.000000,4.000000,4.000000,,,,,,,,,,,,,,,,,,,,,,,,,
1577421782.929533,62.000000,0.000000,4141.538574,4216.922852,4612.307617,4087.692383,4166.153809,0.000000,4.000000,,,,0.000000,4.000000,4.000000,4.000000,4.000000,4.000000,,,,,,,,,,,,,,,,,,,,,,,,,
1577421782.937362,63.000000,0.000000,4112.307617,4216.922852,4605.641113,4087.692383,4148.717773,0.000000,4.000000,,,,0.000000,4.000000,4.000000,4.000000,4.000000,4.000000,,,,,,,,,,,,,,,,,,,,,,,,,
1577421782.945092,64.000000,0.000000,4074.358887,4216.922852,4587.692383,4088.718018,4127.179688,450.000000,4.000000,,,,0.000000,4.000000,4.000000,4.000000,4.000000,4.000000,,,,,,,,,,,,,,,,,,,,,,,,,
1577421782.952921,65.000000,0.000000,4062.051270,4228.205078,4588.717773,4075.384521,4116.922852,450.000000,4.000000,,,,0.000000,4.000000,4.000000,4.000000,4.000000,4.000000,,,,,,,,,,,,,,,,,,,,,,,,,
1577421782.960650,66.000000,0.000000,4077.435791,4255.897461,4607.692383,4085.641113,4133.846191,16220.000000,4.000000,,,,0.000000,4.000000,4.000000,4.000000,4.000000,4.000000,,,,,,,,,,,,,,,,,,,,,,,,,
1577421782.968479,67.000000,0.000000,4090.769287,4270.256348,4610.256348,4109.230957,4151.794922,450.000000,4.000000,,,,0.000000,4.000000,4.000000,4.000000,4.000000,4.000000,,,,,,,,,,,,,,,,,,,,,,,,,
1577421782.976208,68.000000,0.000000,4083.589844,4251.282227,4596.922852,4090.769287,4141.025879,16191.000000,4.000000,,,,0.000000,4.000000,4.000000,4.000000,4.000000,4.000000,,,,,,,,,,,,,,,,,,,,,,,,,
1577421782.984036,69.000000,0.000000,4060.000000,4242.563965,4587.179688,4081.538574,4114.871582,450.000000,4.000000,,,,0.000000,4.000000,4.000000,4.000000,4.000000,4.000000,,,,,,,,,,,,,,,,,,,,,,,,,
1577421782.991764,70.000000,0.000000,4053.846191,4253.333496,4580.512695,4108.205078,4111.282227,16137.000000,4.000000,,,,0.000000,4.000000,4.000000,4.000000,4.000000,4.000000,,,,,,,,,,,,,,,,,,,,,,,,,
1577421782.999498,71.000000,0.000000,4084.615479,4251.282227,4574.358887,4114.871582,4129.743652,450.000000,4.000000,,,,0.000000,4.000000,4.000000,4.000000,4.000000,4.000000,,,,,,,,,,,,,,,,,,,,,,,,,
1577421783.007331,72.000000,0.000000,4103.589844,4243.077148,4583.589844,4111.794922,4139.487305,450.000000,4.000000,,,,0.000000,4.000000,4.000000,4.000000,4.000000,4.000000,,,,,,,,,,,,,,,,,,,,,,,,,
1577421783.015064,73.000000,0.000000,4096.410156,4240.512695,4602.051270,4114.358887,4132.820313,16170.000000,4.000000,,,,0.000000,4.000000,4.000000,4.000000,4.000000,4.000000,,,,,,,,,,,,,,,,,,,,,,,,,
1577421783.022896,74.000000,0.000000,4109.743652,4228.205078,4614.871582,4089.743652,4134.358887,450.000000,4.000000,,,,0.000000,4.000000,4.000000,4.000000,4.000000,4.000000,,,,,,,,,,,,,,,,,,,,,,,,,
1577421783.030628,75.000000,0.000000,4135.384766,4206.153809,4618.461426,4044.615479,4148.205078,16203.000000,4.000000,,,,0.000000,4.000000,4.000000,4.000000,4.000000,4.000000,41.644447,16.385345,4.566820,2.362497,0.837110,68.206612,8.183872,3.942433,1.448097,1.235533,152.547089,33.863392,5.700404,2.660010,0.776698,15.144911,17.191269,3.375188,1.923398,0.631675,23.469328,17.834404,3.634757,2.755358,0.593756
1577421783.038460,76.000000,0.000000,4141.538574,4194.871582,4622.563965,4030.769287,4144.102539,450.000000,4.000000,,,,0.000000,4.000000,4.000000,4.000000,4.000000,4.000000,,,,,,,,,,,,,,,,,,,,,,,,,
1577421783.046192,77.000000,0.000000,4143.589844,4187.179688,4635.384766,4065.128174,4123.077148,450.000000,4.000000,,,,0.000000,4.000000,4.000000,4.000000,4.000000,4.000000,,,,,,,,,,,,,,,,,,,,,,,,,
1577421783.054024,78.000000,0.000000,4164.102539,4173.846191,4651.794922,4106.153809,4129.743652,450.000000,4.000000,,,,0.000000,4.000000,4.000000,4.000000,4.000000,4.000000,,,,,,,,,,,,,,,,,,,,,,,,,
1577421783.061755,79.000000,0.000000,4179.487305,4161.025879,4655.384766,4082.564209,4148.717773,16203.000000,4.000000,,,,0.000000,4.000000,4.000000,4.000000,4.000000,4.000000,,,,,,,,,,,,,,,,,,,,,,,,,
1577421783.069586,80.000000,0.000000,4197.436035,4159.487305,4665.641113,4035.384521,4155.897461,450.000000,4.000000,,,,0.000000,4.000000,4.000000,4.000000,4.000000,4.000000,,,,,,,,,,,,,,,,,,,,,,,,,
1577421783.077317,81.000000,0.000000,4225.128418,4166.153809,4691.794922,4059.487061,4174.871582,450.000000,4.000000,,,,0.000000,4.000000,4.000000,4.000000,4.000000,4.000000,,,,,,,,,,,,,,,,,,,,,,,,,
1577421783.085148,82.000000,0.000000,4216.922852,4148.717773,4684.102539,4090.256348,4177.948730,450.000000,4.000000,,,,0.000000,4.000000,4.000000,4.000000,4.000000,4.000000,,,,,,,,,,,,,,,,,,,,,,,,,
1577421783.092878,83.000000,0.000000,4191.794922,4124.615234,4656.410156,4059.487061,4158.974121,16203.000000,4.000000,,,,0.000000,4.000000,4.000000,4.000000,4.000000,4.000000,,,,,,,,,,,,,,,,,,,,,,,,,
1577421783.100709,84.000000,0.000000,4185.641113,4122.563965,4655.384766,4029.230713,4149.230957,450.000000,4.000000,,,,0.000000,4.000000,4.000000,4.000000,4.000000,4.000000,,,,,,,,,,,,,,,,,,,,,,,,,
1577421783.108439,85.000000,0.000000,4168.717773,4116.410156,4646.666504,4024.102539,4131.282227,450.000000,4.000000,,,,0.000000,4.000000,4.000000,4.000000,4.000000,4.000000,,,,,,,,,,,,,,,,,,,,,,,,,
1577421783.116269,86.000000,0.000000,4148.717773,4107.179688,4624.102539,4038.461426,4111.282227,450.000000,4.000000,,,,0.000000,4.000000,4.000000,4.000000,4.000000,4.000000,,,,,,,,,,,,,,,,,,,,,,,,,
1577421783.123998,87.000000,0.000000,4142.051270,4106.666504,4606.153809,4035.384521,4109.230957,16203.000000,4.000000,,,,0.000000,4.000000,4.000000,4.000000,4.000000,4.000000,,,,,,,,,,,,,,,,,,,,,,,,,
1577421783.131828,88.000000,0.000000,4124.615234,4101.538574,4567.179688,4003.589844,4092.820557,450.000000,4.000000,,,,0.000000,4.000000,4.000000,4.000000,4.000000,4.000000,,,,,,,,,,,,,,,,,,,,,,,,,
1577421783.139657,89.000000,0.000000,4111.282227,4107.179688,4533.846191,3992.820557,4067.692383,450.000000,4.000000,,,,0.000000,4.000000,4.000000,4.000000,4.000000,4.000000,,,,,,,,,,,,,,,,,,,,,,,,,
1577421783.147381,90.000000,0.000000,4126.153809,4125.641113,4537.436035,4012.307617,4075.384521,450.000000,4.000000,,,,0.000000,4.000000,4.000000,4.000000,4.000000,4.000000,,,,,,,,,,,,,,,,,,,,,,,,,
1577421783.155109,91.000000,0.000000,4140.000000,4125.128418,4533.333496,4024.615479,4098.461426,16203.000000,4.000000,,,,0.000000,4.000000,4.000000,4.000000,4.000000,4.000000,37.486858,12.756407,4.326830,2.237917,0.741157,63.416451,5.517419,3.757608,1.310074,1.033019,163.888367,32.621773,6.162498,2.867252,0.694974,12.432445,12.498600,3.027822,1.845372,0.546969,19.650871,13.511955,3.408852,2.534688,0.568634
1577421783.162937,92.000000,0.000000,4142.051270,4127.692383,4510.769043,4012.820557,4106.666504,450.000000,4.000000,,,,0.000000,4.000000,4.000000,4.000000,4.000000,4.000000,,,,,,,,,,,,,,,,,,,,,,,,,
1577421783.170665,93.000000,0.000000,4151.794922,4152.820313,4502.051270,4011.794922,4114.871582,450.000000,4.000000,,,,0.000000,4.000000,4.000000,4.000000,4.000000,4.000000,,,,,,,,,,,,,,,,,,,,,,,,,
1577421783.178493,94.000000,0.000000,4152.820313,4149.743652,4492.820313,4010.256348,4114.871582,450.000000,4.000000,,,,0.000000,4.000000,4.000000,4.000000,4.000000,4.000000,,,,,,,,,,,,,,,,,,,,,,,,,
1577421783.186221,95.000000,0.000000,4153.846191,4137.948730,4478.461426,4001.538574,4118.974121,16203.000000,4.000000,,,,0.000000,4.000000,4.000000,4.000000,4.000000,4.000000,,,,,,,,,,,,,,,,,,,,,,,,,
1577421783.193954,96.000000,0.000000,4185.641113,4170.769043,4490.769043,4021.538574,4158.461426,450.000000,4.000000,,,,0.000000,4.000000,4.000000,4.000000,4.000000,4.000000,,,,,,,,,,,,,,,,,,,,,,,,,
1577421783.201787,97.000000,0.000000,4198.974121,4180.512695,4498.974121,4033.846191,4168.717773,450.000000,4.000000,,,,0.000000,4.000000,4.000000,4.000000,4.000000,4.000000,,,,,,,,,,,,,,,,,,,,,,,,,
1577421783.209620,98.000000,0.000000,4170.769043,4149.230957,4479.487305,4018.974365,4131.282227,450.000000,4.000000,,,,0.000000,4.000000,4.000000,4.000000,4.000000,4.000000,,,,,,,,,,,,,,,,,,,,,,,,,
1577421783.217347,99.000000,0.000000,4183.589844,4168.717773,4494.871582,4041.025635,4143.077148,16203.000000,4.000000,,,,0.000000,4.000000,4.000000,4.000000,4.000000,4.000000,,,,,,,,,,,,,,,,,,,,,,,,,
1577421783.225174,100.000000,0.000000,4209.230957,4197.436035,4517.436035,4066.666748,4168.205078,450.000000,4.000000,,,,0.000000,4.000000,4.000000,4.000000,4.000000,4.000000,,,,,,,,,,,,,,,,,,,,,,,,,
1577421783.232900,101.000000,0.000000,4169.230957,4156.410156,4488.205078,4032.820557,4124.615234,450.000000,4.000000,,,,0.000000,4.000000,4.000000,4.000000,4.000000,4.000000,,,,,,,,,,,,,,,,,,,,,,,,,
1577421783.240727,102.000000,0.000000,4137.436035,4123.589844,4471.282227,4008.718018,4088.205078,450.000000,4.000000,,,,0.000000,4.000000,4.000000,4.000000,4.000000,4.000000,,,,,,,,,,,,,,,,,,,,,,,,,
1577421783.248453,103.000000,0.000000,4148.205078,4141.538574,4490.769043,4034.358887,4105.641113,16203.000000,4.000000,,,,0.000000,4.000000,4.000000,4.000000,4.000000,4.000000,,,,,,,,,,,,,,,,,,,,,,,,,
1577421783.256279,104.000000,0.000000,4157.436035,4152.820313,4490.256348,4054.358887,4121.025879,450.000000,4.000000,,,,0.000000,4.000000,4.000000,4.000000,4.000000,4.000000,,,,,,,,,,,,,,,,,,,,,,,,,
1577421783.264004,105.000000,0.000000,4161.025879,4144.615234,4470.769043,4050.769287,4122.563965,450.000000,4.000000,,,,0.000000,4.000000,4.000000,4.000000,4.000000,4.000000,,,,,,,,,,,,,,,,,,,,,,,,,
1577421783.271830,106.000000,0.000000,4157.436035,4146.153809,4466.153809,4046.666748,4124.615234,450.000000,4.000000,,,,0.000000,4.000000,4.000000,4.000000,4.000000,4.000000,,,,,,,,,,,,,,,,,,,,,,,,,
1577421783.279555,107.000000,0.000000,4146.153809,4147.692383,4473.333496,4052.307617,4117.436035,16203.000000,4.000000,,,,0.000000,4.000000,4.000000,4.000000,4.000000,4.000000,43.275146,10.240584,4.147185,2.048327,0.708326,60.148518,3.914199,3.426385,1.216177,0.900807,187.741028,33.696121,6.599809,3.021473,0.654624,11.195199,8.289839,2.577620,1.696507,0.511002,20.267639,10.310176,3.315143,2.253193,0.592393
1577421783.287285,108.000000,0.000000,4155.897461,4145.641113,4482.051270,4065.641113,4125.641113,450.000000,4.000000,,,,0.000000,4.000000,4.000000,4.000000,4.000000,4.000000,,,,,,,,,,,,,,,,,,,,,,,,,
1577421783.295115,109.000000,0.000000,4176.410156,4169.230957,4490.769043,4083.589844,4148.205078,450.000000,4.000000,,,,0.000000,4.000000,4.000000,4.000000,4.000000,4.000000,,,,,,,,,,,,,,,,,,,,,,,,,
1577421783.302844,110.000000,0.000000,4167.692383,4195.897461,4486.666504,4085.128174,4144.102539,450.000000,4.000000,,,,0.000000,4.000000,4.000000,4.000000,4.000000,4.000000,,,,,,,,,,,,,,,,,,,,,,,,,
1577421783.310674,111.000000,0.000000,4161.025879,4195.897461,4488.205078,4076.410156,4141.025879,16203.000000,4.000000,,,,0.000000,4.000000,4.000000,4.000000,4.000000,4.000000,,,,,,,,,,,,,,,,,,,,,,,,,
1577421783.318403,112.000000,0.000000,4178.974121,4204.615234,4509.230957,4085.641113,4158.461426,450.000000,4.000000,,,,0.000000,4.000000,4.000000,4.000000,4.000000,4.000000,,,,,,,,,,,,,,,,,,,,,,,,,
1577421783.326231,113.000000,0.000000,4185.128418,4226.153809,4528.205078,4098.461426,4160.512695,450.000000,4.000000,,,,0.000000,4.000000,4.000000,4.000000,4.000000,4.000000,,,,,,,,,,,,,,,,,,,,,,,,,
1577421783.333959,114.000000,0.000000,4174.871582,4231.282227,4531.282227,4101.538574,4146.666504,450.000000,4.000000,,,,0.000000,4.000000,4.000000,4.000000,4.000000,4.000000,,,,,,,,,,,,,,,,,,,,,,,,,
1577421783.341787,115.000000,0.000000,4160.512695,4221.025879,4527.179688,4096.922852,4135.897461,16203.000000,4.000000,,,,0.000000,4.000000,4.000000,4.000000,4.000000,4.000000,,,,,,,,,,,,,,,,,,,,,,,,,
1577421783.349515,116.000000,0.000000,4135.384766,4212.820313,4517.948730,4092.307617,4117.436035,450.000000,4.000000,,,,0.000000,4.000000,4.000000,4.000000,4.000000,4.000000,,,,,,,,,,,,,,,,,,,,,,,,,
1577421783.357343,117.000000,0.000000,4121.025879,4220.000000,4508.717773,4094.358887,4094.871826,450.000000,4.000000,,,,0.000000,4.000000,4.000000,4.000000,4.000000,4.000000,,,,,,,,,,,,,,,,,,,,,,,,,
1577421783.365070,118.000000,0.000000,4123.589844,4225.128418,4498.974121,4088.205078,4091.281982,450.000000,4.000000,,,,0.000000,4.000000,4.000000,4.000000,4.000000,4.000000,,,,,,,,,,,,,,,,,,,,,,,,,
1577421783.372897,119.000000,0.000000,4139.487305,4235.897461,4500.000000,4105.128418,4116.922852,16203.000000,4.000000,,,,0.000000,4.000000,4.000000,4.000000,4.000000,4.000000,,,,,,,,,,,,,,,,,,,,,,,,,
1577421783.380624,120.000000,0.000000,4138.974121,4241.025879,4481.025879,4125.128418,4114.358887,450.000000,4.000000,,,,0.000000,4.000000,4.000000,4.000000,4.000000,4.000000,,,,,,,,,,,,,,,,,,,,,,,,,
1577421783.388450,121.000000,0.000000,4097.948730,4214.358887,4428.717773,4095.384521,4066.666748,450.000000,4.000000,,,,0.000000,4.000000,4.000000,4.000000,4.000000,4.000000,,,,,,,,,,,,,,,,,,,,,,,,,
1577421783.396178,122.000000,0.000000,4076.923096,4198.461426,4408.717773,4067.179443,4058.461426,450.000000,4.000000,,,,0.000000,4.000000,4.000000,4.000000,4.000000,4.000000,,,,,,,,,,,,,,,,,,,,,,,,,
1577421783.404005,123.000000,0.000000,4097.436035,4218.461426,4421.025879,4082.051270,4091.281982,16203.000000,4.000000,,,,0.000000,4.000000,4.000000,4.000000,4.000000,4.000000,60.398251,8.868332,4.205221,1.880843,0.750701,57.670433,3.366774,3.124543,1.161805,0.869822,213.900314,36.004322,7.085232,3.088095,0.661170,11.497417,5.270421,2.230638,1.568800,0.564995,24.768921,8.667811,3.447388,2.017573,0.668201
1577421783.411732,124.000000,0.000000,4112.307617,4229.230957,4418.974121,4095.384521,4109.230957,450.000000,4.000000,,,,0.000000,4.000000,4.000000,4.000000,4.000000,4.000000,,,,,,,,,,,,,,,,,,,,,,,,,
1577421783.419558,125.000000,0.000000,4102.563965,4218.461426,4402.051270,4092.307617,4101.538574,450.000000,4.000000,,,,0.000000,4.000000,4.000000,4.000000,4.000000,4.000000,,,,,,,,,,,,,,,,,,,,,,,,,
1577421783.427285,126.000000,0.000000,4093.333252,4220.000000,4381.025879,4103.589844,4097.948730,450.000000,4.000000,,,,0.000000,4.000000,4.000000,4.000000,4.000000,4.000000,,,,,,,,,,,,,,,,,,,,,,,,,
1577421783.435016,127.000000,0.000000,4099.487305,4231.794922,4366.666504,4122.051270,4112.307617,234.000000,4.000000,,,,0.000000,4.000000,4.000000,4.000000,4.000000,4.000000,,,,,,,,,,,,,,,,,,,,,,,,,
1577421783.442847,0.000000,0.000000,4100.000000,4228.717773,4371.282227,4131.794922,4121.025879,450.000000,4.000000,,,,0.000000,4.000000,4.000000,4.000000,4.000000,4.000000,,,,,,,,,,,,,,,,,,,,,,,,,
1577421783.450578,1.000000,0.000000,4088.205078,4217.948730,4375.897461,4125.128418,4111.794922,450.000000,4.000000,,,,0.000000,4.000000,4.000000,4.000000,4.000000,4.000000,,,,,,,,,,,,,,,,,,,,,,,,,
1577421783.458408,2.000000,0.000000,4082.051270,4225.128418,4369.743652,4105.128418,4095.384521,16224.000000,4.000000,,,,0.000000,4.000000,4.000000,4.000000,4.000000,4.000000,,,,,,,,,,,,,,,,,,,,,,,,,
1577421783.466138,3.000000,0.000000,4102.563965,4252.820313,4382.563965,4117.436035,4109.743652,450.000000,4.000000,,,,0.000000,4.000000,4.000000,4.000000,4.000000,4.000000,,,,,,,,,,,,,,,,,,,,,,,,,
1577421783.473968,4.000000,0.000000,4124.102539,4256.922852,4403.077148,4143.589844,4138.974121,16201.000000,4.000000,,,,0.000000,4.000000,4.000000,4.000000,4.000000,4.000000,,,,,,,,,,,,,,,,,,,,,,,,,
1577421783.481698,5.000000,0.000000,4117.436035,4243.589844,4400.000000,4130.769043,4135.384766,450.000000,4.000000,,,,0.000000,4.000000,4.000000,4.000000,4.000000,4.000000,,,,,,,,,,,,,,,,,,,,,,,,,
1577421783.489527,6.000000,0.000000,4097.948730,4245.128418,4383.077148,4101.025879,4111.282227,16148.000000,4.000000,,,,0.000000,4.000000,4.000000,4.000000,4.000000,4.000000,,,,,,,,,,,,,,,,,,,,,,,,,
1577421783.497257,7.000000,0.000000,4095.384521,4238.461426,4373.846191,4094.871826,4108.205078,450.000000,4.000000,,,,0.000000,4.000000,4.000000,4.000000,4.000000,4.000000,,,,,,,,,,,,,,,,,,,,,,,,,
1577421783.505086,8.000000,0.000000,4117.436035,4229.230957,4370.256348,4104.615234,4124.102539,450.000000,4.000000,,,,0.000000,4.000000,4.000000,4.000000,4.000000,4.000000,,,,,,,,,,,,,,,,,,,,,,,,,
1577421783.512814,9.000000,0.000000,4132.307617,4241.538574,4355.384766,4111.282227,4130.769043,16174.000000,4.000000,,,,0.000000,4.000000,4.000000,4.000000,4.000000,4.000000,,,,,,,,,,,,,,,,,,,,,,,,,
1577421783.520643,10.000000,0.000000,4120.512695,4235.897461,4327.179688,4102.051270,4120.000000,450.000000,4.000000,,,,0.000000,4.000000,4.000000,4.000000,4.000000,4.000000,,,,,,,,,,,,,,,,,,,,,,,,,
1577421783.528370,11.000000,0.000000,4115.897461,4219.487305,4320.512695,4095.384521,4120.000000,16221.000000,4.000000,,,,0.000000,4.000000,4.000000,4.000000,4.000000,4.000000,85.517365,8.280898,4.488684,1.788731,0.856228,55.324963,3.373960,2.956022,1.120886,0.927030,235.209961,37.835152,7.526134,3.046911,0.702122,12.017700,3.545927,2.117342,1.541599,0.737654,31.123995,8.430006,3.720402,1.887924,0.787813
1577421783.536198,12.000000,0.000000,4156.922852,4246.153809,4352.307617,4120.512695,4157.436035,450.000000,4.000000,,,,0.000000,4.000000,4.000000,4.000000,4.000000,4.000000,,,,,,,,,,,,,,,,,,,,,,,,,
1577421783.543926,13.000000,0.000000,4190.769043,4268.205078,4368.717773,4136.922852,4187.692383,450.000000,4.000000,,,,0.000000,4.000000,4.000000,4.000000,4.000000,4.000000,,,,,,,,,,,,,,,,,,,,,,,,,
1577421783.551753,14.000000,0.000000,4156.922852,4231.794922,4338.974121,4118.974121,4162.051270,450.000000,4.000000,,,,0.000000,4.000000,4.000000,4.000000,4.000000,4.000000,,,,,,,,,,,,,,,,,,,,,,,,,
1577421783.559480,15.000000,0.000000,4111.794922,4203.589844,4312.820313,4103.589844,4122.051270,16221.000000,4.000000,,,,0.000000,4.000000,4.000000,4.000000,4.000000,4.000000,,,,,,,,,,,,,,,,,,,,,,,,,
1577421783.567307,16.000000,0.000000,4113.846191,4229.230957,4311.282227,4103.589844,4118.974121,0.000000,4.000000,,,,0.000000,4.000000,4.000000,4.000000,4.000000,4.000000,,,,,,,,,,,,,,,,,,,,,,,,,
1577421783.575033,17.000000,0.000000,4126.666504,4249.230957,4303.077148,4113.333496,4132.307617,0.000000,4.000000,,,,0.000000,4.000000,4.000000,4.000000,4.000000,4.000000,,,,,,,,,,,,,,,,,,,,,,,,,
1577421783.582765,18.000000,0.000000,4104.615234,4231.282227,4282.563965,4113.846191,4115.897461,0.000000,4.000000,,,,0.000000,4.000000,4.000000,4.000000,4.000000,4.000000,,,,,,,,,,,,,,,,,,,,,,,,,
1577421783.590596,19.000000,0.000000,4077.435791,4220.512695,4270.256348,4107.692383,4100.000000,0.000000,4.000000,,,,0.000000,4.000000,4.000000,4.000000,4.000000,4.000000,,,,,,,,,,,,,,,,,,,,,,,,,
1577421783.598328,20.000000,0.000000,4086.666748,4235.384766,4272.307617,4117.948730,4114.358887,0.000000,4.000000,,,,0.000000,4.000000,4.000000,4.000000,4.000000,4.000000,,,,,,,,,,,,,,,,,,,,,,,,,
1577421783.606159,21.000000,0.000000,4109.743652,4243.077148,4267.179688,4128.717773,4132.820313,0.000000,4.000000,,,,0.000000,4.000000,4.000000,4.000000,4.000000,4.000000,,,,,,,,,,,,,,,,,,,,,,,,,
1577421783.613890,22.000000,0.000000,4111.282227,4238.461426,4249.230957,4115.384766,4130.769043,0.000000,4.000000,,,,0.000000,4.000000,4.000000,4.000000,4.000000,4.000000,,,,,,,,,,,,,,,,,,,,,,,,,
1577421783.621721,23.000000,0.000000,4101.025879,4237.436035,4238.461426,4100.512695,4115.897461,0.000000,4.000000,,,,0.000000,4.000000,4.000000,4.000000,4.000000,4.000000,,,,,,,,,,,,,,,,,,,,,,,,,
1577421783.629451,24.000000,0.000000,4114.871582,4238.461426,4246.666504,4107.692383,4120.512695,0.000000,4.000000,,,,0.000000,4.000000,4.000000,4.000000,4.000000,4.000000,,,,,,,,,,,,,,,,,,,,,,,,,
1577421783.637281,25.000000,0.000000,4144.615234,4244.615234,4258.974121,4118.974121,4141.538574,0.000000,4.000000,,,,0.000000,4.000000,4.000000,4.000000,4.000000,4.000000,,,,,,,,,,,,,,,,,,,,,,,,,
1577421783.645011,26.000000,0.000000,4145.641113,4247.692383,4258.974121,4114.358887,4142.563965,0.000000,4.000000,,,,0.000000,4.000000,4.000000,4.000000,4.000000,4.000000,,,,,,,,,,,,,,,,,,,,,,,,,
1577421783.652840,27.000000,0.000000,4130.769043,4244.102539,4261.025879,4107.179688,4132.820313,0.000000,4.000000,,,,0.000000,4.000000,4.000000,4.000000,4.000000,4.000000,111.913330,8.124386,4.790963,1.771440,0.998444,52.592743,3.441110,2.896644,1.065267,1.033584,239.504303,37.390385,7.681755,2.887800,0.757405,11.998459,2.790673,2.218947,1.637994,1.023136,36.834202,9.174258,3.924673,1.858163,0.942224
1577421783.660669,28.000000,0.000000,4136.410156,4244.102539,4272.307617,4112.820313,4133.846191,0.000000,4.000000,,,,0.000000,4.000000,4.000000,4.000000,4.000000,4.000000,,,,,,,,,,,,,,,,,,,,,,,,,
1577421783.668393,29.000000,0.000000,4142.563965,4237.948730,4283.077148,4112.307617,4132.307617,0.000000,4.000000,,,,0.000000,4.000000,4.000000,4.000000,4.000000,4.000000,,,,,,,,,,,,,,,,,,,,,,,,,
1577421783.676122,30.000000,0.000000,4144.102539,4243.077148,4297.948730,4115.384766,4137.436035,0.000000,4.000000,,,,0.000000,4.000000,4.000000,4.000000,4.000000,4.000000,,,,,,,,,,,,,,,,,,,,,,,,,
1577421783.683950,31.000000,0.000000,4155.384766,4261.538574,4309.230957,4129.230957,4151.282227,0.000000,4.000000,,,,0.000000,4.000000,4.000000,4.000000,4.000000,4.000000,,,,,,,,,,,,,,,,,,,,,,,,,
1577421783.691679,32.000000,0.000000,4165.641113,4260.000000,4296.410156,4131.282227,4155.384766,0.000000,4.000000,,,,0.000000,4.000000,4.000000,4.000000,4.000000,4.000000,,,,,,,,,,,,,,,,,,,,,,,,,
1577421783.699507,33.000000,0.000000,4170.769043,4249.230957,4273.333496,4125.641113,4154.871582,0.000000,4.000000,,,,0.000000,4.000000,4.000000,4.000000,4.000000,4.000000,,,,,,,,,,,,,,,,,,,,,,,,,
1577421783.707235,34.000000,0.000000,4175.384766,4256.410156,4256.410156,4123.589844,4164.615234,0.000000,4.000000,,,,0.000000,4.000000,4.000000,4.000000,4.000000,4.000000,,,,,,,,,,,,,,,,,,,,,,,,,
1577421783.715063,35.000000,0.000000,4168.205078,4257.948730,4232.307617,4110.256348,4165.128418,0.000000,4.000000,,,,0.000000,4.000000,4.000000,4.000000,4.000000,4.000000,,,,,,,,,,,,,,,,,,,,,,,,,
1577421783.722791,36.000000,0.000000,4155.897461,4247.692383,4212.307617,4105.641113,4160.512695,0.000000,4.000000,,,,0.000000,4.000000,4.000000,4.000000,4.000000,4.000000,,,,,,,,,,,,,,,,,,,,,,,,,
1577421783.730619,37.000000,0.000000,4162.051270,4251.794922,4209.743652,4128.205078,4170.769043,0.000000,4.000000,,,,0.000000,4.000000,4.000000,4.000000,4.000000,4.000000,,,,,,,,,,,,,,,,,,,,,,,,,
1577421783.738346,38.000000,0.000000,4166.153809,4252.820313,4200.512695,4127.692383,4172.307617,0.000000,4.000000,,,,0.000000,4.000000,4.000000,4.000000,4.000000,4.000000,,,,,,,,,,,,,,,,,,,,,,,,,
1577421783.746078,39.000000,0.000000,4170.256348,4254.358887,4195.897461,4121.538574,4170.256348,0.000000,4.000000,,,,0.000000,4.000000,4.000000,4.000000,4.000000,4.000000,,,,,,,,,,,,,,,,,,,,,,,,,
1577421783.753909,40.000000,0.000000,4191.282227,4275.897461,4206.153809,4150.769043,4188.205078,0.000000,4.000000,,,,0.000000,4.000000,4.000000,4.000000,4.000000,4.000000,,,,,,,,,,,,,,,,,,,,,,,,,
1577421783.761741,41.000000,0.000000,4180.000000,4271.282227,4186.666504,4149.743652,4179.487305,0.000000,4.000000,,,,0.000000,4.000000,4.000000,4.000000,4.000000,4.000000,,,,,,,,,,,,,,,,,,,,,,,,,
1577421783.769467,42.000000,0.000000,4140.512695,4238.461426,4160.000000,4122.563965,4151.794922,0.000000,4.000000,,,,0.000000,4.000000,4.000000,4.000000,4.000000,4.000000,,,,,,,,,,,,,,,,,,,,,,,,,
1577421783.777293,43.000000,0.000000,4144.615234,4237.948730,4183.077148,4142.051270,4164.102539,0.000000,4.000000,,,,0.000000,4.000000,4.000000,4.000000,4.000000,4.000000,130.755066,8.238441,4.846510,1.803756,1.155197,49.321308,3.312307,2.825053,0.997603,1.154812,224.119812,34.216843,7.379011,2.633517,0.813990,10.922455,2.585363,2.406687,1.817825,1.373984,39.868885,10.421231,3.862350,1.884964,1.127867
1577421783.785018,44.000000,0.000000,4171.282227,4251.282227,4206.153809,4161.025879,4188.717773,0.000000,4.000000,,,,0.000000,4.000000,4.000000,4.000000,4.000000,4.000000,,,,,,,,,,,,,,,,,,,,,,,,,
1577421783.792843,45.000000,0.000000,4169.230957,4253.846191,4197.436035,4135.897461,4188.205078,0.000000,4.000000,,,,0.000000,4.000000,4.000000,4.000000,4.000000,4.000000,,,,,,,,,,,,,,,,,,,,,,,,,
1577421783.800568,46.000000,0.000000,4167.692383,4259.487305,4196.410156,4131.282227,4182.563965,0.000000,4.000000,,,,0.000000,4.000000,4.000000,4.000000,4.000000,4.000000,,,,,,,,,,,,,,,,,,,,,,,,,
1577421783.808393,47.000000,0.000000,4180.512695,4266.153809,4205.128418,4143.077148,4191.794922,0.000000,4.000000,,,,0.000000,4.000000,4.000000,4.000000,4.000000,4.000000,,,,,,,,,,,,,,,,,,,,,,,,,
1577421783.816118,48.000000,0.000000,4201.538574,4274.358887,4213.846191,4145.128418,4214.358887,0.000000,4.000000,,,,0.000000,4.000000,4.000000,4.000000,4.000000,4.000000,,,,,,,,,,,,,,,,,,,,,,,,,
1577421783.823942,49.000000,0.000000,4215.384766,4281.538574,4218.461426,4145.128418,4228.205078,0.000000,4.000000,,,,0.000000,4.000000,4.000000,4.000000,4.000000,4.000000,,,,,,,,,,,,,,,,,,,,,,,,,
1577421783.831667,50.000000,0.000000,4207.692383,4272.307617,4206.666504,4135.384766,4220.000000,0.000000,4.000000,,,,0.000000,4.000000,4.000000,4.000000,4.000000,4.000000,,,,,,,,,,,,,,,,,,,,,,,,,
1577421783.839492,51.000000,0.000000,4204.615234,4268.205078,4193.846191,4130.769043,4207.692383,0.000000,4.000000,,,,0.000000,4.000000,4.000000,4.000000,4.000000,4.000000,,,,,,,,,,,,,,,,,,,,,,,,,
1577421783.847216,52.000000,0.000000,4220.000000,4275.897461,4188.205078,4143.077148,4214.358887,0.000000,4.000000,,,,0.000000,4.000000,4.000000,4.000000,4.000000,4.000000,,,,,,,,,,,,,,,,,,,,,,,,,
1577421783.855041,53.000000,0.000000,4227.179688,4264.615234,4172.820313,4155.384766,4223.077148,0.000000,4.000000,,,,0.000000,4.000000,4.000000,4.000000,4.000000,4.000000,,,,,,,,,,,,,,,,,,,,,,,,,
1577421783.862764,54.000000,0.000000,4216.922852,4252.820313,4153.846191,4156.410156,4215.897461,0.000000,4.000000,,,,0.000000,4.000000,4.000000,4.000000,4.000000,4.000000,,,,,,,,,,,,,,,,,,,,,,,,,
1577421783.870493,55.000000,0.000000,4223.077148,4266.153809,4152.307617,4165.128418,4223.077148,0.000000,4.000000,,,,0.000000,4.000000,4.000000,4.000000,4.000000,4.000000,,,,,,,,,,,,,,,,,,,,,,,,,
1577421783.878321,56.000000,0.000000,4236.410156,4272.307617,4148.205078,4168.205078,4235.384766,0.000000,4.000000,,,,0.000000,4.000000,4.000000,4.000000,4.000000,4.000000,,,,,,,,,,,,,,,,,,,,,,,,,
