title:anger0, start timestamp:2019-12-27T07:41:29.076656+03:00, stop timestamp:2019-12-27T07:42:03.772207+03:00, headset type:INSIGHT, headset serial:A2D200FB, headset firmware:930, subject name:Qasim, channels:44, sampling rate:eeg_128;pow_8, samples:4455      , version:2.0
Timestamp,EEG.Counter,EEG.Interpolated,EEG.AF3,EEG.T7,EEG.Pz,EEG.T8,EEG.AF4,EEG.RawCq,EEG.Battery,MarkerIndex,MarkerType,MarkerValueInt,EEG.MarkerHardware,CQ.AF3,CQ.T7,CQ.Pz,CQ.T8,CQ.AF4,POW.AF3.Theta,POW.AF3.Alpha,POW.AF3.BetaL,POW.AF3.BetaH,POW.AF3.Gamma,POW.T7.Theta,POW.T7.Alpha,POW.T7.BetaL,POW.T7.BetaH,POW.T7.Gamma,POW.Pz.Theta,POW.Pz.Alpha,POW.Pz.BetaL,POW.Pz.BetaH,POW.Pz.Gamma,POW.T8.Theta,POW.T8.Alpha,POW.T8.BetaL,POW.T8.BetaH,POW.T8.Gamma,POW.AF4.Theta,POW.AF4.Alpha,POW.AF4.BetaL,POW.AF4.BetaH,POW.AF4.Gamma
1577421689.076656,61.000000,0.000000,4261.538574,4270.769043,4372.307617,4162.051270,4260.000000,0.000000,4.000000,,,,0.000000,4.000000,4.000000,4.000000,4.000000,4.000000,,,,,,,,,,,,,,,,,,,,,,,,,
1577421689.084367,62.000000,0.000000,4261.538574,4267.179688,4361.025879,4156.410156,4266.666504,0.000000,4.000000,,,,0.000000,4.000000,4.000000,4.000000,4.000000,4.000000,,,,,,,,,,,,,,,,,,,,,,,,,
1577421689.092177,63.000000,0.000000,4254.871582,4262.563965,4352.820313,4146.153809,4256.922852,0.000000,4.000000,,,,0.000000,4.000000,4.000000,4.000000,4.000000,4.000000,,,,,,,,,,,,,,,,,,,,,,,,,
1577421689.099887,64.000000,0.000000,4249.230957,4260.000000,4347.692383,4140.000000,4246.666504,450.000000,4.000000,,,,0.000000,4.000000,4.000000,4.000000,4.000000,4.000000,,,,,,,,,,,,,,,,,,,,,,,,,
1577421689.107697,65.000000,0.000000,4253.846191,4278.461426,4341.025879,4150.256348,4248.205078,450.000000,4.000000,,,,0.000000,4.000000,4.000000,4.000000,4.000000,4.000000,,,,,,,,,,,,,,,,,,,,,,,,,
1577421689.115407,66.000000,0.000000,4251.794922,4287.179688,4331.794922,4156.922852,4246.666504,16229.000000,4.000000,,,,0.000000,4.000000,4.000000,4.000000,4.000000,4.000000,,,,,,,,,,,,,,,,,,,,,,,,,
1577421689.123217,67.000000,0.000000,4244.615234,4267.179688,4324.615234,4144.102539,4241.025879,450.000000,4.000000,,,,0.000000,4.000000,4.000000,4.000000,4.000000,4.000000,,,,,,,,,,,,,,,,,,,,,,,,,
1577421689.130927,68.000000,0.000000,4233.846191,4250.769043,4310.256348,4131.794922,4230.256348,16195.000000,4.000000,,,,0.000000,4.000000,4.000000,4.000000,4.000000,4.000000,,,,,,,,,,,,,,,,,,,,,,,,,
1577421689.138737,69.000000,0.000000,4236.922852,4268.205078,4310.769043,4148.717773,4230.769043,450.000000,4.000000,,,,0.000000,4.000000,4.000000,4.000000,4.000000,4.000000,,,,,,,,,,,,,,,,,,,,,,,,,
1577421689.146447,70.000000,0.000000,4243.077148,4269.230957,4317.948730,4158.974121,4240.000000,16130.000000,4.000000,,,,0.000000,4.000000,4.000000,4.000000,4.000000,4.000000,,,,,,,,,,,,,,,,,,,,,,,,,
1577421689.154257,71.000000,0.000000,4239.487305,4247.179688,4311.794922,4145.641113,4241.538574,450.000000,4.000000,,,,0.000000,4.000000,4.000000,4.000000,4.000000,4.000000,,,,,,,,,,,,,,,,,,,,,,,,,
1577421689.161967,72.000000,0.000000,4252.307617,4263.589844,4330.769043,4152.820313,4250.256348,450.000000,4.000000,,,,0.000000,4.000000,4.000000,4.000000,4.000000,4.000000,,,,,,,,,,,,,,,,,,,,,,,,,
1577421689.169776,73.000000,0.000000,4262.051270,4283.077148,4370.769043,4160.512695,4258.974121,16170.000000,4.000000,,,,0.000000,4.000000,4.000000,4.000000,4.000000,4.000000,20.829781,5.358793,3.446841,1.326123,7.547947,23.865231,3.837374,1.661306,1.034475,5.033369,232.817703,18.982676,3.951000,1.107603,5.097737,5.464792,2.721668,1.883661,1.014992,7.179039,13.796445,3.382963,2.010217,0.876119,6.305796
1577421689.177486,74.000000,0.000000,4261.538574,4271.282227,4414.871582,4160.000000,4266.153809,450.000000,4.000000,,,,0.000000,4.000000,4.000000,4.000000,4.000000,4.000000,,,,,,,,,,,,,,,,,,,,,,,,,
1577421689.185197,75.000000,0.000000,4269.743652,4270.769043,4463.077148,4166.153809,4269.743652,16224.000000,4.000000,,,,0.000000,4.000000,4.000000,4.000000,4.000000,4.000000,,,,,,,,,,,,,,,,,,,,,,,,,
1577421689.192911,76.000000,0.000000,4270.769043,4287.179688,4485.641113,4165.128418,4264.102539,450.000000,4.000000,,,,0.000000,4.000000,4.000000,4.000000,4.000000,4.000000,,,,,,,,,,,,,,,,,,,,,,,,,
1577421689.200725,77.000000,0.000000,4264.615234,4298.974121,4486.153809,4162.563965,4258.974121,450.000000,4.000000,,,,0.000000,4.000000,4.000000,4.000000,4.000000,4.000000,,,,,,,,,,,,,,,,,,,,,,,,,
1577421689.208539,78.000000,0.000000,4245.641113,4300.512695,4475.897461,4147.179688,4241.538574,450.000000,4.000000,,,,0.000000,4.000000,4.000000,4.000000,4.000000,4.000000,,,,,,,,,,,,,,,,,,,,,,,,,
1577421689.216353,79.000000,0.000000,4231.794922,4304.615234,4468.205078,4137.948730,4227.179688,16224.000000,4.000000,,,,0.000000,4.000000,4.000000,4.000000,4.000000,4.000000,,,,,,,,,,,,,,,,,,,,,,,,,
1577421689.224062,80.000000,0.000000,4241.025879,4324.102539,4454.871582,4155.384766,4227.692383,450.000000,4.000000,,,,0.000000,4.000000,4.000000,4.000000,4.000000,4.000000,,,,,,,,,,,,,,,,,,,,,,,,,
1577421689.231870,81.000000,0.000000,4243.077148,4337.948730,4413.333496,4163.077148,4228.205078,450.000000,4.000000,,,,0.000000,4.000000,4.000000,4.000000,4.000000,4.000000,,,,,,,,,,,,,,,,,,,,,,,,,
1577421689.239579,82.000000,0.000000,4245.128418,4348.205078,4372.820313,4163.077148,4233.846191,450.000000,4.000000,,,,0.000000,4.000000,4.000000,4.000000,4.000000,4.000000,,,,,,,,,,,,,,,,,,,,,,,,,
1577421689.247387,83.000000,0.000000,4254.871582,4352.307617,4343.589844,4166.666504,4235.897461,16224.000000,4.000000,,,,0.000000,4.000000,4.000000,4.000000,4.000000,4.000000,,,,,,,,,,,,,,,,,,,,,,,,,
1577421689.255101,84.000000,0.000000,4261.538574,4346.153809,4316.922852,4175.384766,4243.589844,450.000000,4.000000,,,,0.000000,4.000000,4.000000,4.000000,4.000000,4.000000,,,,,,,,,,,,,,,,,,,,,,,,,
1577421689.263017,85.000000,0.000000,4262.051270,4343.589844,4299.487305,4186.153809,4249.230957,450.000000,4.000000,,,,0.000000,4.000000,4.000000,4.000000,4.000000,4.000000,,,,,,,,,,,,,,,,,,,,,,,,,
1577421689.270832,86.000000,0.000000,4258.974121,4338.974121,4287.692383,4189.230957,4246.666504,450.000000,4.000000,,,,0.000000,4.000000,4.000000,4.000000,4.000000,4.000000,,,,,,,,,,,,,,,,,,,,,,,,,
1577421689.278648,87.000000,0.000000,4276.922852,4341.025879,4292.820313,4201.538574,4262.051270,16224.000000,4.000000,,,,0.000000,4.000000,4.000000,4.000000,4.000000,4.000000,,,,,,,,,,,,,,,,,,,,,,,,,
1577421689.286463,88.000000,0.000000,4286.666504,4343.077148,4291.282227,4206.153809,4264.615234,450.000000,4.000000,,,,0.000000,4.000000,4.000000,4.000000,4.000000,4.000000,,,,,,,,,,,,,,,,,,,,,,,,,
1577421689.294174,89.000000,0.000000,4265.128418,4336.410156,4260.512695,4187.692383,4245.641113,450.000000,4.000000,,,,0.000000,4.000000,4.000000,4.000000,4.000000,4.000000,14.118348,5.003458,2.444797,0.970091,4.895956,19.753210,3.545486,1.017653,0.762253,3.426825,205.542908,16.917095,2.885663,0.753871,3.237008,4.507049,2.295060,1.137713,0.726366,4.486619,10.465033,3.579224,1.454921,0.800600,4.091433
1577421689.301984,90.000000,0.000000,4251.794922,4334.871582,4242.051270,4176.410156,4239.487305,450.000000,4.000000,,,,0.000000,4.000000,4.000000,4.000000,4.000000,4.000000,,,,,,,,,,,,,,,,,,,,,,,,,
1577421689.309694,91.000000,0.000000,4257.948730,4343.077148,4244.102539,4173.333496,4243.077148,16224.000000,4.000000,,,,0.000000,4.000000,4.000000,4.000000,4.000000,4.000000,,,,,,,,,,,,,,,,,,,,,,,,,
1577421689.317504,92.000000,0.000000,4262.563965,4358.974121,4248.205078,4169.743652,4244.102539,450.000000,4.000000,,,,0.000000,4.000000,4.000000,4.000000,4.000000,4.000000,,,,,,,,,,,,,,,,,,,,,,,,,
1577421689.325214,93.000000,0.000000,4258.461426,4362.563965,4267.179688,4165.641113,4237.948730,450.000000,4.000000,,,,0.000000,4.000000,4.000000,4.000000,4.000000,4.000000,,,,,,,,,,,,,,,,,,,,,,,,,
1577421689.333024,94.000000,0.000000,4252.307617,4357.436035,4287.179688,4167.692383,4237.948730,450.000000,4.000000,,,,0.000000,4.000000,4.000000,4.000000,4.000000,4.000000,,,,,,,,,,,,,,,,,,,,,,,,,
1577421689.340734,95.000000,0.000000,4252.307617,4366.153809,4291.794922,4170.256348,4243.589844,16224.000000,4.000000,,,,0.000000,4.000000,4.000000,4.000000,4.000000,4.000000,,,,,,,,,,,,,,,,,,,,,,,,,
1577421689.348544,96.000000,0.000000,4251.794922,4367.179688,4290.769043,4170.256348,4238.974121,450.000000,4.000000,,,,0.000000,4.000000,4.000000,4.000000,4.000000,4.000000,,,,,,,,,,,,,,,,,,,,,,,,,
1577421689.356253,97.000000,0.000000,4254.358887,4358.974121,4305.128418,4186.153809,4246.666504,450.000000,4.000000,,,,0.000000,4.000000,4.000000,4.000000,4.000000,4.000000,,,,,,,,,,,,,,,,,,,,,,,,,
1577421689.364063,98.000000,0.000000,4256.410156,4367.692383,4318.461426,4191.794922,4260.512695,450.000000,4.000000,,,,0.000000,4.000000,4.000000,4.000000,4.000000,4.000000,,,,,,,,,,,,,,,,,,,,,,,,,
1577421689.371773,99.000000,0.000000,4263.589844,4368.717773,4318.461426,4180.000000,4266.666504,16224.000000,4.000000,,,,0.000000,4.000000,4.000000,4.000000,4.000000,4.000000,,,,,,,,,,,,,,,,,,,,,,,,,
1577421689.379582,100.000000,0.000000,4292.820313,4356.410156,4345.128418,4202.051270,4286.666504,450.000000,4.000000,,,,0.000000,4.000000,4.000000,4.000000,4.000000,4.000000,,,,,,,,,,,,,,,,,,,,,,,,,
1577421689.387291,101.000000,0.000000,4291.794922,4338.974121,4360.512695,4208.717773,4276.410156,450.000000,4.000000,,,,0.000000,4.000000,4.000000,4.000000,4.000000,4.000000,,,,,,,,,,,,,,,,,,,,,,,,,
1577421689.395100,102.000000,0.000000,4258.974121,4324.615234,4336.922852,4167.179688,4247.179688,450.000000,4.000000,,,,0.000000,4.000000,4.000000,4.000000,4.000000,4.000000,,,,,,,,,,,,,,,,,,,,,,,,,
1577421689.402809,103.000000,0.000000,4267.179688,4325.641113,4352.820313,4156.410156,4266.666504,16224.000000,4.000000,,,,0.000000,4.000000,4.000000,4.000000,4.000000,4.000000,,,,,,,,,,,,,,,,,,,,,,,,,
1577421689.410618,104.000000,0.000000,4290.769043,4309.743652,4400.000000,4181.025879,4286.153809,450.000000,4.000000,,,,0.000000,4.000000,4.000000,4.000000,4.000000,4.000000,,,,,,,,,,,,,,,,,,,,,,,,,
1577421689.418327,105.000000,0.000000,4286.153809,4291.794922,4421.025879,4191.794922,4276.410156,450.000000,4.000000,,,,0.000000,4.000000,4.000000,4.000000,4.000000,4.000000,10.324781,5.970474,1.869565,0.822889,4.268816,15.372470,3.928196,0.793182,0.685748,3.237202,158.614532,14.405509,2.416023,0.593567,2.776354,4.117910,2.374254,0.681261,0.582105,3.804998,9.228185,4.412802,1.131695,0.737212,3.498415
1577421689.426136,106.000000,0.000000,4275.897461,4296.410156,4423.589844,4189.230957,4268.717773,450.000000,4.000000,,,,0.000000,4.000000,4.000000,4.000000,4.000000,4.000000,,,,,,,,,,,,,,,,,,,,,,,,,
1577421689.433844,107.000000,0.000000,4274.871582,4290.256348,4425.128418,4194.358887,4266.153809,16224.000000,4.000000,,,,0.000000,4.000000,4.000000,4.000000,4.000000,4.000000,,,,,,,,,,,,,,,,,,,,,,,,,
1577421689.441555,108.000000,0.000000,4268.717773,4264.102539,4418.974121,4191.794922,4266.153809,450.000000,4.000000,,,,0.000000,4.000000,4.000000,4.000000,4.000000,4.000000,,,,,,,,,,,,,,,,,,,,,,,,,
1577421689.449366,109.000000,0.000000,4258.974121,4232.307617,4405.641113,4172.820313,4261.025879,450.000000,4.000000,,,,0.000000,4.000000,4.000000,4.000000,4.000000,4.000000,,,,,,,,,,,,,,,,,,,,,,,,,
1577421689.457077,110.000000,0.000000,4271.794922,4203.077148,4409.230957,4167.692383,4265.128418,450.000000,4.000000,,,,0.000000,4.000000,4.000000,4.000000,4.000000,4.000000,,,,,,,,,,,,,,,,,,,,,,,,,
1577421689.464887,111.000000,0.000000,4296.922852,4180.000000,4425.641113,4166.666504,4287.692383,16224.000000,4.000000,,,,0.000000,4.000000,4.000000,4.000000,4.000000,4.000000,,,,,,,,,,,,,,,,,,,,,,,,,
1577421689.472598,112.000000,0.000000,4335.897461,4186.666504,4433.333496,4166.153809,4320.512695,450.000000,4.000000,,,,0.000000,4.000000,4.000000,4.000000,4.000000,4.000000,,,,,,,,,,,,,,,,,,,,,,,,,
1577421689.480408,113.000000,0.000000,4401.025879,4203.589844,4435.384766,4173.333496,4359.487305,450.000000,4.000000,,,,0.000000,4.000000,4.000000,4.000000,4.000000,4.000000,,,,,,,,,,,,,,,,,,,,,,,,,
1577421689.488219,114.000000,0.000000,4448.717773,4189.743652,4418.974121,4156.922852,4373.846191,450.000000,4.000000,,,,0.000000,4.000000,4.000000,4.000000,4.000000,4.000000,,,,,,,,,,,,,,,,,,,,,,,,,
1577421689.495926,115.000000,0.000000,4484.615234,4178.974121,4386.666504,4138.461426,4388.205078,16224.000000,4.000000,,,,0.000000,4.000000,4.000000,4.000000,4.000000,4.000000,,,,,,,,,,,,,,,,,,,,,,,,,
1577421689.503636,116.000000,0.000000,4540.000000,4189.230957,4379.487305,4142.563965,4432.820313,450.000000,4.000000,,,,0.000000,4.000000,4.000000,4.000000,4.000000,4.000000,,,,,,,,,,,,,,,,,,,,,,,,,
1577421689.511446,117.000000,0.000000,4569.230957,4187.692383,4394.358887,4143.589844,4459.487305,450.000000,4.000000,,,,0.000000,4.000000,4.000000,4.000000,4.000000,4.000000,,,,,,,,,,,,,,,,,,,,,,,,,
1577421689.519156,118.000000,0.000000,4574.871582,4184.102539,4394.871582,4136.410156,4463.589844,450.000000,4.000000,,,,0.000000,4.000000,4.000000,4.000000,4.000000,4.000000,,,,,,,,,,,,,,,,,,,,,,,,,
1577421689.526966,119.000000,0.000000,4591.794922,4186.153809,4369.743652,4126.153809,4470.769043,16224.000000,4.000000,,,,0.000000,4.000000,4.000000,4.000000,4.000000,4.000000,,,,,,,,,,,,,,,,,,,,,,,,,
1577421689.534775,120.000000,0.000000,4597.436035,4190.256348,4346.153809,4120.512695,4473.846191,450.000000,4.000000,,,,0.000000,4.000000,4.000000,4.000000,4.000000,4.000000,,,,,,,,,,,,,,,,,,,,,,,,,
1577421689.542482,121.000000,0.000000,4590.256348,4212.307617,4351.794922,4122.051270,4462.051270,450.000000,4.000000,,,,0.000000,4.000000,4.000000,4.000000,4.000000,4.000000,9.307763,7.716660,1.737374,0.801069,5.120668,12.179008,4.629386,0.883975,0.747005,4.062668,111.808090,12.056861,2.597979,0.574695,3.337953,4.318542,2.839349,0.487066,0.565306,4.635537,9.634685,5.653129,1.064708,0.670574,4.110317
1577421689.550192,122.000000,0.000000,4586.666504,4222.051270,4370.256348,4120.000000,4460.000000,450.000000,4.000000,,,,0.000000,4.000000,4.000000,4.000000,4.000000,4.000000,,,,,,,,,,,,,,,,,,,,,,,,,
1577421689.558001,123.000000,0.000000,4587.692383,4210.769043,4394.358887,4118.461426,4470.769043,16224.000000,4.000000,,,,0.000000,4.000000,4.000000,4.000000,4.000000,4.000000,,,,,,,,,,,,,,,,,,,,,,,,,
1577421689.565711,124.000000,0.000000,4596.922852,4224.102539,4437.948730,4131.282227,4476.922852,450.000000,4.000000,,,,0.000000,4.000000,4.000000,4.000000,4.000000,4.000000,,,,,,,,,,,,,,,,,,,,,,,,,
1577421689.573520,125.000000,0.000000,4617.948730,4248.717773,4490.769043,4160.000000,4498.461426,450.000000,4.000000,,,,0.000000,4.000000,4.000000,4.000000,4.000000,4.000000,,,,,,,,,,,,,,,,,,,,,,,,,
1577421689.581229,126.000000,0.000000,4628.205078,4249.743652,4517.436035,4175.897461,4504.615234,450.000000,4.000000,,,,0.000000,4.000000,4.000000,4.000000,4.000000,4.000000,,,,,,,,,,,,,,,,,,,,,,,,,
1577421689.589038,127.000000,0.000000,4609.743652,4231.794922,4514.871582,4160.000000,4485.641113,234.000000,4.000000,,,,0.000000,4.000000,4.000000,4.000000,4.000000,4.000000,,,,,,,,,,,,,,,,,,,,,,,,,
1577421689.596747,0.000000,0.000000,4605.641113,4241.538574,4541.538574,4151.282227,4484.102539,450.000000,4.000000,,,,0.000000,4.000000,4.000000,4.000000,4.000000,4.000000,,,,,,,,,,,,,,,,,,,,,,,,,
1577421689.604556,1.000000,0.000000,4607.179688,4264.102539,4590.769043,4153.333496,4465.128418,450.000000,4.000000,,,,0.000000,4.000000,4.000000,4.000000,4.000000,4.000000,,,,,,,,,,,,,,,,,,,,,,,,,
1577421689.612264,2.000000,0.000000,4580.512695,4266.666504,4608.717773,4141.025879,4440.000000,16212.000000,4.000000,,,,0.000000,4.000000,4.000000,4.000000,4.000000,4.000000,,,,,,,,,,,,,,,,,,,,,,,,,
1577421689.620073,3.000000,0.000000,4573.846191,4281.025879,4606.666504,4141.538574,4443.077148,450.000000,4.000000,,,,0.000000,4.000000,4.000000,4.000000,4.000000,4.000000,,,,,,,,,,,,,,,,,,,,,,,,,
1577421689.627781,4.000000,0.000000,4581.538574,4304.102539,4581.538574,4141.538574,4438.974121,16186.000000,4.000000,,,,0.000000,4.000000,4.000000,4.000000,4.000000,4.000000,,,,,,,,,,,,,,,,,,,,,,,,,
1577421689.635589,5.000000,0.000000,4570.256348,4313.333496,4533.846191,4125.128418,4428.717773,450.000000,4.000000,,,,0.000000,4.000000,4.000000,4.000000,4.000000,4.000000,,,,,,,,,,,,,,,,,,,,,,,,,
1577421689.643297,6.000000,0.000000,4556.410156,4321.538574,4504.102539,4117.436035,4416.410156,16133.000000,4.000000,,,,0.000000,4.000000,4.000000,4.000000,4.000000,4.000000,,,,,,,,,,,,,,,,,,,,,,,,,
1577421689.651105,7.000000,0.000000,4556.922852,4336.922852,4491.282227,4122.563965,4414.871582,450.000000,4.000000,,,,0.000000,4.000000,4.000000,4.000000,4.000000,4.000000,,,,,,,,,,,,,,,,,,,,,,,,,
1577421689.658814,8.000000,0.000000,4566.666504,4341.025879,4468.717773,4129.230957,4430.769043,450.000000,4.000000,,,,0.000000,4.000000,4.000000,4.000000,4.000000,4.000000,,,,,,,,,,,,,,,,,,,,,,,,,
1577421689.666622,9.000000,0.000000,4560.000000,4333.846191,4439.487305,4124.615234,4429.743652,16176.000000,4.000000,,,,0.000000,4.000000,4.000000,4.000000,4.000000,4.000000,10.014420,9.553463,1.926180,0.800867,6.328835,10.093974,5.200682,1.104913,0.839940,5.089985,86.283936,10.337310,3.277539,0.632164,4.152231,4.768369,3.423351,0.458999,0.620611,5.883819,10.661113,6.961902,1.186118,0.599602,5.038914
1577421689.674330,10.000000,0.000000,4562.051270,4350.256348,4438.461426,4131.794922,4435.384766,450.000000,4.000000,,,,0.000000,4.000000,4.000000,4.000000,4.000000,4.000000,,,,,,,,,,,,,,,,,,,,,,,,,
1577421689.682138,11.000000,0.000000,4572.820313,4359.487305,4435.897461,4143.589844,4443.589844,16209.000000,4.000000,,,,0.000000,4.000000,4.000000,4.000000,4.000000,4.000000,,,,,,,,,,,,,,,,,,,,,,,,,
1577421689.689846,12.000000,0.000000,4547.692383,4320.512695,4390.769043,4120.512695,4419.487305,450.000000,4.000000,,,,0.000000,4.000000,4.000000,4.000000,4.000000,4.000000,,,,,,,,,,,,,,,,,,,,,,,,,
1577421689.697556,13.000000,0.000000,4525.641113,4288.717773,4358.974121,4093.846191,4393.846191,450.000000,4.000000,,,,0.000000,4.000000,4.000000,4.000000,4.000000,4.000000,,,,,,,,,,,,,,,,,,,,,,,,,
1577421689.705366,14.000000,0.000000,4518.461426,4272.307617,4346.153809,4082.051270,4374.358887,450.000000,4.000000,,,,0.000000,4.000000,4.000000,4.000000,4.000000,4.000000,,,,,,,,,,,,,,,,,,,,,,,,,
1577421689.713076,15.000000,0.000000,4501.538574,4243.589844,4313.846191,4074.871826,4360.000000,16209.000000,4.000000,,,,0.000000,4.000000,4.000000,4.000000,4.000000,4.000000,,,,,,,,,,,,,,,,,,,,,,,,,
1577421689.720886,16.000000,0.000000,4495.384766,4234.871582,4296.922852,4076.923096,4360.000000,0.000000,4.000000,,,,0.000000,4.000000,4.000000,4.000000,4.000000,4.000000,,,,,,,,,,,,,,,,,,,,,,,,,
1577421689.728596,17.000000,0.000000,4483.077148,4217.948730,4293.846191,4066.666748,4341.538574,0.000000,4.000000,,,,0.000000,4.000000,4.000000,4.000000,4.000000,4.000000,,,,,,,,,,,,,,,,,,,,,,,,,
1577421689.736405,18.000000,0.000000,4456.922852,4182.563965,4283.589844,4052.307617,4311.794922,0.000000,4.000000,,,,0.000000,4.000000,4.000000,4.000000,4.000000,4.000000,,,,,,,,,,,,,,,,,,,,,,,,,
1577421689.744115,19.000000,0.000000,4448.205078,4163.077148,4278.974121,4052.820557,4303.589844,0.000000,4.000000,,,,0.000000,4.000000,4.000000,4.000000,4.000000,4.000000,,,,,,,,,,,,,,,,,,,,,,,,,
1577421689.751924,20.000000,0.000000,4451.282227,4166.153809,4279.487305,4057.948730,4318.461426,0.000000,4.000000,,,,0.000000,4.000000,4.000000,4.000000,4.000000,4.000000,,,,,,,,,,,,,,,,,,,,,,,,,
1577421689.759633,21.000000,0.000000,4462.051270,4182.051270,4289.230957,4065.641113,4329.230957,0.000000,4.000000,,,,0.000000,4.000000,4.000000,4.000000,4.000000,4.000000,,,,,,,,,,,,,,,,,,,,,,,,,
1577421689.767443,22.000000,0.000000,4467.692383,4125.641113,4298.974121,4057.948730,4308.717773,0.000000,4.000000,,,,0.000000,4.000000,4.000000,4.000000,4.000000,4.000000,,,,,,,,,,,,,,,,,,,,,,,,,
1577421689.775152,23.000000,0.000000,4461.538574,4075.384521,4317.948730,4046.666748,4298.461426,0.000000,4.000000,,,,0.000000,4.000000,4.000000,4.000000,4.000000,4.000000,,,,,,,,,,,,,,,,,,,,,,,,,
1577421689.782960,24.000000,0.000000,4446.153809,4078.461426,4355.897461,4050.256348,4302.051270,0.000000,4.000000,,,,0.000000,4.000000,4.000000,4.000000,4.000000,4.000000,,,,,,,,,,,,,,,,,,,,,,,,,
1577421689.790669,25.000000,0.000000,4429.743652,3833.333252,4377.436035,4046.153809,4292.820313,0.000000,4.000000,,,,0.000000,4.000000,4.000000,4.000000,4.000000,4.000000,11.537705,11.068523,2.284586,0.776608,6.943347,9.196432,5.355598,1.308920,0.891998,5.623230,88.609680,9.650297,4.207137,0.765605,4.578127,5.122210,3.888736,0.546172,0.700572,6.590932,11.185413,8.027979,1.405744,0.542431,5.522704
1577421689.798478,26.000000,0.000000,4433.333496,3469.743652,4371.794922,4048.718018,4291.794922,0.000000,4.000000,,,,0.000000,4.000000,4.000000,4.000000,4.000000,4.000000,,,,,,,,,,,,,,,,,,,,,,,,,
1577421689.806187,27.000000,0.000000,4424.102539,3457.948730,4346.666504,4054.871826,4282.563965,0.000000,4.000000,,,,0.000000,4.000000,4.000000,4.000000,4.000000,4.000000,,,,,,,,,,,,,,,,,,,,,,,,,
1577421689.813995,28.000000,0.000000,4407.179688,3662.564209,4328.205078,4051.794922,4268.205078,0.000000,4.000000,,,,0.000000,4.000000,4.000000,4.000000,4.000000,4.000000,,,,,,,,,,,,,,,,,,,,,,,,,
1577421689.821704,29.000000,0.000000,4418.461426,3708.205078,4325.128418,4058.974365,4283.589844,0.000000,4.000000,,,,0.000000,4.000000,4.000000,4.000000,4.000000,4.000000,,,,,,,,,,,,,,,,,,,,,,,,,
1577421689.829415,30.000000,0.000000,4397.948730,3670.769287,4290.769043,4047.692383,4275.384766,0.000000,4.000000,,,,0.000000,4.000000,4.000000,4.000000,4.000000,4.000000,,,,,,,,,,,,,,,,,,,,,,,,,
1577421689.837226,31.000000,0.000000,4371.794922,3708.205078,4266.153809,4026.666748,4253.846191,0.000000,4.000000,,,,0.000000,4.000000,4.000000,4.000000,4.000000,4.000000,,,,,,,,,,,,,,,,,,,,,,,,,
1577421689.845037,32.000000,0.000000,4412.307617,3750.769287,4304.615234,4049.743652,4281.025879,0.000000,4.000000,,,,0.000000,4.000000,4.000000,4.000000,4.000000,4.000000,,,,,,,,,,,,,,,,,,,,,,,,,
1577421689.852745,33.000000,0.000000,4450.769043,3767.692383,4323.589844,4081.538574,4311.794922,0.000000,4.000000,,,,0.000000,4.000000,4.000000,4.000000,4.000000,4.000000,,,,,,,,,,,,,,,,,,,,,,,,,
1577421689.860455,34.000000,0.000000,4427.692383,3755.897461,4274.871582,4067.692383,4298.974121,0.000000,4.000000,,,,0.000000,4.000000,4.000000,4.000000,4.000000,4.000000,,,,,,,,,,,,,,,,,,,,,,,,,
1577421689.868265,35.000000,0.000000,4401.025879,3736.923096,4224.615234,4041.538574,4280.512695,0.000000,4.000000,,,,0.000000,4.000000,4.000000,4.000000,4.000000,4.000000,,,,,,,,,,,,,,,,,,,,,,,,,
1577421689.875975,36.000000,0.000000,4397.436035,3758.974365,4208.717773,4042.051270,4281.025879,0.000000,4.000000,,,,0.000000,4.000000,4.000000,4.000000,4.000000,4.000000,,,,,,,,,,,,,,,,,,,,,,,,,
1577421689.883785,37.000000,0.000000,4373.846191,3778.974365,4199.487305,4032.820557,4259.487305,0.000000,4.000000,,,,0.000000,4.000000,4.000000,4.000000,4.000000,4.000000,,,,,,,,,,,,,,,,,,,,,,,,,
1577421689.891495,38.000000,0.000000,4348.717773,3780.000000,4195.897461,4025.641113,4235.897461,0.000000,4.000000,,,,0.000000,4.000000,4.000000,4.000000,4.000000,4.000000,,,,,,,,,,,,,,,,,,,,,,,,,
1577421689.899305,39.000000,0.000000,4339.487305,3782.051270,4196.410156,4026.153809,4238.461426,0.000000,4.000000,,,,0.000000,4.000000,4.000000,4.000000,4.000000,4.000000,,,,,,,,,,,,,,,,,,,,,,,,,
1577421689.907015,40.000000,0.000000,4318.974121,3790.256348,4188.717773,4008.205078,4225.128418,0.000000,4.000000,,,,0.000000,4.000000,4.000000,4.000000,4.000000,4.000000,,,,,,,,,,,,,,,,,,,,,,,,,
1577421689.914825,41.000000,0.000000,4329.743652,3824.102539,4211.282227,4029.743652,4236.410156,0.000000,4.000000,,,,0.000000,4.000000,4.000000,4.000000,4.000000,4.000000,15.412159,12.506388,2.753149,0.740884,6.640613,8.955599,5.397902,1.598752,0.916423,5.428852,117.651932,10.448065,5.231089,1.033830,4.406611,5.216660,4.166911,0.751234,0.790100,6.404534,11.682115,8.865221,1.690926,0.524833,5.296231
1577421689.922534,42.000000,0.000000,4370.256348,3852.307617,4255.384766,4077.435791,4284.102539,0.000000,4.000000,,,,0.000000,4.000000,4.000000,4.000000,4.000000,4.000000,,,,,,,,,,,,,,,,,,,,,,,,,
1577421689.930344,43.000000,0.000000,4364.102539,3830.769287,4258.974121,4067.692383,4285.641113,0.000000,4.000000,,,,0.000000,4.000000,4.000000,4.000000,4.000000,4.000000,,,,,,,,,,,,,,,,,,,,,,,,,
1577421689.938053,44.000000,0.000000,4341.025879,3824.615479,4261.538574,4045.128174,4253.846191,0.000000,4.000000,,,,0.000000,4.000000,4.000000,4.000000,4.000000,4.000000,,,,,,,,,,,,,,,,,,,,,,,,,
1577421689.945863,45.000000,0.000000,4352.820313,3851.794922,4286.666504,4056.410156,4261.025879,0.000000,4.000000,,,,0.000000,4.000000,4.000000,4.000000,4.000000,4.000000,,,,,,,,,,,,,,,,,,,,,,,,,
1577421689.953572,46.000000,0.000000,4356.922852,3845.128174,4300.512695,4065.641113,4277.948730,0.000000,4.000000,,,,0.000000,4.000000,4.000000,4.000000,4.000000,4.000000,,,,,,,,,,,,,,,,,,,,,,,,,
1577421689.961381,47.000000,0.000000,4336.410156,3814.358887,4309.230957,4055.897461,4260.512695,0.000000,4.000000,,,,0.000000,4.000000,4.000000,4.000000,4.000000,4.000000,,,,,,,,,,,,,,,,,,,,,,,,,
1577421689.969090,48.000000,0.000000,4316.410156,3800.512939,4313.846191,4042.051270,4234.358887,0.000000,4.000000,,,,0.000000,4.000000,4.000000,4.000000,4.000000,4.000000,,,,,,,,,,,,,,,,,,,,,,,,,
1577421689.976899,49.000000,0.000000,4295.384766,3811.281982,4309.743652,4038.461426,4226.666504,0.000000,4.000000,,,,0.000000,4.000000,4.000000,4.000000,4.000000,4.000000,,,,,,,,,,,,,,,,,,,,,,,,,
1577421689.984608,50.000000,0.000000,4276.410156,3822.564209,4307.692383,4043.076904,4231.794922,0.000000,4.000000,,,,0.000000,4.000000,4.000000,4.000000,4.000000,4.000000,,,,,,,,,,,,,,,,,,,,,,,,,
1577421689.992417,51.000000,0.000000,4281.538574,3824.615479,4324.102539,4066.153809,4248.205078,0.000000,4.000000,,,,0.000000,4.000000,4.000000,4.000000,4.000000,4.000000,,,,,,,,,,,,,,,,,,,,,,,,,
1577421690.000125,52.000000,0.000000,4269.743652,3827.179443,4325.641113,4085.128174,4233.846191,0.000000,4.000000,,,,0.000000,4.000000,4.000000,4.000000,4.000000,4.000000,,,,,,,,,,,,,,,,,,,,,,,,,
1577421690.007836,53.000000,0.000000,4187.692383,3817.435791,4282.563965,4045.641113,4171.794922,0.000000,4.000000,,,,0.000000,4.000000,4.000000,4.000000,4.000000,4.000000,,,,,,,,,,,,,,,,,,,,,,,,,
1577421690.015647,54.000000,0.000000,4115.897461,3813.333252,4270.769043,4017.435791,4133.333496,0.000000,4.000000,,,,0.000000,4.000000,4.000000,4.000000,4.000000,4.000000,,,,,,,,,,,,,,,,,,,,,,,,,
1577421690.023358,55.000000,0.000000,4096.410156,3831.794922,4310.769043,4046.666748,4120.512695,0.000000,4.000000,,,,0.000000,4.000000,4.000000,4.000000,4.000000,4.000000,,,,,,,,,,,,,,,,,,,,,,,,,
1577421690.031169,56.000000,0.000000,4062.051270,3845.641113,4329.230957,4052.307617,4098.974121,0.000000,4.000000,,,,0.000000,4.000000,4.000000,4.000000,4.000000,4.000000,,,,,,,,,,,,,,,,,,,,,,,,,
1577421690.038979,57.000000,0.000000,4009.230713,3853.846191,4329.230957,4033.846191,4071.281982,0.000000,4.000000,,,,0.000000,4.000000,4.000000,4.000000,4.000000,4.000000,22.439032,14.124400,3.201884,0.726022,5.526870,11.094511,7.603602,3.004278,1.338282,4.768601,157.957138,12.391230,6.110270,1.483176,3.716573,5.278812,4.312740,1.066760,0.889009,5.402953,12.757719,9.576870,1.986542,0.570699,4.432944
1577421690.046687,58.000000,0.000000,3953.846191,3871.794922,4332.307617,4026.666748,4031.281982,0.000000,4.000000,,,,0.000000,4.000000,4.000000,4.000000,4.000000,4.000000,,,,,,,,,,,,,,,,,,,,,,,,,
1577421690.054495,59.000000,0.000000,3904.615479,3896.410156,4344.102539,4028.718018,4006.666748,0.000000,4.000000,,,,0.000000,4.000000,4.000000,4.000000,4.000000,4.000000,,,,,,,,,,,,,,,,,,,,,,,,,
1577421690.062203,60.000000,0.000000,3902.051270,3925.641113,4371.794922,4047.692383,4011.281982,0.000000,4.000000,,,,0.000000,4.000000,4.000000,4.000000,4.000000,4.000000,,,,,,,,,,,,,,,,,,,,,,,,,
1577421690.070011,61.000000,0.000000,3895.384521,3937.948730,4371.282227,4059.487061,4000.000000,0.000000,4.000000,,,,0.000000,4.000000,4.000000,4.000000,4.000000,4.000000,,,,,,,,,,,,,,,,,,,,,,,,,
1577421690.077718,62.000000,0.000000,3833.333252,3924.615479,4342.563965,4048.205078,3957.948730,0.000000,4.000000,,,,0.000000,4.000000,4.000000,4.000000,4.000000,4.000000,,,,,,,,,,,,,,,,,,,,,,,,,
1577421690.085428,63.000000,0.000000,3785.128174,3919.487061,4327.692383,4033.846191,3925.641113,0.000000,4.000000,,,,0.000000,4.000000,4.000000,4.000000,4.000000,4.000000,,,,,,,,,,,,,,,,,,,,,,,,,
1577421690.093238,64.000000,0.000000,3796.923096,3944.615479,4332.307617,4045.128174,3940.000000,450.000000,4.000000,,,,0.000000,4.000000,4.000000,4.000000,4.000000,4.000000,,,,,,,,,,,,,,,,,,,,,,,,,
1577421690.100947,65.000000,0.000000,3805.641113,3969.743652,4333.846191,4062.564209,3956.410156,450.000000,4.000000,,,,0.000000,4.000000,4.000000,4.000000,4.000000,4.000000,,,,,,,,,,,,,,,,,,,,,,,,,
1577421690.108757,66.000000,0.000000,3782.564209,3966.153809,4322.051270,4053.846191,3946.153809,16205.000000,4.000000,,,,0.000000,4.000000,4.000000,4.000000,4.000000,4.000000,,,,,,,,,,,,,,,,,,,,,,,,,
1577421690.116467,67.000000,0.000000,3785.641113,3971.281982,4317.436035,4049.743652,3953.333252,450.000000,4.000000,,,,0.000000,4.000000,4.000000,4.000000,4.000000,4.000000,,,,,,,,,,,,,,,,,,,,,,,,,
1577421690.124276,68.000000,0.000000,3800.000000,3989.230713,4320.512695,4051.794922,3959.487061,16196.000000,4.000000,,,,0.000000,4.000000,4.000000,4.000000,4.000000,4.000000,,,,,,,,,,,,,,,,,,,,,,,,,
1577421690.131985,69.000000,0.000000,3795.384521,4005.128174,4324.615234,4048.718018,3957.948730,450.000000,4.000000,,,,0.000000,4.000000,4.000000,4.000000,4.000000,4.000000,,,,,,,,,,,,,,,,,,,,,,,,,
1577421690.139794,70.000000,0.000000,3811.794922,4025.128174,4332.820313,4066.666748,3981.538574,16139.000000,4.000000,,,,0.000000,4.000000,4.000000,4.000000,4.000000,4.000000,,,,,,,,,,,,,,,,,,,,,,,,,
1577421690.147503,71.000000,0.000000,3824.102539,4009.230713,4314.358887,4082.051270,3986.666748,450.000000,4.000000,,,,0.000000,4.000000,4.000000,4.000000,4.000000,4.000000,,,,,,,,,,,,,,,,,,,,,,,,,
1577421690.155312,72.000000,0.000000,3797.435791,3964.615479,4267.692383,4072.820557,3958.461426,450.000000,4.000000,,,,0.000000,4.000000,4.000000,4.000000,4.000000,4.000000,,,,,,,,,,,,,,,,,,,,,,,,,
1577421690.163021,73.000000,0.000000,3765.128174,3949.230713,4222.563965,4052.820557,3928.718018,16153.000000,4.000000,,,,0.000000,4.000000,4.000000,4.000000,4.000000,4.000000,31.863005,15.991048,3.561596,0.758069,3.996532,23.520103,15.758880,7.574194,3.033755,4.327933,197.768021,14.694032,6.630396,2.102640,2.776336,5.473642,4.424603,1.470722,0.995262,3.952727,14.791785,10.207084,2.277043,0.685017,3.235976
1577421690.170830,74.000000,0.000000,3762.051270,3958.461426,4187.179688,4045.128174,3919.487061,450.000000,4.000000,,,,0.000000,4.000000,4.000000,4.000000,4.000000,4.000000,,,,,,,,,,,,,,,,,,,,,,,,,
1577421690.178538,75.000000,0.000000,3773.846191,3953.846191,4162.563965,4051.794922,3922.051270,16209.000000,4.000000,,,,0.000000,4.000000,4.000000,4.000000,4.000000,4.000000,,,,,,,,,,,,,,,,,,,,,,,,,
1577421690.186347,76.000000,0.000000,3763.076904,3927.179443,4148.205078,4045.641113,3910.256348,450.000000,4.000000,,,,0.000000,4.000000,4.000000,4.000000,4.000000,4.000000,,,,,,,,,,,,,,,,,,,,,,,,,
1577421690.194055,77.000000,0.000000,3758.461426,3916.923096,4149.743652,4035.384521,3913.846191,450.000000,4.000000,,,,0.000000,4.000000,4.000000,4.000000,4.000000,4.000000,,,,,,,,,,,,,,,,,,,,,,,,,
1577421690.201864,78.000000,0.000000,3771.281982,3927.692383,4152.820313,4031.281982,3932.820557,450.000000,4.000000,,,,0.000000,4.000000,4.000000,4.000000,4.000000,4.000000,,,,,,,,,,,,,,,,,,,,,,,,,
1577421690.209572,79.000000,0.000000,3792.820557,3938.974365,4159.487305,4043.076904,3958.461426,16209.000000,4.000000,,,,0.000000,4.000000,4.000000,4.000000,4.000000,4.000000,,,,,,,,,,,,,,,,,,,,,,,,,
1577421690.217380,80.000000,0.000000,3835.897461,3945.128174,4191.794922,4082.564209,4001.538574,450.000000,4.000000,,,,0.000000,4.000000,4.000000,4.000000,4.000000,4.000000,,,,,,,,,,,,,,,,,,,,,,,,,
1577421690.225088,81.000000,0.000000,3856.410156,3928.205078,4200.000000,4096.410156,4004.102539,450.000000,4.000000,,,,0.000000,4.000000,4.000000,4.000000,4.000000,4.000000,,,,,,,,,,,,,,,,,,,,,,,,,
1577421690.232896,82.000000,0.000000,3845.128174,3914.871826,4173.846191,4075.897461,3978.461426,450.000000,4.000000,,,,0.000000,4.000000,4.000000,4.000000,4.000000,4.000000,,,,,,,,,,,,,,,,,,,,,,,,,
1577421690.240604,83.000000,0.000000,3834.358887,3915.384521,4172.307617,4069.743652,3974.871826,16209.000000,4.000000,,,,0.000000,4.000000,4.000000,4.000000,4.000000,4.000000,,,,,,,,,,,,,,,,,,,,,,,,,
1577421690.248412,84.000000,0.000000,3821.538574,3895.384521,4172.307617,4064.102539,3965.128174,450.000000,4.000000,,,,0.000000,4.000000,4.000000,4.000000,4.000000,4.000000,,,,,,,,,,,,,,,,,,,,,,,,,
1577421690.256120,85.000000,0.000000,3810.769287,3880.000000,4155.384766,4044.615479,3948.718018,450.000000,4.000000,,,,0.000000,4.000000,4.000000,4.000000,4.000000,4.000000,,,,,,,,,,,,,,,,,,,,,,,,,
1577421690.263830,86.000000,0.000000,3809.230713,3887.692383,4168.717773,4044.102539,3948.205078,450.000000,4.000000,,,,0.000000,4.000000,4.000000,4.000000,4.000000,4.000000,,,,,,,,,,,,,,,,,,,,,,,,,
1577421690.271639,87.000000,0.000000,3816.923096,3890.769287,4197.436035,4055.384521,3961.538574,16209.000000,4.000000,,,,0.000000,4.000000,4.000000,4.000000,4.000000,4.000000,,,,,,,,,,,,,,,,,,,,,,,,,
1577421690.279349,88.000000,0.000000,3822.564209,3895.897461,4196.922852,4046.153809,3967.179443,450.000000,4.000000,,,,0.000000,4.000000,4.000000,4.000000,4.000000,4.000000,,,,,,,,,,,,,,,,,,,,,,,,,
1577421690.287159,89.000000,0.000000,3822.051270,3910.769287,4190.769043,4039.487061,3972.307617,450.000000,4.000000,,,,0.000000,4.000000,4.000000,4.000000,4.000000,4.000000,42.782104,17.912094,3.830775,0.841874,2.561823,54.763828,32.454220,16.920656,6.711044,4.795387,227.189423,16.820955,6.663965,2.800104,1.921223,5.958643,4.558269,1.930816,1.098184,2.544143,17.919239,10.747590,2.578820,0.846933,2.107937
1577421690.294868,90.000000,0.000000,3858.974365,3924.615479,4211.282227,4072.307617,4007.692383,450.000000,4.000000,,,,0.000000,4.000000,4.000000,4.000000,4.000000,4.000000,,,,,,,,,,,,,,,,,,,,,,,,,
1577421690.302678,91.000000,0.000000,3898.974365,3923.589844,4213.846191,4097.436035,4029.230713,16209.000000,4.000000,,,,0.000000,4.000000,4.000000,4.000000,4.000000,4.000000,,,,,,,,,,,,,,,,,,,,,,,,,
1577421690.310387,92.000000,0.000000,3871.281982,3903.076904,4175.897461,4068.205078,3997.435791,450.000000,4.000000,,,,0.000000,4.000000,4.000000,4.000000,4.000000,4.000000,,,,,,,,,,,,,,,,,,,,,,,,,
1577421690.318197,93.000000,0.000000,3836.410156,3900.512939,4153.333496,4043.589844,3964.102539,450.000000,4.000000,,,,0.000000,4.000000,4.000000,4.000000,4.000000,4.000000,,,,,,,,,,,,,,,,,,,,,,,,,
1577421690.325906,94.000000,0.000000,3840.000000,3905.641113,4152.307617,4040.000000,3968.205078,450.000000,4.000000,,,,0.000000,4.000000,4.000000,4.000000,4.000000,4.000000,,,,,,,,,,,,,,,,,,,,,,,,,
1577421690.333715,95.000000,0.000000,3852.820557,3888.718018,4148.205078,4040.000000,3980.512939,16209.000000,4.000000,,,,0.000000,4.000000,4.000000,4.000000,4.000000,4.000000,,,,,,,,,,,,,,,,,,,,,,,,,
1577421690.341425,96.000000,0.000000,3846.666748,3869.230713,4142.563965,4043.076904,3965.641113,450.000000,4.000000,,,,0.000000,4.000000,4.000000,4.000000,4.000000,4.000000,,,,,,,,,,,,,,,,,,,,,,,,,
1577421690.349233,97.000000,0.000000,3828.718018,3865.641113,4138.974121,4037.435791,3954.871826,450.000000,4.000000,,,,0.000000,4.000000,4.000000,4.000000,4.000000,4.000000,,,,,,,,,,,,,,,,,,,,,,,,,
1577421690.356942,98.000000,0.000000,3839.487061,3874.358887,4157.436035,4043.076904,3966.666748,450.000000,4.000000,,,,0.000000,4.000000,4.000000,4.000000,4.000000,4.000000,,,,,,,,,,,,,,,,,,,,,,,,,
1577421690.364751,99.000000,0.000000,3853.333252,3873.846191,4180.000000,4048.718018,3972.820557,16209.000000,4.000000,,,,0.000000,4.000000,4.000000,4.000000,4.000000,4.000000,,,,,,,,,,,,,,,,,,,,,,,,,
1577421690.372560,100.000000,0.000000,3843.076904,3887.692383,4200.000000,4041.025635,3966.666748,450.000000,4.000000,,,,0.000000,4.000000,4.000000,4.000000,4.000000,4.000000,,,,,,,,,,,,,,,,,,,,,,,,,
1577421690.380266,101.000000,0.000000,3847.179443,3943.589844,4252.820313,4056.923096,3971.794922,450.000000,4.000000,,,,0.000000,4.000000,4.000000,4.000000,4.000000,4.000000,,,,,,,,,,,,,,,,,,,,,,,,,
1577421690.387974,102.000000,0.000000,3872.307617,3982.564209,4321.538574,4084.615479,4000.000000,450.000000,4.000000,,,,0.000000,4.000000,4.000000,4.000000,4.000000,4.000000,,,,,,,,,,,,,,,,,,,,,,,,,
1577421690.395685,103.000000,0.000000,3885.641113,3992.820557,4402.563965,4092.820557,4004.102539,16209.000000,4.000000,,,,0.000000,4.000000,4.000000,4.000000,4.000000,4.000000,,,,,,,,,,,,,,,,,,,,,,,,,
1577421690.403496,104.000000,0.000000,3864.102539,4018.974365,4477.436035,4085.128174,3984.102539,450.000000,4.000000,,,,0.000000,4.000000,4.000000,4.000000,4.000000,4.000000,,,,,,,,,,,,,,,,,,,,,,,,,
1577421690.411306,105.000000,0.000000,3835.897461,4053.846191,4478.461426,4071.281982,3977.948730,450.000000,4.000000,,,,0.000000,4.000000,4.000000,4.000000,4.000000,4.000000,54.154934,19.272814,4.060623,0.964441,1.626312,105.647530,56.399906,30.568090,12.240738,6.405445,242.144745,18.370852,6.327634,3.421547,1.395385,6.611319,4.627898,2.401854,1.183198,1.568701,21.905792,11.019432,2.930840,1.023788,1.369753
1577421690.419014,106.000000,0.000000,3833.333252,4073.846191,4433.333496,4061.025635,3962.051270,450.000000,4.000000,,,,0.000000,4.000000,4.000000,4.000000,4.000000,4.000000,,,,,,,,,,,,,,,,,,,,,,,,,
1577421690.426724,107.000000,0.000000,3827.692383,4084.615479,4414.871582,4050.256348,3943.589844,16209.000000,4.000000,,,,0.000000,4.000000,4.000000,4.000000,4.000000,4.000000,,,,,,,,,,,,,,,,,,,,,,,,,
1577421690.434534,108.000000,0.000000,3831.281982,4110.769043,4408.717773,4057.435791,3954.358887,450.000000,4.000000,,,,0.000000,4.000000,4.000000,4.000000,4.000000,4.000000,,,,,,,,,,,,,,,,,,,,,,,,,
1577421690.442245,109.000000,0.000000,3856.923096,4163.077148,4358.461426,4068.205078,3966.666748,450.000000,4.000000,,,,0.000000,4.000000,4.000000,4.000000,4.000000,4.000000,,,,,,,,,,,,,,,,,,,,,,,,,
1577421690.450055,110.000000,0.000000,3861.538574,4220.512695,4298.974121,4058.974365,3965.641113,450.000000,4.000000,,,,0.000000,4.000000,4.000000,4.000000,4.000000,4.000000,,,,,,,,,,,,,,,,,,,,,,,,,
1577421690.457765,111.000000,0.000000,3868.718018,4277.436035,4297.948730,4078.974365,3984.102539,16209.000000,4.000000,,,,0.000000,4.000000,4.000000,4.000000,4.000000,4.000000,,,,,,,,,,,,,,,,,,,,,,,,,
1577421690.465575,112.000000,0.000000,3898.461426,4303.077148,4303.589844,4108.717773,4012.820557,450.000000,4.000000,,,,0.000000,4.000000,4.000000,4.000000,4.000000,4.000000,,,,,,,,,,,,,,,,,,,,,,,,,
1577421690.473284,113.000000,0.000000,3908.205078,4287.692383,4270.769043,4106.666504,4013.846191,450.000000,4.000000,,,,0.000000,4.000000,4.000000,4.000000,4.000000,4.000000,,,,,,,,,,,,,,,,,,,,,,,,,
1577421690.481093,114.000000,0.000000,3899.487061,4278.461426,4242.051270,4098.461426,3994.871826,450.000000,4.000000,,,,0.000000,4.000000,4.000000,4.000000,4.000000,4.000000,,,,,,,,,,,,,,,,,,,,,,,,,
1577421690.488903,115.000000,0.000000,3903.076904,4261.025879,4231.282227,4102.563965,3996.410156,16209.000000,4.000000,,,,0.000000,4.000000,4.000000,4.000000,4.000000,4.000000,,,,,,,,,,,,,,,,,,,,,,,,,
1577421690.496610,116.000000,0.000000,3906.153809,4191.282227,4213.846191,4101.025879,4003.589844,450.000000,4.000000,,,,0.000000,4.000000,4.000000,4.000000,4.000000,4.000000,,,,,,,,,,,,,,,,,,,,,,,,,
1577421690.504417,117.000000,0.000000,3880.000000,4118.461426,4171.282227,4064.102539,3969.743652,450.000000,4.000000,,,,0.000000,4.000000,4.000000,4.000000,4.000000,4.000000,,,,,,,,,,,,,,,,,,,,,,,,,
1577421690.512123,118.000000,0.000000,3868.205078,4120.000000,4135.384766,4045.641113,3957.948730,450.000000,4.000000,,,,0.000000,4.000000,4.000000,4.000000,4.000000,4.000000,,,,,,,,,,,,,,,,,,,,,,,,,
1577421690.519832,119.000000,0.000000,3889.743652,4157.948730,4121.538574,4070.256348,3984.615479,16209.000000,4.000000,,,,0.000000,4.000000,4.000000,4.000000,4.000000,4.000000,,,,,,,,,,,,,,,,,,,,,,,,,
1577421690.527641,120.000000,0.000000,3886.666748,4153.846191,4092.820557,4063.589844,3969.743652,450.000000,4.000000,,,,0.000000,4.000000,4.000000,4.000000,4.000000,4.000000,,,,,,,,,,,,,,,,,,,,,,,,,
1577421690.535350,121.000000,0.000000,3873.846191,4158.461426,4076.923096,4053.846191,3964.102539,450.000000,4.000000,,,,0.000000,4.000000,4.000000,4.000000,4.000000,4.000000,64.336037,19.561453,4.407895,1.092841,1.319582,169.253159,81.784927,45.643597,18.441759,8.732669,239.802261,19.016111,5.820025,3.812255,1.250771,7.119571,4.519844,2.882296,1.236437,1.161380,26.097115,10.994211,3.458917,1.175843,1.125680
1577421690.543159,122.000000,0.000000,3895.897461,4191.282227,4088.205078,4082.564209,3997.435791,450.000000,4.000000,,,,0.000000,4.000000,4.000000,4.000000,4.000000,4.000000,,,,,,,,,,,,,,,,,,,,,,,,,
1577421690.550868,123.000000,0.000000,3923.076904,4194.871582,4089.230713,4108.717773,4014.358887,16209.000000,4.000000,,,,0.000000,4.000000,4.000000,4.000000,4.000000,4.000000,,,,,,,,,,,,,,,,,,,,,,,,,
1577421690.558677,124.000000,0.000000,3934.358887,4183.589844,4087.179443,4113.333496,4017.948730,450.000000,4.000000,,,,0.000000,4.000000,4.000000,4.000000,4.000000,4.000000,,,,,,,,,,,,,,,,,,,,,,,,,
1577421690.566385,125.000000,0.000000,3934.358887,4185.641113,4085.128174,4097.948730,4016.410156,450.000000,4.000000,,,,0.000000,4.000000,4.000000,4.000000,4.000000,4.000000,,,,,,,,,,,,,,,,,,,,,,,,,
1577421690.574096,126.000000,0.000000,3926.666748,4189.743652,4076.410156,4087.179443,4010.769287,450.000000,4.000000,,,,0.000000,4.000000,4.000000,4.000000,4.000000,4.000000,,,,,,,,,,,,,,,,,,,,,,,,,
1577421690.581907,127.000000,0.000000,3917.435791,4176.410156,4068.205078,4086.153809,3998.461426,234.000000,4.000000,,,,0.000000,4.000000,4.000000,4.000000,4.000000,4.000000,,,,,,,,,,,,,,,,,,,,,,,,,
1577421690.589718,0.000000,0.000000,3917.948730,4160.512695,4061.025635,4076.923096,4000.512939,450.000000,4.000000,,,,0.000000,4.000000,4.000000,4.000000,4.000000,4.000000,,,,,,,,,,,,,,,,,,,,,,,,,
1577421690.597426,1.000000,0.000000,3935.384521,4171.794922,4066.153809,4078.974365,4022.564209,450.000000,4.000000,,,,0.000000,4.000000,4.000000,4.000000,4.000000,4.000000,,,,,,,,,,,,,,,,,,,,,,,,,
1577421690.605234,2.000000,0.000000,3941.025635,4190.769043,4075.384521,4085.641113,4018.461426,16220.000000,4.000000,,,,0.000000,4.000000,4.000000,4.000000,4.000000,4.000000,,,,,,,,,,,,,,,,,,,,,,,,,
1577421690.612943,3.000000,0.000000,3957.948730,4205.128418,4080.512939,4080.000000,4025.641113,450.000000,4.000000,,,,0.000000,4.000000,4.000000,4.000000,4.000000,4.000000,,,,,,,,,,,,,,,,,,,,,,,,,
1577421690.620750,4.000000,0.000000,4048.205078,4255.384766,4098.461426,4080.000000,4088.718018,16195.000000,4.000000,,,,0.000000,4.000000,4.000000,4.000000,4.000000,4.000000,,,,,,,,,,,,,,,,,,,,,,,,,
1577421690.628458,5.000000,0.000000,4205.641113,4357.436035,4147.179688,4118.974121,4187.692383,450.000000,4.000000,,,,0.000000,4.000000,4.000000,4.000000,4.000000,4.000000,,,,,,,,,,,,,,,,,,,,,,,,,
1577421690.636266,6.000000,0.000000,4349.743652,4439.487305,4192.820313,4165.128418,4272.820313,16147.000000,4.000000,,,,0.000000,4.000000,4.000000,4.000000,4.000000,4.000000,,,,,,,,,,,,,,,,,,,,,,,,,
1577421690.643974,7.000000,0.000000,4389.743652,4427.692383,4172.820313,4136.922852,4276.410156,450.000000,4.000000,,,,0.000000,4.000000,4.000000,4.000000,4.000000,4.000000,,,,,,,,,,,,,,,,,,,,,,,,,
1577421690.651781,8.000000,0.000000,4368.717773,4387.179688,4128.717773,4084.102539,4246.666504,450.000000,4.000000,,,,0.000000,4.000000,4.000000,4.000000,4.000000,4.000000,,,,,,,,,,,,,,,,,,,,,,,,,
1577421690.659488,9.000000,0.000000,4398.974121,4410.256348,4127.692383,4085.128174,4264.102539,16170.000000,4.000000,,,,0.000000,4.000000,4.000000,4.000000,4.000000,4.000000,71.843452,18.705696,4.996033,1.202569,1.489084,227.650574,100.572289,57.590279,23.432762,10.867702,222.414444,19.525906,5.573038,3.890924,1.362790,7.150135,4.190335,3.427330,1.263732,1.189488,29.573975,10.836009,4.277138,1.281264,1.254207
1577421690.667296,10.000000,0.000000,4429.743652,4433.333496,4118.974121,4077.435791,4276.410156,450.000000,4.000000,,,,0.000000,4.000000,4.000000,4.000000,4.000000,4.000000,,,,,,,,,,,,,,,,,,,,,,,,,
1577421690.675003,11.000000,0.000000,4408.717773,4394.871582,4090.256348,4057.435791,4264.615234,16220.000000,4.000000,,,,0.000000,4.000000,4.000000,4.000000,4.000000,4.000000,,,,,,,,,,,,,,,,,,,,,,,,,
1577421690.682713,12.000000,0.000000,4392.820313,4369.743652,4085.128174,4071.281982,4256.922852,450.000000,4.000000,,,,0.000000,4.000000,4.000000,4.000000,4.000000,4.000000,,,,,,,,,,,,,,,,,,,,,,,,,
1577421690.690522,13.000000,0.000000,4361.025879,4346.153809,4060.000000,4067.692383,4227.692383,450.000000,4.000000,,,,0.000000,4.000000,4.000000,4.000000,4.000000,4.000000,,,,,,,,,,,,,,,,,,,,,,,,,
1577421690.698231,14.000000,0.000000,4308.717773,4214.358887,4034.871826,4046.666748,4196.922852,450.000000,4.000000,,,,0.000000,4.000000,4.000000,4.000000,4.000000,4.000000,,,,,,,,,,,,,,,,,,,,,,,,,
1577421690.706040,15.000000,0.000000,4297.436035,4066.666748,4066.153809,4061.025635,4205.128418,16220.000000,4.000000,,,,0.000000,4.000000,4.000000,4.000000,4.000000,4.000000,,,,,,,,,,,,,,,,,,,,,,,,,
1577421690.713749,16.000000,0.000000,4298.461426,4072.820557,4087.692383,4082.051270,4202.051270,0.000000,4.000000,,,,0.000000,4.000000,4.000000,4.000000,4.000000,4.000000,,,,,,,,,,,,,,,,,,,,,,,,,
1577421690.721558,17.000000,0.000000,4247.179688,4156.922852,4061.538574,4075.897461,4158.974121,0.000000,4.000000,,,,0.000000,4.000000,4.000000,4.000000,4.000000,4.000000,,,,,,,,,,,,,,,,,,,,,,,,,
1577421690.729267,18.000000,0.000000,4175.384766,4165.128418,4031.794922,4052.307617,4121.538574,0.000000,4.000000,,,,0.000000,4.000000,4.000000,4.000000,4.000000,4.000000,,,,,,,,,,,,,,,,,,,,,,,,,
1577421690.737076,19.000000,0.000000,4155.897461,4159.487305,4033.846191,4056.410156,4115.384766,0.000000,4.000000,,,,0.000000,4.000000,4.000000,4.000000,4.000000,4.000000,,,,,,,,,,,,,,,,,,,,,,,,,
1577421690.744784,20.000000,0.000000,4145.128418,4185.641113,4033.333252,4065.641113,4111.282227,0.000000,4.000000,,,,0.000000,4.000000,4.000000,4.000000,4.000000,4.000000,,,,,,,,,,,,,,,,,,,,,,,,,
1577421690.752593,21.000000,0.000000,4105.641113,4189.743652,4016.410156,4054.358887,4097.948730,0.000000,4.000000,,,,0.000000,4.000000,4.000000,4.000000,4.000000,4.000000,,,,,,,,,,,,,,,,,,,,,,,,,
1577421690.760301,22.000000,0.000000,4091.281982,4192.307617,4014.358887,4055.384521,4089.230713,0.000000,4.000000,,,,0.000000,4.000000,4.000000,4.000000,4.000000,4.000000,,,,,,,,,,,,,,,,,,,,,,,,,
1577421690.768109,23.000000,0.000000,4075.897461,4185.128418,4008.205078,4039.487061,4081.538574,0.000000,4.000000,,,,0.000000,4.000000,4.000000,4.000000,4.000000,4.000000,,,,,,,,,,,,,,,,,,,,,,,,,
1577421690.775818,24.000000,0.000000,4064.615479,4190.769043,4006.666748,4042.051270,4092.820557,0.000000,4.000000,,,,0.000000,4.000000,4.000000,4.000000,4.000000,4.000000,,,,,,,,,,,,,,,,,,,,,,,,,
1577421690.783626,25.000000,0.000000,4073.846191,4223.077148,4021.538574,4078.461426,4112.307617,0.000000,4.000000,,,,0.000000,4.000000,4.000000,4.000000,4.000000,4.000000,76.408005,17.377945,5.900770,1.294431,1.841185,268.599060,106.814308,62.722038,25.515871,11.884601,197.361145,21.183414,6.020253,3.677321,1.545076,6.622551,3.800814,4.141206,1.282185,1.388296,32.123039,10.960661,5.433567,1.345019,1.522196
1577421690.791334,26.000000,0.000000,4055.897461,4218.461426,4027.692383,4068.205078,4094.358887,0.000000,4.000000,,,,0.000000,4.000000,4.000000,4.000000,4.000000,4.000000,,,,,,,,,,,,,,,,,,,,,,,,,
1577421690.799142,27.000000,0.000000,4033.333252,4195.384766,4044.102539,4038.461426,4067.692383,0.000000,4.000000,,,,0.000000,4.000000,4.000000,4.000000,4.000000,4.000000,,,,,,,,,,,,,,,,,,,,,,,,,
1577421690.806850,28.000000,0.000000,4027.692383,4193.333496,4057.948730,4034.358887,4064.615479,0.000000,4.000000,,,,0.000000,4.000000,4.000000,4.000000,4.000000,4.000000,,,,,,,,,,,,,,,,,,,,,,,,,
1577421690.814560,29.000000,0.000000,4024.615479,4210.256348,4057.435791,4036.923096,4065.641113,0.000000,4.000000,,,,0.000000,4.000000,4.000000,4.000000,4.000000,4.000000,,,,,,,,,,,,,,,,,,,,,,,,,
1577421690.822370,30.000000,0.000000,4011.794922,4215.384766,4061.538574,4035.897461,4055.897461,0.000000,4.000000,,,,0.000000,4.000000,4.000000,4.000000,4.000000,4.000000,,,,,,,,,,,,,,,,,,,,,,,,,
1577421690.830080,31.000000,0.000000,3988.718018,4196.410156,4044.615479,4028.718018,4040.000000,0.000000,4.000000,,,,0.000000,4.000000,4.000000,4.000000,4.000000,4.000000,,,,,,,,,,,,,,,,,,,,,,,,,
1577421690.837890,32.000000,0.000000,3978.974365,4197.436035,4020.000000,4024.615479,4030.256348,0.000000,4.000000,,,,0.000000,4.000000,4.000000,4.000000,4.000000,4.000000,,,,,,,,,,,,,,,,,,,,,,,,,
1577421690.845600,33.000000,0.000000,3978.974365,4206.153809,4018.974365,4021.025635,4023.589844,0.000000,4.000000,,,,0.000000,4.000000,4.000000,4.000000,4.000000,4.000000,,,,,,,,,,,,,,,,,,,,,,,,,
1577421690.853409,34.000000,0.000000,3974.358887,4196.922852,4023.589844,4024.615479,4017.948730,0.000000,4.000000,,,,0.000000,4.000000,4.000000,4.000000,4.000000,4.000000,,,,,,,,,,,,,,,,,,,,,,,,,
1577421690.861119,35.000000,0.000000,3981.025635,4205.128418,4032.307617,4047.692383,4028.205078,0.000000,4.000000,,,,0.000000,4.000000,4.000000,4.000000,4.000000,4.000000,,,,,,,,,,,,,,,,,,,,,,,,,
1577421690.868929,36.000000,0.000000,4011.794922,4217.436035,4052.307617,4078.974365,4057.948730,0.000000,4.000000,,,,0.000000,4.000000,4.000000,4.000000,4.000000,4.000000,,,,,,,,,,,,,,,,,,,,,,,,,
1577421690.876638,37.000000,0.000000,4028.718018,4201.025879,4068.718018,4083.076904,4069.743652,0.000000,4.000000,,,,0.000000,4.000000,4.000000,4.000000,4.000000,4.000000,,,,,,,,,,,,,,,,,,,,,,,,,
1577421690.884448,38.000000,0.000000,4000.512939,4173.846191,4072.307617,4049.230713,4040.000000,0.000000,4.000000,,,,0.000000,4.000000,4.000000,4.000000,4.000000,4.000000,,,,,,,,,,,,,,,,,,,,,,,,,
1577421690.892157,39.000000,0.000000,3983.589844,4179.487305,4087.692383,4035.897461,4030.769287,0.000000,4.000000,,,,0.000000,4.000000,4.000000,4.000000,4.000000,4.000000,,,,,,,,,,,,,,,,,,,,,,,,,
1577421690.899966,40.000000,0.000000,4000.000000,4186.666504,4112.307617,4054.871826,4045.641113,0.000000,4.000000,,,,0.000000,4.000000,4.000000,4.000000,4.000000,4.000000,,,,,,,,,,,,,,,,,,,,,,,,,
1577421690.907675,41.000000,0.000000,3994.871826,4165.128418,4101.025879,4044.615479,4035.897461,0.000000,4.000000,,,,0.000000,4.000000,4.000000,4.000000,4.000000,4.000000,84.232040,16.963430,7.396682,1.464173,2.159338,286.726257,100.362900,59.872711,24.044621,11.361789,175.559265,25.182589,7.507093,3.297801,1.682349,5.740724,3.689630,5.181692,1.323771,1.561254,35.306129,11.895363,7.003730,1.424439,1.756784
1577421690.915484,42.000000,0.000000,3987.692383,4175.897461,4074.358887,4029.230713,4030.769287,0.000000,4.000000,,,,0.000000,4.000000,4.000000,4.000000,4.000000,4.000000,,,,,,,,,,,,,,,,,,,,,,,,,
1577421690.923193,43.000000,0.000000,3991.794922,4203.077148,4052.307617,4029.230713,4027.692383,0.000000,4.000000,,,,0.000000,4.000000,4.000000,4.000000,4.000000,4.000000,,,,,,,,,,,,,,,,,,,,,,,,,
1577421690.931001,44.000000,0.000000,3981.538574,4195.384766,4041.025635,4018.461426,4017.435791,0.000000,4.000000,,,,0.000000,4.000000,4.000000,4.000000,4.000000,4.000000,,,,,,,,,,,,,,,,,,,,,,,,,
1577421690.938710,45.000000,0.000000,3981.025635,4209.743652,4074.871826,4024.615479,4032.307617,0.000000,4.000000,,,,0.000000,4.000000,4.000000,4.000000,4.000000,4.000000,,,,,,,,,,,,,,,,,,,,,,,,,
1577421690.946518,46.000000,0.000000,4007.692383,4275.384766,4125.641113,4059.487061,4057.435791,0.000000,4.000000,,,,0.000000,4.000000,4.000000,4.000000,4.000000,4.000000,,,,,,,,,,,,,,,,,,,,,,,,,
1577421690.954227,47.000000,0.000000,4039.487061,4330.769043,4145.641113,4082.564209,4074.871826,0.000000,4.000000,,,,0.000000,4.000000,4.000000,4.000000,4.000000,4.000000,,,,,,,,,,,,,,,,,,,,,,,,,
1577421690.962035,48.000000,0.000000,4032.820557,4324.615234,4145.128418,4069.230713,4063.076904,0.000000,4.000000,,,,0.000000,4.000000,4.000000,4.000000,4.000000,4.000000,,,,,,,,,,,,,,,,,,,,,,,,,
1577421690.969744,49.000000,0.000000,4006.666748,4304.102539,4150.769043,4053.333252,4048.205078,0.000000,4.000000,,,,0.000000,4.000000,4.000000,4.000000,4.000000,4.000000,,,,,,,,,,,,,,,,,,,,,,,,,
1577421690.977552,50.000000,0.000000,4012.820557,4314.358887,4166.666504,4058.974365,4057.435791,0.000000,4.000000,,,,0.000000,4.000000,4.000000,4.000000,4.000000,4.000000,,,,,,,,,,,,,,,,,,,,,,,,,
1577421690.985260,51.000000,0.000000,4011.794922,4297.436035,4171.282227,4051.281982,4048.718018,0.000000,4.000000,,,,0.000000,4.000000,4.000000,4.000000,4.000000,4.000000,,,,,,,,,,,,,,,,,,,,,,,,,
1577421690.993068,52.000000,0.000000,4008.205078,4246.153809,4171.794922,4048.205078,4049.230713,0.000000,4.000000,,,,0.000000,4.000000,4.000000,4.000000,4.000000,4.000000,,,,,,,,,,,,,,,,,,,,,,,,,
1577421691.000776,53.000000,0.000000,4017.948730,4216.410156,4165.128418,4054.358887,4062.051270,0.000000,4.000000,,,,0.000000,4.000000,4.000000,4.000000,4.000000,4.000000,,,,,,,,,,,,,,,,,,,,,,,,,
1577421691.008486,54.000000,0.000000,4004.615479,4212.820313,4140.512695,4031.281982,4046.153809,0.000000,4.000000,,,,0.000000,4.000000,4.000000,4.000000,4.000000,4.000000,,,,,,,,,,,,,,,,,,,,,,,,,
1577421691.016296,55.000000,0.000000,4017.435791,4231.282227,4142.563965,4041.538574,4058.974365,0.000000,4.000000,,,,0.000000,4.000000,4.000000,4.000000,4.000000,4.000000,,,,,,,,,,,,,,,,,,,,,,,,,
1577421691.024106,56.000000,0.000000,4061.025635,4252.307617,4162.563965,4089.743652,4098.974121,0.000000,4.000000,,,,0.000000,4.000000,4.000000,4.000000,4.000000,4.000000,,,,,,,,,,,,,,,,,,,,,,,,,
1577421691.031813,57.000000,0.000000,4059.487061,4254.871582,4149.230957,4085.128174,4095.897461,0.000000,4.000000,,,,0.000000,4.000000,4.000000,4.000000,4.000000,4.000000,107.080421,19.318460,9.862789,1.846630,2.382081,287.895172,87.270287,50.662521,19.885578,9.572219,165.311050,31.505457,10.097186,2.898853,1.759440,4.920701,4.165218,6.656826,1.413861,1.656790,42.285629,14.056028,9.024266,1.593562,1.909471
1577421691.039621,58.000000,0.000000,4023.589844,4245.128418,4117.436035,4044.102539,4056.410156,0.000000,4.000000,,,,0.000000,4.000000,4.000000,4.000000,4.000000,4.000000,,,,,,,,,,,,,,,,,,,,,,,,,
1577421691.047328,59.000000,0.000000,4001.538574,4229.743652,4117.948730,4047.179443,4040.512939,0.000000,4.000000,,,,0.000000,4.000000,4.000000,4.000000,4.000000,4.000000,,,,,,,,,,,,,,,,,,,,,,,,,
1577421691.055135,60.000000,0.000000,4011.794922,4229.743652,4163.589844,4086.666748,4064.102539,0.000000,4.000000,,,,0.000000,4.000000,4.000000,4.000000,4.000000,4.000000,,,,,,,,,,,,,,,,,,,,,,,,,
1577421691.062842,61.000000,0.000000,4013.333252,4235.897461,4182.051270,4070.256348,4058.974365,0.000000,4.000000,,,,0.000000,4.000000,4.000000,4.000000,4.000000,4.000000,,,,,,,,,,,,,,,,,,,,,,,,,
1577421691.070552,62.000000,0.000000,3980.000000,4227.692383,4165.641113,4032.307617,4020.000000,0.000000,4.000000,,,,0.000000,4.000000,4.000000,4.000000,4.000000,4.000000,,,,,,,,,,,,,,,,,,,,,,,,,
1577421691.078361,63.000000,0.000000,3963.076904,4221.025879,4183.589844,4056.923096,4014.871826,0.000000,4.000000,,,,0.000000,4.000000,4.000000,4.000000,4.000000,4.000000,,,,,,,,,,,,,,,,,,,,,,,,,
1577421691.086170,64.000000,0.000000,3969.743652,4224.615234,4209.230957,4077.435791,4033.846191,450.000000,4.000000,,,,0.000000,4.000000,4.000000,4.000000,4.000000,4.000000,,,,,,,,,,,,,,,,,,,,,,,,,
1577421691.093877,65.000000,0.000000,3978.974365,4240.512695,4201.025879,4069.743652,4042.564209,450.000000,4.000000,,,,0.000000,4.000000,4.000000,4.000000,4.000000,4.000000,,,,,,,,,,,,,,,,,,,,,,,,,
1577421691.101586,66.000000,0.000000,3997.948730,4250.769043,4183.077148,4085.641113,4052.307617,16216.000000,4.000000,,,,0.000000,4.000000,4.000000,4.000000,4.000000,4.000000,,,,,,,,,,,,,,,,,,,,,,,,,
1577421691.109395,67.000000,0.000000,4009.743652,4231.794922,4157.948730,4104.615234,4062.051270,450.000000,4.000000,,,,0.000000,4.000000,4.000000,4.000000,4.000000,4.000000,,,,,,,,,,,,,,,,,,,,,,,,,
1577421691.117103,68.000000,0.000000,3994.871826,4208.205078,4117.948730,4087.692383,4047.179443,16193.000000,4.000000,,,,0.000000,4.000000,4.000000,4.000000,4.000000,4.000000,,,,,,,,,,,,,,,,,,,,,,,,,
1577421691.124914,69.000000,0.000000,3980.512939,4194.358887,4093.846191,4069.230713,4031.281982,450.000000,4.000000,,,,0.000000,4.000000,4.000000,4.000000,4.000000,4.000000,,,,,,,,,,,,,,,,,,,,,,,,,
1577421691.132724,70.000000,0.000000,3993.846191,4192.307617,4110.256348,4080.000000,4048.205078,16150.000000,4.000000,,,,0.000000,4.000000,4.000000,4.000000,4.000000,4.000000,,,,,,,,,,,,,,,,,,,,,,,,,
1577421691.140535,71.000000,0.000000,3998.974365,4198.461426,4135.897461,4085.641113,4054.871826,450.000000,4.000000,,,,0.000000,4.000000,4.000000,4.000000,4.000000,4.000000,,,,,,,,,,,,,,,,,,,,,,,,,
1577421691.148243,72.000000,0.000000,3988.718018,4196.410156,4143.077148,4078.974365,4043.589844,450.000000,4.000000,,,,0.000000,4.000000,4.000000,4.000000,4.000000,4.000000,,,,,,,,,,,,,,,,,,,,,,,,,
1577421691.156051,73.000000,0.000000,3986.153809,4197.436035,4151.282227,4075.897461,4034.871826,16171.000000,4.000000,,,,0.000000,4.000000,4.000000,4.000000,4.000000,4.000000,150.803711,25.326014,13.436962,2.496467,2.514966,283.173279,75.986336,38.833134,14.945527,7.259081,167.736404,38.612175,13.557412,2.604490,1.791154,4.318925,5.266078,8.512478,1.554731,1.685460,54.219269,17.332741,11.382684,1.887369,1.986089
1577421691.163760,74.000000,0.000000,3987.179443,4213.333496,4172.307617,4067.692383,4028.718018,450.000000,4.000000,,,,0.000000,4.000000,4.000000,4.000000,4.000000,4.000000,,,,,,,,,,,,,,,,,,,,,,,,,
1577421691.171567,75.000000,0.000000,3993.846191,4232.307617,4196.410156,4075.897461,4046.666748,16216.000000,4.000000,,,,0.000000,4.000000,4.000000,4.000000,4.000000,4.000000,,,,,,,,,,,,,,,,,,,,,,,,,
1577421691.179276,76.000000,0.000000,4015.384521,4248.717773,4210.769043,4094.871826,4081.025635,450.000000,4.000000,,,,0.000000,4.000000,4.000000,4.000000,4.000000,4.000000,,,,,,,,,,,,,,,,,,,,,,,,,
1577421691.187084,77.000000,0.000000,4048.205078,4267.692383,4215.384766,4100.000000,4101.025879,450.000000,4.000000,,,,0.000000,4.000000,4.000000,4.000000,4.000000,4.000000,,,,,,,,,,,,,,,,,,,,,,,,,
1577421691.194791,78.000000,0.000000,4065.641113,4272.820313,4214.358887,4094.871826,4095.897461,450.000000,4.000000,,,,0.000000,4.000000,4.000000,4.000000,4.000000,4.000000,,,,,,,,,,,,,,,,,,,,,,,,,
1577421691.202599,79.000000,0.000000,4048.205078,4256.922852,4196.410156,4082.051270,4078.974365,16216.000000,4.000000,,,,0.000000,4.000000,4.000000,4.000000,4.000000,4.000000,,,,,,,,,,,,,,,,,,,,,,,,,
1577421691.210306,80.000000,0.000000,4029.230713,4259.487305,4176.410156,4073.333252,4076.923096,450.000000,4.000000,,,,0.000000,4.000000,4.000000,4.000000,4.000000,4.000000,,,,,,,,,,,,,,,,,,,,,,,,,
1577421691.218114,81.000000,0.000000,4040.512939,4310.256348,4172.820313,4076.410156,4088.718018,450.000000,4.000000,,,,0.000000,4.000000,4.000000,4.000000,4.000000,4.000000,,,,,,,,,,,,,,,,,,,,,,,,,
1577421691.225822,82.000000,0.000000,4054.358887,4364.102539,4167.692383,4075.384521,4096.922852,450.000000,4.000000,,,,0.000000,4.000000,4.000000,4.000000,4.000000,4.000000,,,,,,,,,,,,,,,,,,,,,,,,,
1577421691.233629,83.000000,0.000000,4061.025635,4372.307617,4164.102539,4079.487061,4098.461426,16216.000000,4.000000,,,,0.000000,4.000000,4.000000,4.000000,4.000000,4.000000,,,,,,,,,,,,,,,,,,,,,,,,,
1577421691.241337,84.000000,0.000000,4073.846191,4378.974121,4162.051270,4092.820557,4098.974121,450.000000,4.000000,,,,0.000000,4.000000,4.000000,4.000000,4.000000,4.000000,,,,,,,,,,,,,,,,,,,,,,,,,
1577421691.249046,85.000000,0.000000,4073.846191,4435.897461,4152.307617,4090.769287,4108.205078,450.000000,4.000000,,,,0.000000,4.000000,4.000000,4.000000,4.000000,4.000000,,,,,,,,,,,,,,,,,,,,,,,,,
1577421691.256856,86.000000,0.000000,4071.281982,4490.256348,4155.384766,4081.025635,4122.563965,450.000000,4.000000,,,,0.000000,4.000000,4.000000,4.000000,4.000000,4.000000,,,,,,,,,,,,,,,,,,,,,,,,,
1577421691.264565,87.000000,0.000000,4097.436035,4488.205078,4171.282227,4096.410156,4140.000000,16216.000000,4.000000,,,,0.000000,4.000000,4.000000,4.000000,4.000000,4.000000,,,,,,,,,,,,,,,,,,,,,,,,,
1577421691.272476,88.000000,0.000000,4129.230957,4482.563965,4175.897461,4125.128418,4156.410156,450.000000,4.000000,,,,0.000000,4.000000,4.000000,4.000000,4.000000,4.000000,,,,,,,,,,,,,,,,,,,,,,,,,
1577421691.280288,89.000000,0.000000,4116.922852,4490.769043,4153.846191,4114.871582,4142.051270,450.000000,4.000000,,,,0.000000,4.000000,4.000000,4.000000,4.000000,4.000000,211.465210,33.990074,17.703930,3.331638,2.596750,281.975098,72.543289,28.420147,11.132452,5.239664,177.596283,44.062271,17.079758,2.462065,1.801888,4.149476,6.693702,10.461782,1.721580,1.693599,70.104034,20.948160,13.740581,2.268461,2.022215
1577421691.288199,90.000000,0.000000,4078.974365,4468.717773,4111.282227,4069.230713,4105.641113,450.000000,4.000000,,,,0.000000,4.000000,4.000000,4.000000,4.000000,4.000000,,,,,,,,,,,,,,,,,,,,,,,,,
1577421691.296010,91.000000,0.000000,4070.256348,4464.615234,4093.333252,4055.897461,4086.153809,16216.000000,4.000000,,,,0.000000,4.000000,4.000000,4.000000,4.000000,4.000000,,,,,,,,,,,,,,,,,,,,,,,,,
1577421691.303921,92.000000,0.000000,4091.794922,4523.589844,4114.871582,4086.153809,4100.512695,450.000000,4.000000,,,,0.000000,4.000000,4.000000,4.000000,4.000000,4.000000,,,,,,,,,,,,,,,,,,,,,,,,,
1577421691.311732,93.000000,0.000000,4128.717773,4598.461426,4143.077148,4118.461426,4141.538574,450.000000,4.000000,,,,0.000000,4.000000,4.000000,4.000000,4.000000,4.000000,,,,,,,,,,,,,,,,,,,,,,,,,
1577421691.319643,94.000000,0.000000,4150.256348,4619.487305,4155.384766,4120.000000,4155.897461,450.000000,4.000000,,,,0.000000,4.000000,4.000000,4.000000,4.000000,4.000000,,,,,,,,,,,,,,,,,,,,,,,,,
1577421691.327454,95.000000,0.000000,4140.512695,4590.256348,4162.563965,4102.563965,4145.641113,16216.000000,4.000000,,,,0.000000,4.000000,4.000000,4.000000,4.000000,4.000000,,,,,,,,,,,,,,,,,,,,,,,,,
1577421691.335364,96.000000,0.000000,4136.922852,4600.512695,4190.769043,4105.641113,4148.205078,450.000000,4.000000,,,,0.000000,4.000000,4.000000,4.000000,4.000000,4.000000,,,,,,,,,,,,,,,,,,,,,,,,,
1577421691.343175,97.000000,0.000000,4158.461426,4651.794922,4237.436035,4125.128418,4166.153809,450.000000,4.000000,,,,0.000000,4.000000,4.000000,4.000000,4.000000,4.000000,,,,,,,,,,,,,,,,,,,,,,,,,
1577421691.350885,98.000000,0.000000,4189.743652,4667.692383,4311.282227,4133.846191,4181.025879,450.000000,4.000000,,,,0.000000,4.000000,4.000000,4.000000,4.000000,4.000000,,,,,,,,,,,,,,,,,,,,,,,,,
1577421691.358696,99.000000,0.000000,4185.641113,4646.666504,4395.384766,4115.384766,4164.615234,16216.000000,4.000000,,,,0.000000,4.000000,4.000000,4.000000,4.000000,4.000000,,,,,,,,,,,,,,,,,,,,,,,,,
1577421691.366411,100.000000,0.000000,4156.922852,4638.461426,4424.102539,4089.230713,4147.179688,450.000000,4.000000,,,,0.000000,4.000000,4.000000,4.000000,4.000000,4.000000,,,,,,,,,,,,,,,,,,,,,,,,,
1577421691.374327,101.000000,0.000000,4170.769043,4663.077148,4434.358887,4095.897461,4163.077148,450.000000,4.000000,,,,0.000000,4.000000,4.000000,4.000000,4.000000,4.000000,,,,,,,,,,,,,,,,,,,,,,,,,
1577421691.382144,102.000000,0.000000,4188.717773,4680.512695,4479.487305,4106.666504,4173.333496,450.000000,4.000000,,,,0.000000,4.000000,4.000000,4.000000,4.000000,4.000000,,,,,,,,,,,,,,,,,,,,,,,,,
1577421691.389961,103.000000,0.000000,4176.410156,4671.282227,4511.794922,4092.307617,4164.102539,16216.000000,4.000000,,,,0.000000,4.000000,4.000000,4.000000,4.000000,4.000000,,,,,,,,,,,,,,,,,,,,,,,,,
1577421691.397875,104.000000,0.000000,4178.974121,4659.487305,4500.512695,4086.153809,4164.102539,450.000000,4.000000,,,,0.000000,4.000000,4.000000,4.000000,4.000000,4.000000,,,,,,,,,,,,,,,,,,,,,,,,,
1577421691.405689,105.000000,0.000000,4184.102539,4665.641113,4494.358887,4081.538574,4162.051270,450.000000,4.000000,,,,0.000000,4.000000,4.000000,4.000000,4.000000,4.000000,270.330933,42.590843,21.753868,4.158780,2.662293,283.067841,77.126472,21.765450,9.408296,4.011089,183.404129,46.179771,19.650213,2.449078,1.810611,4.139731,7.931366,12.078238,1.869591,1.735743,84.416191,23.720602,15.630166,2.645267,2.056445
1577421691.413603,106.000000,0.000000,4169.230957,4686.666504,4524.102539,4070.769287,4145.128418,450.000000,4.000000,,,,0.000000,4.000000,4.000000,4.000000,4.000000,4.000000,,,,,,,,,,,,,,,,,,,,,,,,,
1577421691.421417,107.000000,0.000000,4167.179688,4700.512695,4538.461426,4088.718018,4154.871582,16216.000000,4.000000,,,,0.000000,4.000000,4.000000,4.000000,4.000000,4.000000,,,,,,,,,,,,,,,,,,,,,,,,,
1577421691.429331,108.000000,0.000000,4189.230957,4708.205078,4505.128418,4118.974121,4182.051270,450.000000,4.000000,,,,0.000000,4.000000,4.000000,4.000000,4.000000,4.000000,,,,,,,,,,,,,,,,,,,,,,,,,
1577421691.437145,109.000000,0.000000,4193.846191,4712.307617,4451.794922,4118.974121,4169.743652,450.000000,4.000000,,,,0.000000,4.000000,4.000000,4.000000,4.000000,4.000000,,,,,,,,,,,,,,,,,,,,,,,,,
1577421691.445059,110.000000,0.000000,4156.922852,4698.461426,4403.077148,4105.641113,4145.641113,450.000000,4.000000,,,,0.000000,4.000000,4.000000,4.000000,4.000000,4.000000,,,,,,,,,,,,,,,,,,,,,,,,,
1577421691.452872,111.000000,0.000000,4141.538574,4688.205078,4382.051270,4114.358887,4156.410156,16216.000000,4.000000,,,,0.000000,4.000000,4.000000,4.000000,4.000000,4.000000,,,,,,,,,,,,,,,,,,,,,,,,,
1577421691.460686,112.000000,0.000000,4149.230957,4688.717773,4360.512695,4124.102539,4162.051270,450.000000,4.000000,,,,0.000000,4.000000,4.000000,4.000000,4.000000,4.000000,,,,,,,,,,,,,,,,,,,,,,,,,
1577421691.468597,113.000000,0.000000,4128.205078,4675.897461,4316.410156,4113.846191,4136.922852,450.000000,4.000000,,,,0.000000,4.000000,4.000000,4.000000,4.000000,4.000000,,,,,,,,,,,,,,,,,,,,,,,,,
1577421691.476510,114.000000,0.000000,4120.512695,4666.666504,4291.282227,4115.897461,4130.256348,450.000000,4.000000,,,,0.000000,4.000000,4.000000,4.000000,4.000000,4.000000,,,,,,,,,,,,,,,,,,,,,,,,,
1577421691.484323,115.000000,0.000000,4142.563965,4662.563965,4278.461426,4125.641113,4146.153809,16216.000000,4.000000,,,,0.000000,4.000000,4.000000,4.000000,4.000000,4.000000,,,,,,,,,,,,,,,,,,,,,,,,,
1577421691.492236,116.000000,0.000000,4141.025879,4648.205078,4254.358887,4114.358887,4145.641113,450.000000,4.000000,,,,0.000000,4.000000,4.000000,4.000000,4.000000,4.000000,,,,,,,,,,,,,,,,,,,,,,,,,
1577421691.500049,117.000000,0.000000,4131.794922,4644.102539,4238.974121,4111.282227,4143.077148,450.000000,4.000000,,,,0.000000,4.000000,4.000000,4.000000,4.000000,4.000000,,,,,,,,,,,,,,,,,,,,,,,,,
1577421691.507962,118.000000,0.000000,4157.436035,4638.974121,4231.282227,4133.333496,4165.641113,450.000000,4.000000,,,,0.000000,4.000000,4.000000,4.000000,4.000000,4.000000,,,,,,,,,,,,,,,,,,,,,,,,,
1577421691.515775,119.000000,0.000000,4182.051270,4607.179688,4201.538574,4133.333496,4176.410156,16216.000000,4.000000,,,,0.000000,4.000000,4.000000,4.000000,4.000000,4.000000,,,,,,,,,,,,,,,,,,,,,,,,,
1577421691.523687,120.000000,0.000000,4160.000000,4572.820313,4161.025879,4101.538574,4145.641113,450.000000,4.000000,,,,0.000000,4.000000,4.000000,4.000000,4.000000,4.000000,,,,,,,,,,,,,,,,,,,,,,,,,
1577421691.531500,121.000000,0.000000,4150.769043,4576.922852,4156.410156,4100.512695,4142.051270,450.000000,4.000000,,,,0.000000,4.000000,4.000000,4.000000,4.000000,4.000000,307.794006,47.808647,24.363184,4.779765,2.717086,278.745514,84.045723,18.766716,9.448700,3.576823,178.368210,44.686867,20.387632,2.513249,1.817741,4.101173,8.460165,12.939183,1.980020,1.843634,92.228714,24.455933,16.551357,2.946568,2.102164
1577421691.539412,122.000000,0.000000,4177.948730,4572.820313,4158.461426,4122.051270,4170.769043,450.000000,4.000000,,,,0.000000,4.000000,4.000000,4.000000,4.000000,4.000000,,,,,,,,,,,,,,,,,,,,,,,,,
1577421691.547327,123.000000,0.000000,4181.025879,4530.769043,4131.794922,4111.794922,4167.692383,16216.000000,4.000000,,,,0.000000,4.000000,4.000000,4.000000,4.000000,4.000000,,,,,,,,,,,,,,,,,,,,,,,,,
1577421691.555141,124.000000,0.000000,4165.128418,4521.025879,4119.487305,4099.487305,4154.871582,450.000000,4.000000,,,,0.000000,4.000000,4.000000,4.000000,4.000000,4.000000,,,,,,,,,,,,,,,,,,,,,,,,,
1577421691.562956,125.000000,0.000000,4163.077148,4537.948730,4122.563965,4101.538574,4157.948730,450.000000,4.000000,,,,0.000000,4.000000,4.000000,4.000000,4.000000,4.000000,,,,,,,,,,,,,,,,,,,,,,,,,
1577421691.570868,126.000000,0.000000,4170.769043,4523.589844,4113.846191,4102.051270,4169.230957,450.000000,4.000000,,,,0.000000,4.000000,4.000000,4.000000,4.000000,4.000000,,,,,,,,,,,,,,,,,,,,,,,,,
1577421691.578782,127.000000,0.000000,4182.563965,4503.589844,4118.974121,4110.256348,4173.333496,234.000000,4.000000,,,,0.000000,4.000000,4.000000,4.000000,4.000000,4.000000,,,,,,,,,,,,,,,,,,,,,,,,,
1577421691.586596,0.000000,0.000000,4187.179688,4504.102539,4135.384766,4117.436035,4166.666504,450.000000,4.000000,,,,0.000000,4.000000,4.000000,4.000000,4.000000,4.000000,,,,,,,,,,,,,,,,,,,,,,,,,
1577421691.594410,1.000000,0.000000,4183.589844,4516.922852,4149.230957,4122.563965,4172.307617,450.000000,4.000000,,,,0.000000,4.000000,4.000000,4.000000,4.000000,4.000000,,,,,,,,,,,,,,,,,,,,,,,,,
1577421691.602322,2.000000,0.000000,4184.615234,4518.461426,4176.410156,4128.717773,4185.641113,16212.000000,4.000000,,,,0.000000,4.000000,4.000000,4.000000,4.000000,4.000000,,,,,,,,,,,,,,,,,,,,,,,,,
1577421691.610241,3.000000,1.000000,4198.860352,4506.381836,4191.852051,4134.814941,4194.814941,450.000000,4.000000,,,,0.000000,4.000000,4.000000,4.000000,4.000000,4.000000,,,,,,,,,,,,,,,,,,,,,,,,,
1577421691.618059,4.000000,1.000000,4213.105469,4494.301758,4207.293457,4140.911621,4203.988770,16193.000000,4.000000,,,,0.000000,4.000000,4.000000,4.000000,4.000000,4.000000,,,,,,,,,,,,,,,,,,,,,,,,,
1577421691.625877,5.000000,1.000000,4227.350586,4482.222168,4222.734863,4147.008789,4213.162598,450.000000,4.000000,,,,0.000000,4.000000,4.000000,4.000000,4.000000,4.000000,,,,,,,,,,,,,,,,,,,,,,,,,
1577421691.633696,6.000000,1.000000,4241.595215,4470.142578,4238.176758,4153.105469,4222.336426,16150.000000,4.000000,,,,0.000000,4.000000,4.000000,4.000000,4.000000,4.000000,,,,,,,,,,,,,,,,,,,,,,,,,
1577421691.641514,7.000000,1.000000,4255.840332,4458.062500,4253.618164,4159.202148,4231.509766,450.000000,4.000000,,,,0.000000,4.000000,4.000000,4.000000,4.000000,4.000000,,,,,,,,,,,,,,,,,,,,,,,,,
1577421691.649333,8.000000,1.000000,4270.085449,4445.982910,4269.060059,4165.299316,4240.683594,450.000000,4.000000,,,,0.000000,4.000000,4.000000,4.000000,4.000000,4.000000,,,,,,,,,,,,,,,,,,,,,,,,,
1577421691.657151,9.000000,1.000000,4284.330566,4433.903320,4284.501465,4171.395996,4249.857422,16171.000000,4.000000,,,,0.000000,4.000000,4.000000,4.000000,4.000000,4.000000,307.332977,47.259026,24.751665,5.078283,2.734609,261.800293,85.681824,17.676857,10.056900,3.570731,164.123795,40.798855,18.888264,2.622313,1.812486,3.812561,8.057382,12.831143,2.066773,2.005774,89.126129,22.579172,16.347471,3.150562,2.140640
1577421691.664970,10.000000,1.000000,4298.575684,4421.823242,4299.942871,4177.492676,4259.031250,450.000000,4.000000,,,,0.000000,4.000000,4.000000,4.000000,4.000000,4.000000,,,,,,,,,,,,,,,,,,,,,,,,,
1577421691.672788,11.000000,0.000000,4312.820313,4409.743652,4315.384766,4183.589844,4268.205078,16206.000000,4.000000,,,,0.000000,4.000000,4.000000,4.000000,4.000000,4.000000,,,,,,,,,,,,,,,,,,,,,,,,,
1577421691.680491,12.000000,0.000000,4314.358887,4388.717773,4312.820313,4183.589844,4265.641113,450.000000,4.000000,,,,0.000000,4.000000,4.000000,4.000000,4.000000,4.000000,,,,,,,,,,,,,,,,,,,,,,,,,
1577421691.688293,13.000000,0.000000,4330.769043,4387.179688,4286.153809,4185.641113,4270.256348,450.000000,4.000000,,,,0.000000,4.000000,4.000000,4.000000,4.000000,4.000000,,,,,,,,,,,,,,,,,,,,,,,,,
1577421691.696095,14.000000,0.000000,4352.307617,4247.179688,4271.794922,4191.794922,4280.000000,450.000000,4.000000,,,,0.000000,4.000000,4.000000,4.000000,4.000000,4.000000,,,,,,,,,,,,,,,,,,,,,,,,,
1577421691.703795,15.000000,0.000000,4340.000000,3994.871826,4256.410156,4183.077148,4272.307617,16206.000000,4.000000,,,,0.000000,4.000000,4.000000,4.000000,4.000000,4.000000,,,,,,,,,,,,,,,,,,,,,,,,,
1577421691.711594,16.000000,0.000000,4322.051270,3915.897461,4235.897461,4183.589844,4287.179688,0.000000,4.000000,,,,0.000000,4.000000,4.000000,4.000000,4.000000,4.000000,,,,,,,,,,,,,,,,,,,,,,,,,
1577421691.719294,17.000000,0.000000,4346.666504,4029.743652,4241.538574,4207.692383,4317.436035,0.000000,4.000000,,,,0.000000,4.000000,4.000000,4.000000,4.000000,4.000000,,,,,,,,,,,,,,,,,,,,,,,,,
1577421691.727000,18.000000,0.000000,4362.051270,4091.794922,4238.974121,4207.179688,4306.666504,0.000000,4.000000,,,,0.000000,4.000000,4.000000,4.000000,4.000000,4.000000,,,,,,,,,,,,,,,,,,,,,,,,,
1577421691.734709,19.000000,0.000000,4348.205078,4117.948730,4227.692383,4196.922852,4287.692383,0.000000,4.000000,,,,0.000000,4.000000,4.000000,4.000000,4.000000,4.000000,,,,,,,,,,,,,,,,,,,,,,,,,
1577421691.742517,20.000000,0.000000,4331.794922,4177.436035,4225.641113,4197.948730,4285.128418,0.000000,4.000000,,,,0.000000,4.000000,4.000000,4.000000,4.000000,4.000000,,,,,,,,,,,,,,,,,,,,,,,,,
1577421691.750325,21.000000,0.000000,4293.333496,4190.769043,4205.128418,4175.897461,4254.358887,0.000000,4.000000,,,,0.000000,4.000000,4.000000,4.000000,4.000000,4.000000,,,,,,,,,,,,,,,,,,,,,,,,,
1577421691.758133,22.000000,0.000000,4236.410156,4224.102539,4179.487305,4138.461426,4191.282227,0.000000,4.000000,,,,0.000000,4.000000,4.000000,4.000000,4.000000,4.000000,,,,,,,,,,,,,,,,,,,,,,,,,
1577421691.765837,23.000000,0.000000,4203.589844,4314.871582,4177.436035,4125.128418,4155.897461,0.000000,4.000000,,,,0.000000,4.000000,4.000000,4.000000,4.000000,4.000000,,,,,,,,,,,,,,,,,,,,,,,,,
1577421691.773640,24.000000,0.000000,4208.717773,4371.794922,4183.589844,4137.948730,4166.666504,0.000000,4.000000,,,,0.000000,4.000000,4.000000,4.000000,4.000000,4.000000,,,,,,,,,,,,,,,,,,,,,,,,,
1577421691.781344,25.000000,0.000000,4210.256348,4384.102539,4176.922852,4140.000000,4163.077148,0.000000,4.000000,,,,0.000000,4.000000,4.000000,4.000000,4.000000,4.000000,272.563873,40.892002,22.842846,5.033640,2.677320,222.646072,77.566597,16.691698,10.047944,3.563158,154.326736,36.623787,15.668345,2.777132,1.786737,3.405625,6.925243,11.814473,2.149950,2.171357,77.288696,18.594309,15.167788,3.263198,2.135893
1577421691.789049,26.000000,0.000000,4206.666504,4417.948730,4176.922852,4137.948730,4160.512695,0.000000,4.000000,,,,0.000000,4.000000,4.000000,4.000000,4.000000,4.000000,,,,,,,,,,,,,,,,,,,,,,,,,
1577421691.796855,27.000000,0.000000,4215.897461,4471.282227,4185.128418,4149.743652,4180.000000,0.000000,4.000000,,,,0.000000,4.000000,4.000000,4.000000,4.000000,4.000000,,,,,,,,,,,,,,,,,,,,,,,,,
1577421691.804560,28.000000,0.000000,4207.179688,4493.333496,4174.358887,4142.051270,4171.794922,0.000000,4.000000,,,,0.000000,4.000000,4.000000,4.000000,4.000000,4.000000,,,,,,,,,,,,,,,,,,,,,,,,,
1577421691.812365,29.000000,0.000000,4189.743652,4492.307617,4165.641113,4131.794922,4157.948730,0.000000,4.000000,,,,0.000000,4.000000,4.000000,4.000000,4.000000,4.000000,,,,,,,,,,,,,,,,,,,,,,,,,
1577421691.820070,30.000000,0.000000,4188.205078,4495.384766,4169.230957,4136.410156,4158.461426,0.000000,4.000000,,,,0.000000,4.000000,4.000000,4.000000,4.000000,4.000000,,,,,,,,,,,,,,,,,,,,,,,,,
1577421691.827875,31.000000,0.000000,4193.846191,4510.256348,4166.153809,4137.948730,4162.563965,0.000000,4.000000,,,,0.000000,4.000000,4.000000,4.000000,4.000000,4.000000,,,,,,,,,,,,,,,,,,,,,,,,,
1577421691.835580,32.000000,0.000000,4204.102539,4516.410156,4168.205078,4149.743652,4182.563965,0.000000,4.000000,,,,0.000000,4.000000,4.000000,4.000000,4.000000,4.000000,,,,,,,,,,,,,,,,,,,,,,,,,
1577421691.843385,33.000000,0.000000,4212.307617,4510.769043,4172.820313,4162.563965,4194.358887,0.000000,4.000000,,,,0.000000,4.000000,4.000000,4.000000,4.000000,4.000000,,,,,,,,,,,,,,,,,,,,,,,,,
1577421691.851189,34.000000,0.000000,4212.820313,4524.102539,4166.666504,4159.487305,4194.871582,0.000000,4.000000,,,,0.000000,4.000000,4.000000,4.000000,4.000000,4.000000,,,,,,,,,,,,,,,,,,,,,,,,,
1577421691.858892,35.000000,0.000000,4221.538574,4540.000000,4166.153809,4155.897461,4199.487305,0.000000,4.000000,,,,0.000000,4.000000,4.000000,4.000000,4.000000,4.000000,,,,,,,,,,,,,,,,,,,,,,,,,
1577421691.866596,36.000000,0.000000,4246.666504,4528.717773,4178.974121,4169.743652,4214.871582,0.000000,4.000000,,,,0.000000,4.000000,4.000000,4.000000,4.000000,4.000000,,,,,,,,,,,,,,,,,,,,,,,,,
1577421691.874401,37.000000,0.000000,4264.102539,4516.922852,4186.153809,4183.589844,4233.333496,0.000000,4.000000,,,,0.000000,4.000000,4.000000,4.000000,4.000000,4.000000,,,,,,,,,,,,,,,,,,,,,,,,,
1577421691.882105,38.000000,0.000000,4252.820313,4516.922852,4176.410156,4165.128418,4220.512695,0.000000,4.000000,,,,0.000000,4.000000,4.000000,4.000000,4.000000,4.000000,,,,,,,,,,,,,,,,,,,,,,,,,
1577421691.889909,39.000000,0.000000,4236.922852,4504.615234,4161.025879,4143.077148,4201.538574,0.000000,4.000000,,,,0.000000,4.000000,4.000000,4.000000,4.000000,4.000000,,,,,,,,,,,,,,,,,,,,,,,,,
1577421691.897613,40.000000,0.000000,4234.871582,4495.897461,4155.897461,4149.230957,4200.512695,0.000000,4.000000,,,,0.000000,4.000000,4.000000,4.000000,4.000000,4.000000,,,,,,,,,,,,,,,,,,,,,,,,,
1577421691.905417,41.000000,0.000000,4230.256348,4508.205078,4157.948730,4153.333496,4200.512695,0.000000,4.000000,,,,0.000000,4.000000,4.000000,4.000000,4.000000,4.000000,210.894394,30.568655,19.304283,4.698290,2.522112,168.635315,62.029293,15.670526,9.204576,3.391582,160.424881,33.246483,11.792298,2.966079,1.736512,3.145513,5.537632,10.170293,2.220799,2.270925,59.036320,13.561654,13.377482,3.285248,2.059621
1577421691.913126,42.000000,0.000000,4233.333496,4515.897461,4168.205078,4153.333496,4207.179688,0.000000,4.000000,,,,0.000000,4.000000,4.000000,4.000000,4.000000,4.000000,,,,,,,,,,,,,,,,,,,,,,,,,
1577421691.920836,43.000000,0.000000,4242.563965,4505.128418,4172.307617,4158.461426,4206.666504,0.000000,4.000000,,,,0.000000,4.000000,4.000000,4.000000,4.000000,4.000000,,,,,,,,,,,,,,,,,,,,,,,,,
1577421691.928647,44.000000,0.000000,4243.589844,4497.436035,4165.128418,4158.974121,4202.563965,0.000000,4.000000,,,,0.000000,4.000000,4.000000,4.000000,4.000000,4.000000,,,,,,,,,,,,,,,,,,,,,,,,,
1577421691.936457,45.000000,0.000000,4242.051270,4494.871582,4168.717773,4155.897461,4205.128418,0.000000,4.000000,,,,0.000000,4.000000,4.000000,4.000000,4.000000,4.000000,,,,,,,,,,,,,,,,,,,,,,,,,
1577421691.944267,46.000000,0.000000,4246.666504,4484.102539,4177.436035,4153.333496,4205.641113,0.000000,4.000000,,,,0.000000,4.000000,4.000000,4.000000,4.000000,4.000000,,,,,,,,,,,,,,,,,,,,,,,,,
1577421691.951973,47.000000,0.000000,4270.769043,4491.282227,4173.333496,4166.153809,4221.025879,0.000000,4.000000,,,,0.000000,4.000000,4.000000,4.000000,4.000000,4.000000,,,,,,,,,,,,,,,,,,,,,,,,,
1577421691.959779,48.000000,0.000000,4281.538574,4490.769043,4158.461426,4172.307617,4229.743652,0.000000,4.000000,,,,0.000000,4.000000,4.000000,4.000000,4.000000,4.000000,,,,,,,,,,,,,,,,,,,,,,,,,
1577421691.967488,49.000000,0.000000,4276.410156,4470.256348,4151.282227,4165.641113,4227.179688,0.000000,4.000000,,,,0.000000,4.000000,4.000000,4.000000,4.000000,4.000000,,,,,,,,,,,,,,,,,,,,,,,,,
1577421691.975400,50.000000,0.000000,4286.666504,4473.333496,4154.871582,4175.897461,4235.897461,0.000000,4.000000,,,,0.000000,4.000000,4.000000,4.000000,4.000000,4.000000,,,,,,,,,,,,,,,,,,,,,,,,,
1577421691.983212,51.000000,0.000000,4277.948730,4474.871582,4140.512695,4177.436035,4225.641113,0.000000,4.000000,,,,0.000000,4.000000,4.000000,4.000000,4.000000,4.000000,,,,,,,,,,,,,,,,,,,,,,,,,
1577421691.991024,52.000000,0.000000,4260.000000,4461.025879,4125.128418,4163.589844,4214.871582,0.000000,4.000000,,,,0.000000,4.000000,4.000000,4.000000,4.000000,4.000000,,,,,,,,,,,,,,,,,,,,,,,,,
1577421691.998733,53.000000,0.000000,4268.205078,4467.179688,4124.615234,4166.153809,4221.025879,0.000000,4.000000,,,,0.000000,4.000000,4.000000,4.000000,4.000000,4.000000,,,,,,,,,,,,,,,,,,,,,,,,,
1577421692.006542,54.000000,0.000000,4272.307617,4478.461426,4116.922852,4176.922852,4224.615234,0.000000,4.000000,,,,0.000000,4.000000,4.000000,4.000000,4.000000,4.000000,,,,,,,,,,,,,,,,,,,,,,,,,
1577421692.014352,55.000000,0.000000,4294.871582,4479.487305,4127.179688,4200.512695,4252.820313,0.000000,4.000000,,,,0.000000,4.000000,4.000000,4.000000,4.000000,4.000000,,,,,,,,,,,,,,,,,,,,,,,,,
1577421692.022059,56.000000,0.000000,4334.871582,4476.922852,4146.153809,4228.205078,4282.563965,0.000000,4.000000,,,,0.000000,4.000000,4.000000,4.000000,4.000000,4.000000,,,,,,,,,,,,,,,,,,,,,,,,,
1577421692.029772,57.000000,0.000000,4337.436035,4477.948730,4136.410156,4223.589844,4275.897461,0.000000,4.000000,,,,0.000000,4.000000,4.000000,4.000000,4.000000,4.000000,142.969116,19.508627,15.132653,4.213315,2.291812,120.680779,46.191452,15.905259,8.414305,3.202199,187.813400,30.685455,8.310952,3.153481,1.665966,3.387417,4.372035,8.258662,2.254026,2.258541,40.322773,8.879628,11.325411,3.228824,1.915532
1577421692.037687,58.000000,0.000000,4323.589844,4480.000000,4121.538574,4206.666504,4264.102539,0.000000,4.000000,,,,0.000000,4.000000,4.000000,4.000000,4.000000,4.000000,,,,,,,,,,,,,,,,,,,,,,,,,
1577421692.045503,59.000000,0.000000,4324.102539,4472.820313,4119.487305,4209.743652,4267.692383,0.000000,4.000000,,,,0.000000,4.000000,4.000000,4.000000,4.000000,4.000000,,,,,,,,,,,,,,,,,,,,,,,,,
1577421692.053318,60.000000,0.000000,4327.179688,4464.615234,4117.436035,4213.846191,4269.743652,0.000000,4.000000,,,,0.000000,4.000000,4.000000,4.000000,4.000000,4.000000,,,,,,,,,,,,,,,,,,,,,,,,,
1577421692.061231,61.000000,0.000000,4318.461426,4465.641113,4109.230957,4202.563965,4262.051270,0.000000,4.000000,,,,0.000000,4.000000,4.000000,4.000000,4.000000,4.000000,,,,,,,,,,,,,,,,,,,,,,,,,
1577421692.069044,62.000000,0.000000,4312.307617,4468.717773,4105.641113,4199.487305,4261.538574,0.000000,4.000000,,,,0.000000,4.000000,4.000000,4.000000,4.000000,4.000000,,,,,,,,,,,,,,,,,,,,,,,,,
1577421692.076957,63.000000,0.000000,4306.153809,4470.769043,4107.692383,4206.666504,4258.461426,0.000000,4.000000,,,,0.000000,4.000000,4.000000,4.000000,4.000000,4.000000,,,,,,,,,,,,,,,,,,,,,,,,,
1577421692.084871,64.000000,0.000000,4291.282227,4458.974121,4104.102539,4197.948730,4244.102539,450.000000,4.000000,,,,0.000000,4.000000,4.000000,4.000000,4.000000,4.000000,,,,,,,,,,,,,,,,,,,,,,,,,
1577421692.092686,65.000000,0.000000,4280.000000,4448.717773,4104.102539,4186.153809,4236.410156,450.000000,4.000000,,,,0.000000,4.000000,4.000000,4.000000,4.000000,4.000000,,,,,,,,,,,,,,,,,,,,,,,,,
1577421692.100501,66.000000,0.000000,4258.461426,4457.948730,4116.410156,4187.179688,4224.615234,16217.000000,4.000000,,,,0.000000,4.000000,4.000000,4.000000,4.000000,4.000000,,,,,,,,,,,,,,,,,,,,,,,,,
1577421692.108413,67.000000,0.000000,4248.205078,4465.128418,4139.487305,4198.461426,4226.153809,450.000000,4.000000,,,,0.000000,4.000000,4.000000,4.000000,4.000000,4.000000,,,,,,,,,,,,,,,,,,,,,,,,,
1577421692.116226,68.000000,0.000000,4280.000000,4468.205078,4170.256348,4221.025879,4247.179688,16194.000000,4.000000,,,,0.000000,4.000000,4.000000,4.000000,4.000000,4.000000,,,,,,,,,,,,,,,,,,,,,,,,,
1577421692.124138,69.000000,0.000000,4294.358887,4461.025879,4180.000000,4226.666504,4245.128418,450.000000,4.000000,,,,0.000000,4.000000,4.000000,4.000000,4.000000,4.000000,,,,,,,,,,,,,,,,,,,,,,,,,
1577421692.131950,70.000000,0.000000,4271.282227,4462.051270,4175.384766,4216.410156,4235.897461,16145.000000,4.000000,,,,0.000000,4.000000,4.000000,4.000000,4.000000,4.000000,,,,,,,,,,,,,,,,,,,,,,,,,
1577421692.139862,71.000000,0.000000,4258.974121,4473.333496,4176.410156,4208.717773,4237.948730,450.000000,4.000000,,,,0.000000,4.000000,4.000000,4.000000,4.000000,4.000000,,,,,,,,,,,,,,,,,,,,,,,,,
1577421692.147674,72.000000,0.000000,4259.487305,4463.077148,4171.794922,4201.538574,4231.794922,450.000000,4.000000,,,,0.000000,4.000000,4.000000,4.000000,4.000000,4.000000,,,,,,,,,,,,,,,,,,,,,,,,,
1577421692.155586,73.000000,0.000000,4254.358887,4450.256348,4175.897461,4201.025879,4219.487305,16165.000000,4.000000,,,,0.000000,4.000000,4.000000,4.000000,4.000000,4.000000,86.363228,10.745676,11.260912,3.710326,2.027996,107.490395,36.492596,18.117727,8.692845,3.191751,228.463638,28.110144,5.832939,3.259048,1.572315,4.525298,3.646945,6.405242,2.206370,2.120153,26.407042,5.663436,9.331913,3.094840,1.728736
1577421692.163398,74.000000,0.000000,4237.948730,4451.282227,4177.948730,4195.897461,4205.641113,450.000000,4.000000,,,,0.000000,4.000000,4.000000,4.000000,4.000000,4.000000,,,,,,,,,,,,,,,,,,,,,,,,,
1577421692.171310,75.000000,0.000000,4231.282227,4451.282227,4166.666504,4191.794922,4205.641113,16217.000000,4.000000,,,,0.000000,4.000000,4.000000,4.000000,4.000000,4.000000,,,,,,,,,,,,,,,,,,,,,,,,,
1577421692.179122,76.000000,0.000000,4246.153809,4440.512695,4165.641113,4191.282227,4220.512695,450.000000,4.000000,,,,0.000000,4.000000,4.000000,4.000000,4.000000,4.000000,,,,,,,,,,,,,,,,,,,,,,,,,
1577421692.187033,77.000000,0.000000,4248.205078,4435.384766,4172.820313,4180.512695,4220.000000,450.000000,4.000000,,,,0.000000,4.000000,4.000000,4.000000,4.000000,4.000000,,,,,,,,,,,,,,,,,,,,,,,,,
1577421692.194845,78.000000,0.000000,4241.538574,4456.410156,4178.461426,4184.615234,4221.538574,450.000000,4.000000,,,,0.000000,4.000000,4.000000,4.000000,4.000000,4.000000,,,,,,,,,,,,,,,,,,,,,,,,,
1577421692.202756,79.000000,0.000000,4283.589844,4474.358887,4195.897461,4217.436035,4259.487305,16217.000000,4.000000,,,,0.000000,4.000000,4.000000,4.000000,4.000000,4.000000,,,,,,,,,,,,,,,,,,,,,,,,,
1577421692.210568,80.000000,0.000000,4357.436035,4473.333496,4221.538574,4247.179688,4309.743652,450.000000,4.000000,,,,0.000000,4.000000,4.000000,4.000000,4.000000,4.000000,,,,,,,,,,,,,,,,,,,,,,,,,
1577421692.218483,81.000000,0.000000,4399.487305,4468.717773,4218.461426,4236.922852,4313.333496,450.000000,4.000000,,,,0.000000,4.000000,4.000000,4.000000,4.000000,4.000000,,,,,,,,,,,,,,,,,,,,,,,,,
1577421692.226401,82.000000,0.000000,4409.743652,4460.512695,4194.871582,4208.205078,4297.436035,450.000000,4.000000,,,,0.000000,4.000000,4.000000,4.000000,4.000000,4.000000,,,,,,,,,,,,,,,,,,,,,,,,,
1577421692.234218,83.000000,0.000000,4440.000000,4451.282227,4204.615234,4211.282227,4321.025879,16217.000000,4.000000,,,,0.000000,4.000000,4.000000,4.000000,4.000000,4.000000,,,,,,,,,,,,,,,,,,,,,,,,,
1577421692.242036,84.000000,0.000000,4474.358887,4446.153809,4217.948730,4214.358887,4338.461426,450.000000,4.000000,,,,0.000000,4.000000,4.000000,4.000000,4.000000,4.000000,,,,,,,,,,,,,,,,,,,,,,,,,
1577421692.249853,85.000000,0.000000,4488.717773,4448.717773,4213.333496,4197.436035,4334.358887,450.000000,4.000000,,,,0.000000,4.000000,4.000000,4.000000,4.000000,4.000000,,,,,,,,,,,,,,,,,,,,,,,,,
1577421692.257766,86.000000,0.000000,4516.922852,4457.436035,4224.615234,4209.230957,4361.025879,450.000000,4.000000,,,,0.000000,4.000000,4.000000,4.000000,4.000000,4.000000,,,,,,,,,,,,,,,,,,,,,,,,,
1577421692.265579,87.000000,0.000000,4540.512695,4452.820313,4228.717773,4220.512695,4380.512695,16217.000000,4.000000,,,,0.000000,4.000000,4.000000,4.000000,4.000000,4.000000,,,,,,,,,,,,,,,,,,,,,,,,,
1577421692.273491,88.000000,0.000000,4536.410156,4450.256348,4212.820313,4205.128418,4363.589844,450.000000,4.000000,,,,0.000000,4.000000,4.000000,4.000000,4.000000,4.000000,,,,,,,,,,,,,,,,,,,,,,,,,
1577421692.281304,89.000000,0.000000,4532.307617,4462.563965,4207.179688,4202.563965,4353.333496,450.000000,4.000000,,,,0.000000,4.000000,4.000000,4.000000,4.000000,4.000000,48.618626,5.568587,8.353435,3.277942,1.774228,141.341934,36.024685,21.961678,10.497106,3.457214,268.017914,24.605213,4.430528,3.195973,1.445708,6.386574,3.292498,4.836349,2.064233,1.878303,19.236919,4.191097,7.657362,2.886815,1.532483
1577421692.289216,90.000000,0.000000,4533.333496,4450.769043,4202.051270,4209.230957,4360.000000,450.000000,4.000000,,,,0.000000,4.000000,4.000000,4.000000,4.000000,4.000000,,,,,,,,,,,,,,,,,,,,,,,,,
1577421692.297029,91.000000,0.000000,4527.692383,4428.205078,4194.358887,4205.641113,4357.948730,16217.000000,4.000000,,,,0.000000,4.000000,4.000000,4.000000,4.000000,4.000000,,,,,,,,,,,,,,,,,,,,,,,,,
1577421692.304941,92.000000,0.000000,4511.282227,4442.051270,4191.282227,4196.922852,4338.461426,450.000000,4.000000,,,,0.000000,4.000000,4.000000,4.000000,4.000000,4.000000,,,,,,,,,,,,,,,,,,,,,,,,,
1577421692.312754,93.000000,0.000000,4482.051270,4462.563965,4193.333496,4196.410156,4330.256348,450.000000,4.000000,,,,0.000000,4.000000,4.000000,4.000000,4.000000,4.000000,,,,,,,,,,,,,,,,,,,,,,,,,
1577421692.320666,94.000000,0.000000,4448.205078,4453.333496,4202.563965,4200.000000,4328.717773,450.000000,4.000000,,,,0.000000,4.000000,4.000000,4.000000,4.000000,4.000000,,,,,,,,,,,,,,,,,,,,,,,,,
1577421692.328478,95.000000,0.000000,4445.128418,4447.179688,4210.769043,4215.384766,4326.153809,16217.000000,4.000000,,,,0.000000,4.000000,4.000000,4.000000,4.000000,4.000000,,,,,,,,,,,,,,,,,,,,,,,,,
1577421692.336390,96.000000,0.000000,4457.948730,4451.794922,4217.436035,4236.922852,4329.743652,450.000000,4.000000,,,,0.000000,4.000000,4.000000,4.000000,4.000000,4.000000,,,,,,,,,,,,,,,,,,,,,,,,,
1577421692.344202,97.000000,0.000000,4424.615234,4428.205078,4213.846191,4226.153809,4308.717773,450.000000,4.000000,,,,0.000000,4.000000,4.000000,4.000000,4.000000,4.000000,,,,,,,,,,,,,,,,,,,,,,,,,
1577421692.352114,98.000000,0.000000,4375.897461,4401.025879,4194.358887,4200.512695,4280.000000,450.000000,4.000000,,,,0.000000,4.000000,4.000000,4.000000,4.000000,4.000000,,,,,,,,,,,,,,,,,,,,,,,,,
1577421692.359926,99.000000,0.000000,4367.692383,4407.692383,4184.102539,4197.948730,4271.794922,16217.000000,4.000000,,,,0.000000,4.000000,4.000000,4.000000,4.000000,4.000000,,,,,,,,,,,,,,,,,,,,,,,,,
1577421692.367838,100.000000,0.000000,4360.512695,4403.589844,4188.205078,4194.358887,4267.179688,450.000000,4.000000,,,,0.000000,4.000000,4.000000,4.000000,4.000000,4.000000,,,,,,,,,,,,,,,,,,,,,,,,,
1577421692.375751,101.000000,0.000000,4340.512695,4377.948730,4193.846191,4185.641113,4260.512695,450.000000,4.000000,,,,0.000000,4.000000,4.000000,4.000000,4.000000,4.000000,,,,,,,,,,,,,,,,,,,,,,,,,
1577421692.383565,102.000000,0.000000,4332.820313,4368.205078,4191.282227,4180.000000,4244.102539,450.000000,4.000000,,,,0.000000,4.000000,4.000000,4.000000,4.000000,4.000000,,,,,,,,,,,,,,,,,,,,,,,,,
1577421692.391479,103.000000,0.000000,4326.666504,4375.897461,4189.743652,4174.871582,4232.820313,16217.000000,4.000000,,,,0.000000,4.000000,4.000000,4.000000,4.000000,4.000000,,,,,,,,,,,,,,,,,,,,,,,,,
1577421692.399292,104.000000,0.000000,4316.922852,4375.384766,4203.589844,4182.051270,4232.820313,450.000000,4.000000,,,,0.000000,4.000000,4.000000,4.000000,4.000000,4.000000,,,,,,,,,,,,,,,,,,,,,,,,,
1577421692.407206,105.000000,0.000000,4305.128418,4362.051270,4214.871582,4185.128418,4223.589844,450.000000,4.000000,,,,0.000000,4.000000,4.000000,4.000000,4.000000,4.000000,35.081448,3.616301,6.569851,2.956224,1.546927,207.911697,42.982853,26.144400,13.354319,3.914253,287.198730,19.953985,3.780669,2.925199,1.275278,8.727140,3.148703,3.648115,1.865620,1.575695,19.992348,4.095085,6.434712,2.628090,1.347579
1577421692.415019,106.000000,0.000000,4312.820313,4365.128418,4224.102539,4190.256348,4232.820313,450.000000,4.000000,,,,0.000000,4.000000,4.000000,4.000000,4.000000,4.000000,,,,,,,,,,,,,,,,,,,,,,,,,
1577421692.422932,107.000000,0.000000,4329.743652,4377.948730,4231.282227,4200.000000,4246.666504,16217.000000,4.000000,,,,0.000000,4.000000,4.000000,4.000000,4.000000,4.000000,,,,,,,,,,,,,,,,,,,,,,,,,
1577421692.430745,108.000000,0.000000,4324.102539,4377.948730,4225.128418,4193.333496,4239.487305,450.000000,4.000000,,,,0.000000,4.000000,4.000000,4.000000,4.000000,4.000000,,,,,,,,,,,,,,,,,,,,,,,,,
1577421692.438658,109.000000,0.000000,4316.410156,4389.230957,4231.282227,4200.000000,4242.563965,450.000000,4.000000,,,,0.000000,4.000000,4.000000,4.000000,4.000000,4.000000,,,,,,,,,,,,,,,,,,,,,,,,,
1577421692.446471,110.000000,0.000000,4322.051270,4404.615234,4247.179688,4223.077148,4253.333496,450.000000,4.000000,,,,0.000000,4.000000,4.000000,4.000000,4.000000,4.000000,,,,,,,,,,,,,,,,,,,,,,,,,
1577421692.454384,111.000000,0.000000,4333.333496,4404.615234,4235.897461,4224.615234,4258.974121,16217.000000,4.000000,,,,0.000000,4.000000,4.000000,4.000000,4.000000,4.000000,,,,,,,,,,,,,,,,,,,,,,,,,
1577421692.462197,112.000000,0.000000,4326.153809,4404.102539,4217.948730,4205.641113,4248.205078,450.000000,4.000000,,,,0.000000,4.000000,4.000000,4.000000,4.000000,4.000000,,,,,,,,,,,,,,,,,,,,,,,,,
1577421692.470109,113.000000,0.000000,4298.974121,4404.102539,4228.205078,4198.974121,4232.307617,450.000000,4.000000,,,,0.000000,4.000000,4.000000,4.000000,4.000000,4.000000,,,,,,,,,,,,,,,,,,,,,,,,,
1577421692.477922,114.000000,0.000000,4310.256348,4399.487305,4234.358887,4199.487305,4242.563965,450.000000,4.000000,,,,0.000000,4.000000,4.000000,4.000000,4.000000,4.000000,,,,,,,,,,,,,,,,,,,,,,,,,
1577421692.485834,115.000000,0.000000,4358.461426,4391.794922,4206.153809,4184.615234,4261.025879,16217.000000,4.000000,,,,0.000000,4.000000,4.000000,4.000000,4.000000,4.000000,,,,,,,,,,,,,,,,,,,,,,,,,
1577421692.493647,116.000000,0.000000,4395.897461,4380.512695,4190.769043,4177.948730,4280.000000,450.000000,4.000000,,,,0.000000,4.000000,4.000000,4.000000,4.000000,4.000000,,,,,,,,,,,,,,,,,,,,,,,,,
1577421692.501559,117.000000,0.000000,4423.077148,4377.948730,4213.333496,4191.282227,4304.102539,450.000000,4.000000,,,,0.000000,4.000000,4.000000,4.000000,4.000000,4.000000,,,,,,,,,,,,,,,,,,,,,,,,,
1577421692.509371,118.000000,0.000000,4452.307617,4384.102539,4225.128418,4194.871582,4320.512695,450.000000,4.000000,,,,0.000000,4.000000,4.000000,4.000000,4.000000,4.000000,,,,,,,,,,,,,,,,,,,,,,,,,
1577421692.517284,119.000000,0.000000,4478.974121,4383.077148,4221.025879,4192.820313,4331.794922,16217.000000,4.000000,,,,0.000000,4.000000,4.000000,4.000000,4.000000,4.000000,,,,,,,,,,,,,,,,,,,,,,,,,
1577421692.525097,120.000000,0.000000,4477.436035,4371.282227,4227.179688,4193.333496,4329.743652,450.000000,4.000000,,,,0.000000,4.000000,4.000000,4.000000,4.000000,4.000000,,,,,,,,,,,,,,,,,,,,,,,,,
1577421692.533009,121.000000,0.000000,4457.948730,4377.436035,4229.743652,4192.307617,4328.205078,450.000000,4.000000,,,,0.000000,4.000000,4.000000,4.000000,4.000000,4.000000,34.922516,3.800339,5.677438,2.737441,1.342675,281.925232,51.918777,28.945555,16.061996,4.332710,275.089722,14.914242,3.443547,2.494820,1.066284,10.639573,3.171234,2.845776,1.681692,1.261822,24.189188,4.729889,5.648813,2.354794,1.181053
1577421692.540922,122.000000,0.000000,4472.307617,4409.743652,4227.692383,4214.358887,4345.641113,450.000000,4.000000,,,,0.000000,4.000000,4.000000,4.000000,4.000000,4.000000,,,,,,,,,,,,,,,,,,,,,,,,,
1577421692.548736,123.000000,0.000000,4481.025879,4414.358887,4213.846191,4237.948730,4342.563965,16217.000000,4.000000,,,,0.000000,4.000000,4.000000,4.000000,4.000000,4.000000,,,,,,,,,,,,,,,,,,,,,,,,,
1577421692.556550,124.000000,0.000000,4449.230957,4397.948730,4195.897461,4232.307617,4322.563965,450.000000,4.000000,,,,0.000000,4.000000,4.000000,4.000000,4.000000,4.000000,,,,,,,,,,,,,,,,,,,,,,,,,
1577421692.564462,125.000000,0.000000,4412.820313,4395.897461,4184.615234,4217.948730,4306.153809,450.000000,4.000000,,,,0.000000,4.000000,4.000000,4.000000,4.000000,4.000000,,,,,,,,,,,,,,,,,,,,,,,,,
1577421692.572273,126.000000,0.000000,4399.487305,4396.410156,4170.769043,4212.820313,4296.410156,450.000000,4.000000,,,,0.000000,4.000000,4.000000,4.000000,4.000000,4.000000,,,,,,,,,,,,,,,,,,,,,,,,,
1577421692.579985,127.000000,0.000000,4405.128418,4406.153809,4170.256348,4214.871582,4303.589844,234.000000,4.000000,,,,0.000000,4.000000,4.000000,4.000000,4.000000,4.000000,,,,,,,,,,,,,,,,,,,,,,,,,
1577421692.587796,0.000000,0.000000,4392.820313,4401.025879,4166.153809,4203.077148,4295.384766,450.000000,4.000000,,,,0.000000,4.000000,4.000000,4.000000,4.000000,4.000000,,,,,,,,,,,,,,,,,,,,,,,,,
1577421692.595507,1.000000,0.000000,4367.692383,4371.282227,4143.589844,4193.333496,4274.871582,450.000000,4.000000,,,,0.000000,4.000000,4.000000,4.000000,4.000000,4.000000,,,,,,,,,,,,,,,,,,,,,,,,,
1577421692.603318,2.000000,0.000000,4358.974121,4362.563965,4128.717773,4205.128418,4270.769043,16217.000000,4.000000,,,,0.000000,4.000000,4.000000,4.000000,4.000000,4.000000,,,,,,,,,,,,,,,,,,,,,,,,,
1577421692.611029,3.000000,0.000000,4360.512695,4374.358887,4128.205078,4216.410156,4277.436035,450.000000,4.000000,,,,0.000000,4.000000,4.000000,4.000000,4.000000,4.000000,,,,,,,,,,,,,,,,,,,,,,,,,
1577421692.618942,4.000000,0.000000,4358.461426,4381.538574,4133.333496,4212.820313,4280.000000,16190.000000,4.000000,,,,0.000000,4.000000,4.000000,4.000000,4.000000,4.000000,,,,,,,,,,,,,,,,,,,,,,,,,
1577421692.626755,5.000000,0.000000,4353.846191,4382.563965,4137.436035,4209.230957,4277.948730,450.000000,4.000000,,,,0.000000,4.000000,4.000000,4.000000,4.000000,4.000000,,,,,,,,,,,,,,,,,,,,,,,,,
1577421692.634668,6.000000,0.000000,4360.512695,4388.717773,4147.692383,4225.641113,4290.256348,16139.000000,4.000000,,,,0.000000,4.000000,4.000000,4.000000,4.000000,4.000000,,,,,,,,,,,,,,,,,,,,,,,,,
1577421692.642481,7.000000,0.000000,4384.102539,4404.102539,4164.615234,4246.153809,4308.205078,450.000000,4.000000,,,,0.000000,4.000000,4.000000,4.000000,4.000000,4.000000,,,,,,,,,,,,,,,,,,,,,,,,,
1577421692.650393,8.000000,0.000000,4391.794922,4403.077148,4168.205078,4241.538574,4303.589844,450.000000,4.000000,,,,0.000000,4.000000,4.000000,4.000000,4.000000,4.000000,,,,,,,,,,,,,,,,,,,,,,,,,
1577421692.658206,9.000000,0.000000,4363.589844,4382.563965,4161.538574,4224.102539,4278.974121,16165.000000,4.000000,,,,0.000000,4.000000,4.000000,4.000000,4.000000,4.000000,44.172863,4.872903,5.254395,2.602469,1.162233,331.847076,57.531631,29.179932,17.334761,4.460028,231.835373,10.681794,3.160751,2.002934,0.845428,11.607531,3.395737,2.426839,1.577578,0.984260,29.559250,5.393707,5.172542,2.112034,1.035106
1577421692.666118,10.000000,0.000000,4331.794922,4368.717773,4154.871582,4216.922852,4262.563965,450.000000,4.000000,,,,0.000000,4.000000,4.000000,4.000000,4.000000,4.000000,,,,,,,,,,,,,,,,,,,,,,,,,
1577421692.673930,11.000000,0.000000,4334.358887,4374.358887,4156.410156,4217.948730,4272.820313,16210.000000,4.000000,,,,0.000000,4.000000,4.000000,4.000000,4.000000,4.000000,,,,,,,,,,,,,,,,,,,,,,,,,
1577421692.681843,12.000000,0.000000,4347.179688,4378.461426,4164.615234,4213.333496,4285.128418,450.000000,4.000000,,,,0.000000,4.000000,4.000000,4.000000,4.000000,4.000000,,,,,,,,,,,,,,,,,,,,,,,,,
1577421692.689655,13.000000,0.000000,4344.102539,4373.333496,4166.153809,4208.205078,4278.461426,450.000000,4.000000,,,,0.000000,4.000000,4.000000,4.000000,4.000000,4.000000,,,,,,,,,,,,,,,,,,,,,,,,,
1577421692.697568,14.000000,0.000000,4350.769043,4382.563965,4174.871582,4225.128418,4280.512695,450.000000,4.000000,,,,0.000000,4.000000,4.000000,4.000000,4.000000,4.000000,,,,,,,,,,,,,,,,,,,,,,,,,
1577421692.705380,15.000000,0.000000,4351.282227,4384.102539,4183.589844,4236.410156,4275.897461,16210.000000,4.000000,,,,0.000000,4.000000,4.000000,4.000000,4.000000,4.000000,,,,,,,,,,,,,,,,,,,,,,,,,
1577421692.713292,16.000000,0.000000,4341.538574,4375.384766,4177.436035,4215.384766,4261.025879,0.000000,4.000000,,,,0.000000,4.000000,4.000000,4.000000,4.000000,4.000000,,,,,,,,,,,,,,,,,,,,,,,,,
1577421692.721105,17.000000,0.000000,4348.205078,4382.563965,4174.358887,4204.102539,4263.077148,0.000000,4.000000,,,,0.000000,4.000000,4.000000,4.000000,4.000000,4.000000,,,,,,,,,,,,,,,,,,,,,,,,,
1577421692.729017,18.000000,0.000000,4338.974121,4375.384766,4167.179688,4206.666504,4255.384766,0.000000,4.000000,,,,0.000000,4.000000,4.000000,4.000000,4.000000,4.000000,,,,,,,,,,,,,,,,,,,,,,,,,
1577421692.736829,19.000000,0.000000,4315.384766,4362.563965,4160.512695,4205.128418,4243.589844,0.000000,4.000000,,,,0.000000,4.000000,4.000000,4.000000,4.000000,4.000000,,,,,,,,,,,,,,,,,,,,,,,,,
1577421692.744745,20.000000,1.000000,4318.119629,4367.635254,4165.698242,4207.578125,4247.578125,0.000000,4.000000,,,,0.000000,4.000000,4.000000,4.000000,4.000000,4.000000,,,,,,,,,,,,,,,,,,,,,,,,,
1577421692.752561,21.000000,1.000000,4320.854492,4372.706543,4170.883301,4210.028320,4251.566895,0.000000,4.000000,,,,0.000000,4.000000,4.000000,4.000000,4.000000,4.000000,,,,,,,,,,,,,,,,,,,,,,,,,
1577421692.760377,22.000000,1.000000,4323.589844,4377.777832,4176.068359,4212.478516,4255.555664,0.000000,4.000000,,,,0.000000,4.000000,4.000000,4.000000,4.000000,4.000000,,,,,,,,,,,,,,,,,,,,,,,,,
1577421692.768193,23.000000,1.000000,4326.324707,4382.849121,4181.253418,4214.928711,4259.543945,0.000000,4.000000,,,,0.000000,4.000000,4.000000,4.000000,4.000000,4.000000,,,,,,,,,,,,,,,,,,,,,,,,,
1577421692.776009,24.000000,1.000000,4329.060059,4387.920410,4186.438965,4217.378906,4263.532715,0.000000,4.000000,,,,0.000000,4.000000,4.000000,4.000000,4.000000,4.000000,,,,,,,,,,,,,,,,,,,,,,,,,
1577421692.783825,25.000000,1.000000,4331.794922,4392.991211,4191.624023,4219.829102,4267.521484,0.000000,4.000000,,,,0.000000,4.000000,4.000000,4.000000,4.000000,4.000000,60.018394,6.274690,5.058075,2.545660,1.027124,338.044037,56.352509,26.331789,16.451998,4.159676,169.765533,7.925525,2.861815,1.556121,0.648206,11.126511,3.873691,2.320903,1.578428,0.775441,34.061367,5.719368,4.867925,1.939718,0.913490
1577421692.791641,26.000000,1.000000,4334.529785,4398.062500,4196.809082,4222.279297,4271.509766,0.000000,4.000000,,,,0.000000,4.000000,4.000000,4.000000,4.000000,4.000000,,,,,,,,,,,,,,,,,,,,,,,,,
1577421692.799457,27.000000,1.000000,4337.265137,4403.133789,4201.994141,4224.729492,4275.498535,0.000000,4.000000,,,,0.000000,4.000000,4.000000,4.000000,4.000000,4.000000,,,,,,,,,,,,,,,,,,,,,,,,,
1577421692.807273,28.000000,0.000000,4340.000000,4408.205078,4207.179688,4227.179688,4279.487305,0.000000,4.000000,,,,0.000000,4.000000,4.000000,4.000000,4.000000,4.000000,,,,,,,,,,,,,,,,,,,,,,,,,
1577421692.814974,29.000000,0.000000,4349.230957,4405.641113,4199.487305,4222.563965,4273.333496,0.000000,4.000000,,,,0.000000,4.000000,4.000000,4.000000,4.000000,4.000000,,,,,,,,,,,,,,,,,,,,,,,,,
1577421692.822676,30.000000,0.000000,4344.615234,4396.922852,4196.410156,4209.230957,4269.743652,0.000000,4.000000,,,,0.000000,4.000000,4.000000,4.000000,4.000000,4.000000,,,,,,,,,,,,,,,,,,,,,,,,,
1577421692.830479,31.000000,0.000000,4316.410156,4379.487305,4185.128418,4208.205078,4256.410156,0.000000,4.000000,,,,0.000000,4.000000,4.000000,4.000000,4.000000,4.000000,,,,,,,,,,,,,,,,,,,,,,,,,
1577421692.838181,32.000000,0.000000,4291.794922,4369.230957,4161.025879,4210.769043,4244.102539,0.000000,4.000000,,,,0.000000,4.000000,4.000000,4.000000,4.000000,4.000000,,,,,,,,,,,,,,,,,,,,,,,,,
1577421692.845983,33.000000,0.000000,4298.461426,4370.256348,4152.307617,4203.589844,4245.641113,0.000000,4.000000,,,,0.000000,4.000000,4.000000,4.000000,4.000000,4.000000,,,,,,,,,,,,,,,,,,,,,,,,,
1577421692.853694,34.000000,0.000000,4306.666504,4368.205078,4158.974121,4196.922852,4252.307617,0.000000,4.000000,,,,0.000000,4.000000,4.000000,4.000000,4.000000,4.000000,,,,,,,,,,,,,,,,,,,,,,,,,
1577421692.861606,35.000000,0.000000,4300.000000,4370.769043,4163.589844,4202.051270,4256.410156,0.000000,4.000000,,,,0.000000,4.000000,4.000000,4.000000,4.000000,4.000000,,,,,,,,,,,,,,,,,,,,,,,,,
1577421692.869419,36.000000,0.000000,4292.820313,4374.358887,4155.897461,4201.538574,4252.820313,0.000000,4.000000,,,,0.000000,4.000000,4.000000,4.000000,4.000000,4.000000,,,,,,,,,,,,,,,,,,,,,,,,,
1577421692.877231,37.000000,0.000000,4288.717773,4373.846191,4149.230957,4191.282227,4250.256348,0.000000,4.000000,,,,0.000000,4.000000,4.000000,4.000000,4.000000,4.000000,,,,,,,,,,,,,,,,,,,,,,,,,
1577421692.885044,38.000000,0.000000,4278.461426,4369.230957,4138.974121,4176.922852,4235.897461,0.000000,4.000000,,,,0.000000,4.000000,4.000000,4.000000,4.000000,4.000000,,,,,,,,,,,,,,,,,,,,,,,,,
1577421692.892752,39.000000,0.000000,4274.358887,4361.025879,4121.538574,4170.769043,4226.153809,0.000000,4.000000,,,,0.000000,4.000000,4.000000,4.000000,4.000000,4.000000,,,,,,,,,,,,,,,,,,,,,,,,,
1577421692.900560,40.000000,0.000000,4290.256348,4370.256348,4128.717773,4186.666504,4234.871582,0.000000,4.000000,,,,0.000000,4.000000,4.000000,4.000000,4.000000,4.000000,,,,,,,,,,,,,,,,,,,,,,,,,
1577421692.908268,41.000000,0.000000,4290.256348,4381.025879,4140.000000,4189.230957,4229.230957,0.000000,4.000000,,,,0.000000,4.000000,4.000000,4.000000,4.000000,4.000000,84.475655,7.968232,4.906951,2.543967,0.968115,295.396606,47.813278,20.743372,13.571575,3.476675,108.175964,6.677732,2.577974,1.229455,0.506558,9.525990,4.640354,2.392333,1.654343,0.647825,38.355465,5.738540,4.567501,1.839477,0.823975
1577421692.916076,42.000000,0.000000,4288.717773,4380.000000,4132.307617,4185.641113,4233.333496,0.000000,4.000000,,,,0.000000,4.000000,4.000000,4.000000,4.000000,4.000000,,,,,,,,,,,,,,,,,,,,,,,,,
1577421692.923788,43.000000,0.000000,4321.538574,4389.230957,4140.000000,4204.102539,4263.589844,0.000000,4.000000,,,,0.000000,4.000000,4.000000,4.000000,4.000000,4.000000,,,,,,,,,,,,,,,,,,,,,,,,,
1577421692.931702,44.000000,0.000000,4347.179688,4399.487305,4163.077148,4224.102539,4284.615234,0.000000,4.000000,,,,0.000000,4.000000,4.000000,4.000000,4.000000,4.000000,,,,,,,,,,,,,,,,,,,,,,,,,
1577421692.939516,45.000000,0.000000,4351.282227,4400.000000,4176.410156,4233.333496,4292.307617,0.000000,4.000000,,,,0.000000,4.000000,4.000000,4.000000,4.000000,4.000000,,,,,,,,,,,,,,,,,,,,,,,,,
1577421692.947330,46.000000,0.000000,4347.692383,4395.384766,4173.846191,4226.666504,4286.153809,0.000000,4.000000,,,,0.000000,4.000000,4.000000,4.000000,4.000000,4.000000,,,,,,,,,,,,,,,,,,,,,,,,,
1577421692.955250,47.000000,1.000000,4345.925781,4387.407227,4168.604004,4221.823242,4283.874512,0.000000,4.000000,,,,0.000000,4.000000,4.000000,4.000000,4.000000,4.000000,,,,,,,,,,,,,,,,,,,,,,,,,
1577421692.963069,48.000000,1.000000,4344.159668,4379.430176,4163.361816,4216.979980,4281.595215,0.000000,4.000000,,,,0.000000,4.000000,4.000000,4.000000,4.000000,4.000000,,,,,,,,,,,,,,,,,,,,,,,,,
1577421692.970889,49.000000,1.000000,4342.393066,4371.453125,4158.119629,4212.136719,4279.316406,0.000000,4.000000,,,,0.000000,4.000000,4.000000,4.000000,4.000000,4.000000,,,,,,,,,,,,,,,,,,,,,,,,,
1577421692.978709,50.000000,1.000000,4340.626953,4363.475586,4152.877441,4207.293457,4277.037109,0.000000,4.000000,,,,0.000000,4.000000,4.000000,4.000000,4.000000,4.000000,,,,,,,,,,,,,,,,,,,,,,,,,
1577421692.986529,51.000000,1.000000,4338.860352,4355.498535,4147.635254,4202.450195,4274.757813,0.000000,4.000000,,,,0.000000,4.000000,4.000000,4.000000,4.000000,4.000000,,,,,,,,,,,,,,,,,,,,,,,,,
1577421692.994349,52.000000,1.000000,4337.094238,4347.521484,4142.393066,4197.606934,4272.478516,0.000000,4.000000,,,,0.000000,4.000000,4.000000,4.000000,4.000000,4.000000,,,,,,,,,,,,,,,,,,,,,,,,,
1577421693.002169,53.000000,1.000000,4335.327637,4339.543945,4137.150879,4192.763672,4270.199219,0.000000,4.000000,,,,0.000000,4.000000,4.000000,4.000000,4.000000,4.000000,,,,,,,,,,,,,,,,,,,,,,,,,
1577421693.009989,54.000000,1.000000,4333.561035,4331.566895,4131.908691,4187.920410,4267.920410,0.000000,4.000000,,,,0.000000,4.000000,4.000000,4.000000,4.000000,4.000000,,,,,,,,,,,,,,,,,,,,,,,,,
1577421693.017809,55.000000,0.000000,4331.794922,4323.589844,4126.666504,4183.077148,4265.641113,0.000000,4.000000,,,,0.000000,4.000000,4.000000,4.000000,4.000000,4.000000,,,,,,,,,,,,,,,,,,,,,,,,,
1577421693.025513,56.000000,0.000000,4336.922852,4324.102539,4134.871582,4198.461426,4273.846191,0.000000,4.000000,,,,0.000000,4.000000,4.000000,4.000000,4.000000,4.000000,,,,,,,,,,,,,,,,,,,,,,,,,
1577421693.033318,57.000000,0.000000,4358.974121,4331.282227,4144.615234,4216.922852,4291.282227,0.000000,4.000000,,,,0.000000,4.000000,4.000000,4.000000,4.000000,4.000000,114.480431,9.739240,4.628477,2.551347,0.989798,219.780624,34.957294,13.974717,9.607108,2.597978,59.171352,6.443529,2.371290,1.052007,0.432087,7.176766,5.614339,2.486562,1.739198,0.590004,42.295677,5.578454,4.120143,1.781047,0.765096
1577421693.041122,58.000000,0.000000,4361.538574,4327.692383,4138.461426,4219.487305,4297.436035,0.000000,4.000000,,,,0.000000,4.000000,4.000000,4.000000,4.000000,4.000000,,,,,,,,,,,,,,,,,,,,,,,,,
1577421693.048926,59.000000,0.000000,4326.153809,4307.179688,4116.922852,4193.846191,4269.743652,0.000000,4.000000,,,,0.000000,4.000000,4.000000,4.000000,4.000000,4.000000,,,,,,,,,,,,,,,,,,,,,,,,,
1577421693.056639,60.000000,0.000000,4303.077148,4292.307617,4106.666504,4175.384766,4252.820313,0.000000,4.000000,,,,0.000000,4.000000,4.000000,4.000000,4.000000,4.000000,,,,,,,,,,,,,,,,,,,,,,,,,
1577421693.064553,61.000000,0.000000,4311.282227,4307.692383,4123.077148,4181.025879,4260.512695,0.000000,4.000000,,,,0.000000,4.000000,4.000000,4.000000,4.000000,4.000000,,,,,,,,,,,,,,,,,,,,,,,,,
1577421693.072368,62.000000,0.000000,4305.128418,4321.025879,4125.641113,4177.948730,4256.922852,0.000000,4.000000,,,,0.000000,4.000000,4.000000,4.000000,4.000000,4.000000,,,,,,,,,,,,,,,,,,,,,,,,,
1577421693.080182,63.000000,0.000000,4288.717773,4302.563965,4108.205078,4169.743652,4241.025879,0.000000,4.000000,,,,0.000000,4.000000,4.000000,4.000000,4.000000,4.000000,,,,,,,,,,,,,,,,,,,,,,,,,
1577421693.088102,64.000000,1.000000,4288.318848,4302.507324,4109.857422,4171.111328,4241.880371,450.000000,4.000000,,,,0.000000,4.000000,4.000000,4.000000,4.000000,4.000000,,,,,,,,,,,,,,,,,,,,,,,,,
1577421693.095923,65.000000,1.000000,4287.920410,4302.450195,4111.509766,4172.478516,4242.734863,450.000000,4.000000,,,,0.000000,4.000000,4.000000,4.000000,4.000000,4.000000,,,,,,,,,,,,,,,,,,,,,,,,,
1577421693.103743,66.000000,1.000000,4287.521484,4302.393066,4113.162598,4173.846191,4243.589844,16217.000000,4.000000,,,,0.000000,4.000000,4.000000,4.000000,4.000000,4.000000,,,,,,,,,,,,,,,,,,,,,,,,,
1577421693.111563,67.000000,1.000000,4287.122559,4302.336426,4114.814941,4175.213867,4244.444336,450.000000,4.000000,,,,0.000000,4.000000,4.000000,4.000000,4.000000,4.000000,,,,,,,,,,,,,,,,,,,,,,,,,
1577421693.119384,68.000000,1.000000,4286.723633,4302.279297,4116.467285,4176.581055,4245.299316,16190.000000,4.000000,,,,0.000000,4.000000,4.000000,4.000000,4.000000,4.000000,,,,,,,,,,,,,,,,,,,,,,,,,
1577421693.127204,69.000000,1.000000,4286.324707,4302.222168,4118.119629,4177.948730,4246.153809,450.000000,4.000000,,,,0.000000,4.000000,4.000000,4.000000,4.000000,4.000000,,,,,,,,,,,,,,,,,,,,,,,,,
1577421693.135025,70.000000,1.000000,4285.925781,4302.165039,4119.771973,4179.316406,4247.008789,16139.000000,4.000000,,,,0.000000,4.000000,4.000000,4.000000,4.000000,4.000000,,,,,,,,,,,,,,,,,,,,,,,,,
1577421693.142845,71.000000,1.000000,4285.526855,4302.108398,4121.424316,4180.683594,4247.863281,450.000000,4.000000,,,,0.000000,4.000000,4.000000,4.000000,4.000000,4.000000,,,,,,,,,,,,,,,,,,,,,,,,,
1577421693.150665,72.000000,0.000000,4285.128418,4302.051270,4123.077148,4182.051270,4248.717773,450.000000,4.000000,,,,0.000000,4.000000,4.000000,4.000000,4.000000,4.000000,,,,,,,,,,,,,,,,,,,,,,,,,
1577421693.158370,73.000000,0.000000,4296.410156,4321.538574,4125.128418,4181.538574,4258.974121,16158.000000,4.000000,,,,0.000000,4.000000,4.000000,4.000000,4.000000,4.000000,143.809570,11.214423,4.186598,2.520537,1.063331,136.451965,22.255516,7.977249,5.750596,1.755647,29.599894,6.583131,2.251149,0.998244,0.412890,4.960824,6.567050,2.508702,1.760579,0.576443,45.954193,5.362758,3.519403,1.722464,0.725940
1577421693.166175,74.000000,0.000000,4294.871582,4323.077148,4125.641113,4178.974121,4253.333496,450.000000,4.000000,,,,0.000000,4.000000,4.000000,4.000000,4.000000,4.000000,,,,,,,,,,,,,,,,,,,,,,,,,
1577421693.173980,75.000000,0.000000,4291.282227,4320.000000,4129.230957,4189.743652,4245.641113,16204.000000,4.000000,,,,0.000000,4.000000,4.000000,4.000000,4.000000,4.000000,,,,,,,,,,,,,,,,,,,,,,,,,
1577421693.181683,76.000000,0.000000,4290.256348,4315.897461,4133.333496,4192.820313,4240.000000,450.000000,4.000000,,,,0.000000,4.000000,4.000000,4.000000,4.000000,4.000000,,,,,,,,,,,,,,,,,,,,,,,,,
1577421693.189387,77.000000,0.000000,4280.512695,4299.487305,4130.769043,4172.307617,4225.641113,450.000000,4.000000,,,,0.000000,4.000000,4.000000,4.000000,4.000000,4.000000,,,,,,,,,,,,,,,,,,,,,,,,,
1577421693.197192,78.000000,0.000000,4274.358887,4302.563965,4148.717773,4164.615234,4217.948730,450.000000,4.000000,,,,0.000000,4.000000,4.000000,4.000000,4.000000,4.000000,,,,,,,,,,,,,,,,,,,,,,,,,
1577421693.204997,79.000000,0.000000,4263.589844,4319.487305,4176.410156,4173.846191,4210.256348,16204.000000,4.000000,,,,0.000000,4.000000,4.000000,4.000000,4.000000,4.000000,,,,,,,,,,,,,,,,,,,,,,,,,
1577421693.212699,80.000000,0.000000,4257.436035,4312.307617,4188.205078,4178.974121,4214.358887,450.000000,4.000000,,,,0.000000,4.000000,4.000000,4.000000,4.000000,4.000000,,,,,,,,,,,,,,,,,,,,,,,,,
1577421693.220502,81.000000,0.000000,4275.897461,4290.769043,4190.769043,4186.153809,4238.974121,450.000000,4.000000,,,,0.000000,4.000000,4.000000,4.000000,4.000000,4.000000,,,,,,,,,,,,,,,,,,,,,,,,,
1577421693.228204,82.000000,0.000000,4270.769043,4274.358887,4174.358887,4176.410156,4233.846191,450.000000,4.000000,,,,0.000000,4.000000,4.000000,4.000000,4.000000,4.000000,,,,,,,,,,,,,,,,,,,,,,,,,
1577421693.236006,83.000000,0.000000,4247.692383,4276.410156,4148.205078,4161.538574,4218.974121,16204.000000,4.000000,,,,0.000000,4.000000,4.000000,4.000000,4.000000,4.000000,,,,,,,,,,,,,,,,,,,,,,,,,
1577421693.243713,84.000000,0.000000,4249.230957,4283.589844,4125.128418,4163.589844,4223.589844,450.000000,4.000000,,,,0.000000,4.000000,4.000000,4.000000,4.000000,4.000000,,,,,,,,,,,,,,,,,,,,,,,,,
1577421693.251421,85.000000,0.000000,4253.846191,4280.000000,4102.563965,4167.179688,4225.641113,450.000000,4.000000,,,,0.000000,4.000000,4.000000,4.000000,4.000000,4.000000,,,,,,,,,,,,,,,,,,,,,,,,,
1577421693.259229,86.000000,0.000000,4262.563965,4291.282227,4110.256348,4184.102539,4234.871582,450.000000,4.000000,,,,0.000000,4.000000,4.000000,4.000000,4.000000,4.000000,,,,,,,,,,,,,,,,,,,,,,,,,
1577421693.266937,87.000000,0.000000,4278.974121,4301.538574,4128.205078,4205.128418,4244.615234,16204.000000,4.000000,,,,0.000000,4.000000,4.000000,4.000000,4.000000,4.000000,,,,,,,,,,,,,,,,,,,,,,,,,
1577421693.274745,88.000000,0.000000,4281.538574,4291.794922,4121.538574,4203.589844,4234.871582,450.000000,4.000000,,,,0.000000,4.000000,4.000000,4.000000,4.000000,4.000000,,,,,,,,,,,,,,,,,,,,,,,,,
1577421693.282453,89.000000,0.000000,4271.282227,4282.563965,4114.358887,4190.256348,4221.538574,450.000000,4.000000,,,,0.000000,4.000000,4.000000,4.000000,4.000000,4.000000,164.284119,12.089073,3.704728,2.428734,1.133809,68.735344,12.880833,3.952896,2.908744,1.121401,16.863638,6.628841,2.187013,1.010252,0.419816,3.456480,7.241694,2.446903,1.679746,0.575904,48.411606,5.215122,2.917432,1.640364,0.687371
1577421693.290163,90.000000,0.000000,4260.000000,4277.436035,4116.922852,4188.717773,4223.077148,450.000000,4.000000,,,,0.000000,4.000000,4.000000,4.000000,4.000000,4.000000,,,,,,,,,,,,,,,,,,,,,,,,,
1577421693.298075,91.000000,0.000000,4259.487305,4277.948730,4117.948730,4184.615234,4223.589844,16204.000000,4.000000,,,,0.000000,4.000000,4.000000,4.000000,4.000000,4.000000,,,,,,,,,,,,,,,,,,,,,,,,,
1577421693.305988,92.000000,0.000000,4262.563965,4278.974121,4118.974121,4165.128418,4213.846191,450.000000,4.000000,,,,0.000000,4.000000,4.000000,4.000000,4.000000,4.000000,,,,,,,,,,,,,,,,,,,,,,,,,
1577421693.313802,93.000000,0.000000,4260.000000,4276.922852,4114.358887,4167.692383,4213.333496,450.000000,4.000000,,,,0.000000,4.000000,4.000000,4.000000,4.000000,4.000000,,,,,,,,,,,,,,,,,,,,,,,,,
1577421693.321616,94.000000,0.000000,4260.000000,4285.641113,4107.179688,4191.794922,4212.820313,450.000000,4.000000,,,,0.000000,4.000000,4.000000,4.000000,4.000000,4.000000,,,,,,,,,,,,,,,,,,,,,,,,,
1577421693.329527,95.000000,0.000000,4267.179688,4293.333496,4108.205078,4192.820313,4212.307617,16204.000000,4.000000,,,,0.000000,4.000000,4.000000,4.000000,4.000000,4.000000,,,,,,,,,,,,,,,,,,,,,,,,,
1577421693.337441,96.000000,0.000000,4278.461426,4294.871582,4115.897461,4187.692383,4230.256348,450.000000,4.000000,,,,0.000000,4.000000,4.000000,4.000000,4.000000,4.000000,,,,,,,,,,,,,,,,,,,,,,,,,
1577421693.345356,97.000000,0.000000,4277.436035,4290.769043,4109.230957,4195.897461,4243.077148,450.000000,4.000000,,,,0.000000,4.000000,4.000000,4.000000,4.000000,4.000000,,,,,,,,,,,,,,,,,,,,,,,,,
1577421693.353273,98.000000,1.000000,4272.934570,4290.085449,4108.490234,4192.364746,4240.398926,450.000000,4.000000,,,,0.000000,4.000000,4.000000,4.000000,4.000000,4.000000,,,,,,,,,,,,,,,,,,,,,,,,,
1577421693.361090,99.000000,1.000000,4268.433105,4289.401855,4107.749512,4188.832031,4237.720703,450.000000,4.000000,,,,0.000000,4.000000,4.000000,4.000000,4.000000,4.000000,,,,,,,,,,,,,,,,,,,,,,,,,
1577421693.368908,100.000000,1.000000,4263.931641,4288.717773,4107.008789,4185.299316,4235.042969,450.000000,4.000000,,,,0.000000,4.000000,4.000000,4.000000,4.000000,4.000000,,,,,,,,,,,,,,,,,,,,,,,,,
1577421693.376725,101.000000,1.000000,4259.430176,4288.034180,4106.267578,4181.766602,4232.364746,450.000000,4.000000,,,,0.000000,4.000000,4.000000,4.000000,4.000000,4.000000,,,,,,,,,,,,,,,,,,,,,,,,,
1577421693.384542,102.000000,1.000000,4254.928711,4287.350586,4105.526855,4178.233398,4229.686523,450.000000,4.000000,,,,0.000000,4.000000,4.000000,4.000000,4.000000,4.000000,,,,,,,,,,,,,,,,,,,,,,,,,
1577421693.392359,103.000000,1.000000,4250.427246,4286.666504,4104.786133,4174.700684,4227.008789,450.000000,4.000000,,,,0.000000,4.000000,4.000000,4.000000,4.000000,4.000000,,,,,,,,,,,,,,,,,,,,,,,,,
1577421693.400177,104.000000,1.000000,4245.925781,4285.982910,4104.045410,4171.167969,4224.330566,450.000000,4.000000,,,,0.000000,4.000000,4.000000,4.000000,4.000000,4.000000,,,,,,,,,,,,,,,,,,,,,,,,,
1577421693.407994,105.000000,1.000000,4241.424316,4285.299316,4103.304688,4167.635254,4221.652344,450.000000,4.000000,,,,0.000000,4.000000,4.000000,4.000000,4.000000,4.000000,166.426010,12.211263,3.323897,2.290911,1.151880,28.449646,7.877078,2.130348,1.373521,0.751412,13.472421,6.361349,2.153124,1.034685,0.422023,2.927165,7.460293,2.345038,1.516237,0.564129,47.589710,5.181102,2.473519,1.541411,0.632517
1577421693.415811,106.000000,0.000000,4236.922852,4284.615234,4102.563965,4164.102539,4218.974121,450.000000,4.000000,,,,0.000000,4.000000,4.000000,4.000000,4.000000,4.000000,,,,,,,,,,,,,,,,,,,,,,,,,
1577421693.423628,107.000000,0.000000,4226.153809,4286.153809,4101.025879,4154.871582,4204.102539,16204.000000,4.000000,,,,0.000000,4.000000,4.000000,4.000000,4.000000,4.000000,,,,,,,,,,,,,,,,,,,,,,,,,
1577421693.431446,108.000000,0.000000,4226.153809,4290.769043,4104.102539,4152.820313,4201.025879,450.000000,4.000000,,,,0.000000,4.000000,4.000000,4.000000,4.000000,4.000000,,,,,,,,,,,,,,,,,,,,,,,,,
1577421693.439143,109.000000,0.000000,4226.153809,4284.102539,4107.692383,4163.077148,4205.641113,450.000000,4.000000,,,,0.000000,4.000000,4.000000,4.000000,4.000000,4.000000,,,,,,,,,,,,,,,,,,,,,,,,,
1577421693.446843,110.000000,0.000000,4222.051270,4284.102539,4110.769043,4161.538574,4198.974121,450.000000,4.000000,,,,0.000000,4.000000,4.000000,4.000000,4.000000,4.000000,,,,,,,,,,,,,,,,,,,,,,,,,
