title:clench8, start timestamp:2019-12-30T23:16:20.402406+03:00, stop timestamp:2019-12-30T23:16:48.606132+03:00, headset type:INSIGHT, headset serial:A2D200FB, headset firmware:930, subject name:Qasim, channels:44, sampling rate:eeg_128;pow_8, samples:3618      , version:2.0
Timestamp,EEG.Counter,EEG.Interpolated,EEG.AF3,EEG.T7,EEG.Pz,EEG.T8,EEG.AF4,EEG.RawCq,EEG.Battery,MarkerIndex,MarkerType,MarkerValueInt,EEG.MarkerHardware,CQ.AF3,CQ.T7,CQ.Pz,CQ.T8,CQ.AF4,POW.AF3.Theta,POW.AF3.Alpha,POW.AF3.BetaL,POW.AF3.BetaH,POW.AF3.Gamma,POW.T7.Theta,POW.T7.Alpha,POW.T7.BetaL,POW.T7.BetaH,POW.T7.Gamma,POW.Pz.Theta,POW.Pz.Alpha,POW.Pz.BetaL,POW.Pz.BetaH,POW.Pz.Gamma,POW.T8.Theta,POW.T8.Alpha,POW.T8.BetaL,POW.T8.BetaH,POW.T8.Gamma,POW.AF4.Theta,POW.AF4.Alpha,POW.AF4.BetaL,POW.AF4.BetaH,POW.AF4.Gamma
1577736980.402406,6.000000,0.000000,4253.333496,4406.666504,4157.948730,4168.205078,4263.077148,16143.000000,4.000000,,,,0.000000,4.000000,4.000000,4.000000,4.000000,4.000000,,,,,,,,,,,,,,,,,,,,,,,,,
1577736980.410105,7.000000,0.000000,4238.461426,4393.846191,4168.717773,4164.102539,4241.538574,450.000000,4.000000,,,,0.000000,4.000000,4.000000,4.000000,4.000000,4.000000,,,,,,,,,,,,,,,,,,,,,,,,,
1577736980.417904,8.000000,0.000000,4228.717773,4386.153809,4125.128418,4145.641113,4226.153809,450.000000,4.000000,,,,0.000000,4.000000,4.000000,4.000000,4.000000,4.000000,,,,,,,,,,,,,,,,,,,,,,,,,
1577736980.425604,9.000000,0.000000,4226.153809,4421.025879,4166.153809,4169.230957,4226.666504,16122.000000,4.000000,,,,0.000000,4.000000,4.000000,4.000000,4.000000,4.000000,,,,,,,,,,,,,,,,,,,,,,,,,
1577736980.433403,10.000000,0.000000,4216.922852,4420.512695,4184.615234,4180.512695,4226.153809,450.000000,4.000000,,,,0.000000,4.000000,4.000000,4.000000,4.000000,4.000000,,,,,,,,,,,,,,,,,,,,,,,,,
1577736980.441102,11.000000,0.000000,4187.692383,4372.820313,4146.666504,4153.846191,4205.641113,16227.000000,4.000000,,,,0.000000,4.000000,4.000000,4.000000,4.000000,4.000000,,,,,,,,,,,,,,,,,,,,,,,,,
1577736980.448901,12.000000,0.000000,4182.563965,4386.666504,4160.000000,4161.025879,4211.794922,450.000000,4.000000,,,,0.000000,4.000000,4.000000,4.000000,4.000000,4.000000,,,,,,,,,,,,,,,,,,,,,,,,,
1577736980.456600,13.000000,0.000000,4197.948730,4423.589844,4171.794922,4182.051270,4225.641113,450.000000,4.000000,,,,0.000000,4.000000,4.000000,4.000000,4.000000,4.000000,20.255632,6.000766,2.200276,0.945132,0.831994,0.772883,1.858017,0.662789,1.106594,2.896132,1.955639,2.040985,0.372772,0.427560,0.773137,1.710385,0.784517,0.468455,0.561420,0.610973,9.012592,3.701162,2.085266,0.685152,0.939024
1577736980.464399,14.000000,0.000000,4188.205078,4398.461426,4167.179688,4174.871582,4209.230957,450.000000,4.000000,,,,0.000000,4.000000,4.000000,4.000000,4.000000,4.000000,,,,,,,,,,,,,,,,,,,,,,,,,
1577736980.472097,15.000000,0.000000,4174.358887,4387.692383,4147.179688,4166.153809,4201.538574,16227.000000,4.000000,,,,0.000000,4.000000,4.000000,4.000000,4.000000,4.000000,,,,,,,,,,,,,,,,,,,,,,,,,
1577736980.479896,16.000000,0.000000,4159.487305,4425.128418,4137.436035,4164.615234,4188.717773,0.000000,4.000000,,,,0.000000,4.000000,4.000000,4.000000,4.000000,4.000000,,,,,,,,,,,,,,,,,,,,,,,,,
1577736980.487595,17.000000,0.000000,4141.025879,4414.871582,4150.256348,4159.487305,4163.589844,0.000000,4.000000,,,,0.000000,4.000000,4.000000,4.000000,4.000000,4.000000,,,,,,,,,,,,,,,,,,,,,,,,,
1577736980.495393,18.000000,0.000000,4122.563965,4364.615234,4120.000000,4147.179688,4151.282227,0.000000,4.000000,,,,0.000000,4.000000,4.000000,4.000000,4.000000,4.000000,,,,,,,,,,,,,,,,,,,,,,,,,
1577736980.503091,19.000000,0.000000,4116.922852,4380.512695,4129.743652,4157.436035,4158.974121,0.000000,4.000000,,,,0.000000,4.000000,4.000000,4.000000,4.000000,4.000000,,,,,,,,,,,,,,,,,,,,,,,,,
1577736980.510890,20.000000,0.000000,4134.871582,4429.230957,4147.692383,4167.179688,4171.282227,0.000000,4.000000,,,,0.000000,4.000000,4.000000,4.000000,4.000000,4.000000,,,,,,,,,,,,,,,,,,,,,,,,,
1577736980.518588,21.000000,0.000000,4145.128418,4417.436035,4132.307617,4155.897461,4164.615234,0.000000,4.000000,,,,0.000000,4.000000,4.000000,4.000000,4.000000,4.000000,,,,,,,,,,,,,,,,,,,,,,,,,
1577736980.526386,22.000000,0.000000,4157.948730,4406.666504,4149.230957,4159.487305,4166.666504,0.000000,4.000000,,,,0.000000,4.000000,4.000000,4.000000,4.000000,4.000000,,,,,,,,,,,,,,,,,,,,,,,,,
1577736980.534084,23.000000,0.000000,4164.102539,4415.897461,4145.641113,4165.128418,4180.000000,0.000000,4.000000,,,,0.000000,4.000000,4.000000,4.000000,4.000000,4.000000,,,,,,,,,,,,,,,,,,,,,,,,,
1577736980.541883,24.000000,0.000000,4154.358887,4403.077148,4148.205078,4170.769043,4177.948730,0.000000,4.000000,,,,0.000000,4.000000,4.000000,4.000000,4.000000,4.000000,,,,,,,,,,,,,,,,,,,,,,,,,
1577736980.549581,25.000000,0.000000,4156.922852,4404.615234,4153.333496,4177.948730,4168.717773,0.000000,4.000000,,,,0.000000,4.000000,4.000000,4.000000,4.000000,4.000000,,,,,,,,,,,,,,,,,,,,,,,,,
1577736980.557281,26.000000,0.000000,4148.717773,4422.563965,4140.512695,4171.282227,4167.692383,0.000000,4.000000,,,,0.000000,4.000000,4.000000,4.000000,4.000000,4.000000,,,,,,,,,,,,,,,,,,,,,,,,,
1577736980.565080,27.000000,0.000000,4133.333496,4408.717773,4165.641113,4174.358887,4177.436035,0.000000,4.000000,,,,0.000000,4.000000,4.000000,4.000000,4.000000,4.000000,,,,,,,,,,,,,,,,,,,,,,,,,
1577736980.572780,28.000000,0.000000,4128.717773,4390.256348,4159.487305,4170.769043,4183.077148,0.000000,4.000000,,,,0.000000,4.000000,4.000000,4.000000,4.000000,4.000000,,,,,,,,,,,,,,,,,,,,,,,,,
1577736980.580580,29.000000,0.000000,4121.025879,4410.256348,4145.128418,4161.538574,4174.871582,0.000000,4.000000,,,,0.000000,4.000000,4.000000,4.000000,4.000000,4.000000,28.398827,7.512419,2.452658,0.769459,0.834192,0.918230,1.731014,0.510582,1.029416,2.692228,2.472864,1.949145,0.271663,0.427684,0.698737,1.276070,0.684053,0.418150,0.549904,0.573031,10.709874,3.541865,1.766206,0.627049,0.913490
1577736980.588279,30.000000,0.000000,4119.487305,4408.717773,4153.846191,4166.153809,4169.743652,0.000000,4.000000,,,,0.000000,4.000000,4.000000,4.000000,4.000000,4.000000,,,,,,,,,,,,,,,,,,,,,,,,,
1577736980.596079,31.000000,0.000000,4115.384766,4380.000000,4136.922852,4161.025879,4172.820313,0.000000,4.000000,,,,0.000000,4.000000,4.000000,4.000000,4.000000,4.000000,,,,,,,,,,,,,,,,,,,,,,,,,
1577736980.603778,32.000000,0.000000,4116.410156,4415.384766,4148.717773,4167.179688,4183.077148,0.000000,4.000000,,,,0.000000,4.000000,4.000000,4.000000,4.000000,4.000000,,,,,,,,,,,,,,,,,,,,,,,,,
1577736980.611578,33.000000,0.000000,4132.307617,4440.512695,4153.333496,4176.922852,4193.846191,0.000000,4.000000,,,,0.000000,4.000000,4.000000,4.000000,4.000000,4.000000,,,,,,,,,,,,,,,,,,,,,,,,,
1577736980.619277,34.000000,0.000000,4138.461426,4391.282227,4144.615234,4166.153809,4189.743652,0.000000,4.000000,,,,0.000000,4.000000,4.000000,4.000000,4.000000,4.000000,,,,,,,,,,,,,,,,,,,,,,,,,
1577736980.627076,35.000000,0.000000,4141.538574,4390.769043,4162.051270,4169.230957,4187.692383,0.000000,4.000000,,,,0.000000,4.000000,4.000000,4.000000,4.000000,4.000000,,,,,,,,,,,,,,,,,,,,,,,,,
1577736980.634775,36.000000,0.000000,4138.461426,4429.230957,4145.128418,4158.974121,4183.589844,0.000000,4.000000,,,,0.000000,4.000000,4.000000,4.000000,4.000000,4.000000,,,,,,,,,,,,,,,,,,,,,,,,,
1577736980.642574,37.000000,0.000000,4122.563965,4411.282227,4141.538574,4145.641113,4165.641113,0.000000,4.000000,,,,0.000000,4.000000,4.000000,4.000000,4.000000,4.000000,,,,,,,,,,,,,,,,,,,,,,,,,
1577736980.650273,38.000000,0.000000,4116.410156,4394.358887,4146.666504,4164.102539,4163.077148,0.000000,4.000000,,,,0.000000,4.000000,4.000000,4.000000,4.000000,4.000000,,,,,,,,,,,,,,,,,,,,,,,,,
1577736980.658072,39.000000,0.000000,4113.333496,4400.512695,4137.436035,4165.641113,4172.307617,0.000000,4.000000,,,,0.000000,4.000000,4.000000,4.000000,4.000000,4.000000,,,,,,,,,,,,,,,,,,,,,,,,,
1577736980.665771,40.000000,0.000000,4105.641113,4396.922852,4148.205078,4155.384766,4175.897461,0.000000,4.000000,,,,0.000000,4.000000,4.000000,4.000000,4.000000,4.000000,,,,,,,,,,,,,,,,,,,,,,,,,
1577736980.673570,41.000000,0.000000,4109.230957,4404.102539,4142.563965,4152.820313,4172.820313,0.000000,4.000000,,,,0.000000,4.000000,4.000000,4.000000,4.000000,4.000000,,,,,,,,,,,,,,,,,,,,,,,,,
1577736980.681269,42.000000,0.000000,4116.410156,4418.461426,4155.384766,4159.487305,4173.333496,0.000000,4.000000,,,,0.000000,4.000000,4.000000,4.000000,4.000000,4.000000,,,,,,,,,,,,,,,,,,,,,,,,,
1577736980.689068,43.000000,0.000000,4113.333496,4405.641113,4163.589844,4165.128418,4180.000000,0.000000,4.000000,,,,0.000000,4.000000,4.000000,4.000000,4.000000,4.000000,,,,,,,,,,,,,,,,,,,,,,,,,
1577736980.696770,44.000000,0.000000,4109.230957,4394.358887,4146.153809,4152.307617,4177.436035,0.000000,4.000000,,,,0.000000,4.000000,4.000000,4.000000,4.000000,4.000000,,,,,,,,,,,,,,,,,,,,,,,,,
1577736980.704475,45.000000,0.000000,4114.871582,4409.230957,4162.563965,4158.974121,4175.384766,0.000000,4.000000,,,,0.000000,4.000000,4.000000,4.000000,4.000000,4.000000,49.974640,10.182359,2.983455,0.682312,0.832269,1.024835,1.496099,0.383824,0.950000,2.523392,2.978287,1.783825,0.238721,0.417627,0.646028,0.943708,0.664866,0.382859,0.519687,0.540249,18.509026,4.340923,1.481500,0.616522,0.888319
1577736980.712279,46.000000,0.000000,4118.461426,4408.205078,4160.512695,4169.230957,4174.871582,0.000000,4.000000,,,,0.000000,4.000000,4.000000,4.000000,4.000000,4.000000,,,,,,,,,,,,,,,,,,,,,,,,,
1577736980.719983,47.000000,0.000000,4111.794922,4383.589844,4160.000000,4161.538574,4167.692383,0.000000,4.000000,,,,0.000000,4.000000,4.000000,4.000000,4.000000,4.000000,,,,,,,,,,,,,,,,,,,,,,,,,
1577736980.727787,48.000000,0.000000,4111.794922,4373.846191,4170.769043,4163.589844,4171.794922,0.000000,4.000000,,,,0.000000,4.000000,4.000000,4.000000,4.000000,4.000000,,,,,,,,,,,,,,,,,,,,,,,,,
1577736980.735491,49.000000,0.000000,4110.769043,4394.358887,4151.282227,4157.436035,4167.179688,0.000000,4.000000,,,,0.000000,4.000000,4.000000,4.000000,4.000000,4.000000,,,,,,,,,,,,,,,,,,,,,,,,,
1577736980.743295,50.000000,0.000000,4105.128418,4420.000000,4154.871582,4154.358887,4154.871582,0.000000,4.000000,,,,0.000000,4.000000,4.000000,4.000000,4.000000,4.000000,,,,,,,,,,,,,,,,,,,,,,,,,
1577736980.750999,51.000000,0.000000,4115.384766,4404.615234,4166.153809,4170.769043,4167.179688,0.000000,4.000000,,,,0.000000,4.000000,4.000000,4.000000,4.000000,4.000000,,,,,,,,,,,,,,,,,,,,,,,,,
1577736980.758802,52.000000,0.000000,4127.179688,4385.641113,4177.436035,4177.948730,4176.922852,0.000000,4.000000,,,,0.000000,4.000000,4.000000,4.000000,4.000000,4.000000,,,,,,,,,,,,,,,,,,,,,,,,,
1577736980.766506,53.000000,0.000000,4127.692383,4414.358887,4180.512695,4173.846191,4178.461426,0.000000,4.000000,,,,0.000000,4.000000,4.000000,4.000000,4.000000,4.000000,,,,,,,,,,,,,,,,,,,,,,,,,
1577736980.774309,54.000000,0.000000,4122.051270,4426.153809,4158.974121,4165.641113,4175.897461,0.000000,4.000000,,,,0.000000,4.000000,4.000000,4.000000,4.000000,4.000000,,,,,,,,,,,,,,,,,,,,,,,,,
1577736980.782013,55.000000,0.000000,4111.282227,4383.589844,4162.563965,4164.102539,4169.230957,0.000000,4.000000,,,,0.000000,4.000000,4.000000,4.000000,4.000000,4.000000,,,,,,,,,,,,,,,,,,,,,,,,,
1577736980.789816,56.000000,0.000000,4108.205078,4379.487305,4155.384766,4169.230957,4173.846191,0.000000,4.000000,,,,0.000000,4.000000,4.000000,4.000000,4.000000,4.000000,,,,,,,,,,,,,,,,,,,,,,,,,
1577736980.797619,57.000000,0.000000,4114.871582,4425.128418,4143.589844,4166.666504,4174.358887,0.000000,4.000000,,,,0.000000,4.000000,4.000000,4.000000,4.000000,4.000000,,,,,,,,,,,,,,,,,,,,,,,,,
1577736980.805320,58.000000,0.000000,4123.589844,4415.384766,4159.487305,4165.128418,4177.436035,0.000000,4.000000,,,,0.000000,4.000000,4.000000,4.000000,4.000000,4.000000,,,,,,,,,,,,,,,,,,,,,,,,,
1577736980.813023,59.000000,0.000000,4124.615234,4386.666504,4155.384766,4167.179688,4180.000000,0.000000,4.000000,,,,0.000000,4.000000,4.000000,4.000000,4.000000,4.000000,,,,,,,,,,,,,,,,,,,,,,,,,
1577736980.820828,60.000000,0.000000,4120.512695,4407.179688,4156.922852,4169.743652,4172.820313,0.000000,4.000000,,,,0.000000,4.000000,4.000000,4.000000,4.000000,4.000000,,,,,,,,,,,,,,,,,,,,,,,,,
1577736980.828634,61.000000,0.000000,4110.256348,4422.563965,4162.051270,4171.794922,4171.282227,0.000000,4.000000,,,,0.000000,4.000000,4.000000,4.000000,4.000000,4.000000,87.560898,14.235381,3.926916,0.726324,0.825800,1.068190,1.209399,0.317533,0.891700,2.442748,3.313597,1.627802,0.279664,0.396585,0.649503,0.783950,0.724989,0.374076,0.476005,0.525630,33.517113,6.327396,1.434571,0.668676,0.870761
1577736980.836439,62.000000,0.000000,4099.487305,4405.128418,4161.538574,4165.641113,4167.179688,0.000000,4.000000,,,,0.000000,4.000000,4.000000,4.000000,4.000000,4.000000,,,,,,,,,,,,,,,,,,,,,,,,,
1577736980.844142,63.000000,0.000000,4109.230957,4385.128418,4166.153809,4159.487305,4169.230957,0.000000,4.000000,,,,0.000000,4.000000,4.000000,4.000000,4.000000,4.000000,,,,,,,,,,,,,,,,,,,,,,,,,
1577736980.851944,64.000000,0.000000,4116.410156,4386.666504,4153.333496,4164.615234,4174.358887,450.000000,4.000000,,,,0.000000,4.000000,4.000000,4.000000,4.000000,4.000000,,,,,,,,,,,,,,,,,,,,,,,,,
1577736980.859647,65.000000,0.000000,4094.871826,4415.384766,4162.563965,4171.282227,4162.051270,450.000000,4.000000,,,,0.000000,4.000000,4.000000,4.000000,4.000000,4.000000,,,,,,,,,,,,,,,,,,,,,,,,,
1577736980.867449,66.000000,0.000000,4097.436035,4428.205078,4164.615234,4170.256348,4161.538574,16229.000000,4.000000,,,,0.000000,4.000000,4.000000,4.000000,4.000000,4.000000,,,,,,,,,,,,,,,,,,,,,,,,,
1577736980.875152,67.000000,0.000000,4121.538574,4388.205078,4149.743652,4167.179688,4168.205078,450.000000,4.000000,,,,0.000000,4.000000,4.000000,4.000000,4.000000,4.000000,,,,,,,,,,,,,,,,,,,,,,,,,
1577736980.882954,68.000000,0.000000,4125.128418,4380.512695,4152.307617,4160.000000,4159.487305,16218.000000,4.000000,,,,0.000000,4.000000,4.000000,4.000000,4.000000,4.000000,,,,,,,,,,,,,,,,,,,,,,,,,
1577736980.890657,69.000000,0.000000,4118.461426,4429.230957,4145.128418,4155.897461,4155.897461,450.000000,4.000000,,,,0.000000,4.000000,4.000000,4.000000,4.000000,4.000000,,,,,,,,,,,,,,,,,,,,,,,,,
1577736980.898459,70.000000,0.000000,4122.563965,4424.102539,4167.692383,4175.384766,4164.102539,16150.000000,4.000000,,,,0.000000,4.000000,4.000000,4.000000,4.000000,4.000000,,,,,,,,,,,,,,,,,,,,,,,,,
1577736980.906161,71.000000,0.000000,4132.307617,4374.871582,4174.358887,4178.974121,4167.179688,450.000000,4.000000,,,,0.000000,4.000000,4.000000,4.000000,4.000000,4.000000,,,,,,,,,,,,,,,,,,,,,,,,,
1577736980.913963,72.000000,0.000000,4118.974121,4380.512695,4160.512695,4162.051270,4156.922852,450.000000,4.000000,,,,0.000000,4.000000,4.000000,4.000000,4.000000,4.000000,,,,,,,,,,,,,,,,,,,,,,,,,
1577736980.921665,73.000000,0.000000,4105.641113,4434.871582,4172.820313,4164.102539,4151.282227,16133.000000,4.000000,,,,0.000000,4.000000,4.000000,4.000000,4.000000,4.000000,,,,,,,,,,,,,,,,,,,,,,,,,
1577736980.929467,74.000000,0.000000,4110.256348,4428.205078,4149.743652,4160.000000,4148.205078,450.000000,4.000000,,,,0.000000,4.000000,4.000000,4.000000,4.000000,4.000000,,,,,,,,,,,,,,,,,,,,,,,,,
1577736980.937169,75.000000,0.000000,4112.307617,4373.846191,4160.000000,4158.974121,4137.436035,16209.000000,4.000000,,,,0.000000,4.000000,4.000000,4.000000,4.000000,4.000000,,,,,,,,,,,,,,,,,,,,,,,,,
1577736980.944971,76.000000,0.000000,4121.025879,4391.282227,4173.846191,4160.000000,4130.256348,450.000000,4.000000,,,,0.000000,4.000000,4.000000,4.000000,4.000000,4.000000,,,,,,,,,,,,,,,,,,,,,,,,,
1577736980.952673,77.000000,0.000000,4122.563965,4428.205078,4161.538574,4160.512695,4134.871582,450.000000,4.000000,,,,0.000000,4.000000,4.000000,4.000000,4.000000,4.000000,135.310684,19.172842,5.212961,0.880045,0.808507,1.049939,0.940209,0.322071,0.875268,2.474464,3.366271,1.555726,0.402954,0.368683,0.718580,0.767016,0.834112,0.407485,0.428183,0.532868,53.142036,9.129580,1.720302,0.772027,0.855188
1577736980.960475,78.000000,0.000000,4120.000000,4403.589844,4193.333496,4184.615234,4151.794922,450.000000,4.000000,,,,0.000000,4.000000,4.000000,4.000000,4.000000,4.000000,,,,,,,,,,,,,,,,,,,,,,,,,
1577736980.968176,79.000000,0.000000,4122.051270,4378.974121,4170.769043,4171.282227,4155.897461,16209.000000,4.000000,,,,0.000000,4.000000,4.000000,4.000000,4.000000,4.000000,,,,,,,,,,,,,,,,,,,,,,,,,
1577736980.975978,80.000000,0.000000,4131.282227,4391.794922,4163.077148,4160.512695,4158.461426,450.000000,4.000000,,,,0.000000,4.000000,4.000000,4.000000,4.000000,4.000000,,,,,,,,,,,,,,,,,,,,,,,,,
1577736980.983679,81.000000,0.000000,4149.743652,4414.358887,4188.717773,4183.077148,4174.358887,450.000000,4.000000,,,,0.000000,4.000000,4.000000,4.000000,4.000000,4.000000,,,,,,,,,,,,,,,,,,,,,,,,,
1577736980.991382,82.000000,0.000000,4143.589844,4423.077148,4155.897461,4175.897461,4165.641113,450.000000,4.000000,,,,0.000000,4.000000,4.000000,4.000000,4.000000,4.000000,,,,,,,,,,,,,,,,,,,,,,,,,
1577736980.999186,83.000000,0.000000,4138.974121,4411.282227,4175.384766,4176.410156,4157.436035,16209.000000,4.000000,,,,0.000000,4.000000,4.000000,4.000000,4.000000,4.000000,,,,,,,,,,,,,,,,,,,,,,,,,
1577736981.006889,84.000000,0.000000,4154.358887,4392.820313,4181.538574,4178.974121,4172.820313,450.000000,4.000000,,,,0.000000,4.000000,4.000000,4.000000,4.000000,4.000000,,,,,,,,,,,,,,,,,,,,,,,,,
1577736981.014692,85.000000,0.000000,4148.205078,4405.641113,4161.025879,4174.871582,4176.410156,450.000000,4.000000,,,,0.000000,4.000000,4.000000,4.000000,4.000000,4.000000,,,,,,,,,,,,,,,,,,,,,,,,,
1577736981.022395,86.000000,0.000000,4151.794922,4409.230957,4192.820313,4193.333496,4178.974121,450.000000,4.000000,,,,0.000000,4.000000,4.000000,4.000000,4.000000,4.000000,,,,,,,,,,,,,,,,,,,,,,,,,
1577736981.030198,87.000000,0.000000,4161.025879,4370.256348,4174.358887,4185.641113,4175.384766,16209.000000,4.000000,,,,0.000000,4.000000,4.000000,4.000000,4.000000,4.000000,,,,,,,,,,,,,,,,,,,,,,,,,
1577736981.037901,88.000000,0.000000,4155.384766,4383.077148,4163.589844,4172.820313,4165.641113,450.000000,4.000000,,,,0.000000,4.000000,4.000000,4.000000,4.000000,4.000000,,,,,,,,,,,,,,,,,,,,,,,,,
1577736981.045704,89.000000,0.000000,4167.692383,4423.589844,4169.743652,4172.307617,4166.153809,450.000000,4.000000,,,,0.000000,4.000000,4.000000,4.000000,4.000000,4.000000,,,,,,,,,,,,,,,,,,,,,,,,,
1577736981.053406,90.000000,0.000000,4184.615234,4411.282227,4160.512695,4172.307617,4164.102539,450.000000,4.000000,,,,0.000000,4.000000,4.000000,4.000000,4.000000,4.000000,,,,,,,,,,,,,,,,,,,,,,,,,
1577736981.061209,91.000000,0.000000,4194.871582,4400.512695,4177.948730,4184.615234,4168.717773,16209.000000,4.000000,,,,0.000000,4.000000,4.000000,4.000000,4.000000,4.000000,,,,,,,,,,,,,,,,,,,,,,,,,
1577736981.068911,92.000000,0.000000,4192.307617,4407.179688,4162.051270,4175.384766,4169.230957,450.000000,4.000000,,,,0.000000,4.000000,4.000000,4.000000,4.000000,4.000000,,,,,,,,,,,,,,,,,,,,,,,,,
1577736981.076714,93.000000,0.000000,4185.641113,4395.384766,4161.025879,4167.692383,4164.102539,450.000000,4.000000,,,,0.000000,4.000000,4.000000,4.000000,4.000000,4.000000,180.281769,23.805241,6.504614,1.075759,0.768801,0.988924,0.737535,0.381861,0.898259,2.616217,3.115758,1.575593,0.583813,0.341590,0.827389,0.834172,0.943263,0.464032,0.385313,0.552906,71.980232,11.868458,2.228671,0.885866,0.824483
1577736981.084416,94.000000,0.000000,4191.282227,4389.743652,4171.794922,4176.410156,4169.230957,450.000000,4.000000,,,,0.000000,4.000000,4.000000,4.000000,4.000000,4.000000,,,,,,,,,,,,,,,,,,,,,,,,,
1577736981.092120,95.000000,0.000000,4195.897461,4409.743652,4157.436035,4173.846191,4173.846191,16209.000000,4.000000,,,,0.000000,4.000000,4.000000,4.000000,4.000000,4.000000,,,,,,,,,,,,,,,,,,,,,,,,,
1577736981.099925,96.000000,0.000000,4203.077148,4424.615234,4178.974121,4177.948730,4177.436035,450.000000,4.000000,,,,0.000000,4.000000,4.000000,4.000000,4.000000,4.000000,,,,,,,,,,,,,,,,,,,,,,,,,
1577736981.107629,97.000000,0.000000,4203.589844,4403.589844,4165.128418,4168.205078,4175.897461,450.000000,4.000000,,,,0.000000,4.000000,4.000000,4.000000,4.000000,4.000000,,,,,,,,,,,,,,,,,,,,,,,,,
1577736981.115433,98.000000,0.000000,4201.025879,4383.077148,4151.794922,4163.589844,4176.922852,450.000000,4.000000,,,,0.000000,4.000000,4.000000,4.000000,4.000000,4.000000,,,,,,,,,,,,,,,,,,,,,,,,,
1577736981.123137,99.000000,0.000000,4205.641113,4402.051270,4169.743652,4181.538574,4185.641113,16209.000000,4.000000,,,,0.000000,4.000000,4.000000,4.000000,4.000000,4.000000,,,,,,,,,,,,,,,,,,,,,,,,,
1577736981.130940,100.000000,0.000000,4192.307617,4404.615234,4146.666504,4173.333496,4173.846191,450.000000,4.000000,,,,0.000000,4.000000,4.000000,4.000000,4.000000,4.000000,,,,,,,,,,,,,,,,,,,,,,,,,
1577736981.138644,101.000000,0.000000,4177.436035,4377.948730,4146.666504,4165.641113,4163.589844,450.000000,4.000000,,,,0.000000,4.000000,4.000000,4.000000,4.000000,4.000000,,,,,,,,,,,,,,,,,,,,,,,,,
1577736981.146448,102.000000,0.000000,4177.948730,4382.051270,4148.205078,4176.410156,4175.897461,450.000000,4.000000,,,,0.000000,4.000000,4.000000,4.000000,4.000000,4.000000,,,,,,,,,,,,,,,,,,,,,,,,,
1577736981.154252,103.000000,0.000000,4173.846191,4401.025879,4142.051270,4176.922852,4176.922852,16209.000000,4.000000,,,,0.000000,4.000000,4.000000,4.000000,4.000000,4.000000,,,,,,,,,,,,,,,,,,,,,,,,,
1577736981.161953,104.000000,0.000000,4178.461426,4407.179688,4161.538574,4171.794922,4177.436035,450.000000,4.000000,,,,0.000000,4.000000,4.000000,4.000000,4.000000,4.000000,,,,,,,,,,,,,,,,,,,,,,,,,
1577736981.169657,105.000000,0.000000,4188.205078,4406.153809,4150.769043,4167.692383,4185.641113,450.000000,4.000000,,,,0.000000,4.000000,4.000000,4.000000,4.000000,4.000000,,,,,,,,,,,,,,,,,,,,,,,,,
1577736981.177460,106.000000,0.000000,4182.563965,4392.307617,4155.384766,4173.846191,4182.563965,450.000000,4.000000,,,,0.000000,4.000000,4.000000,4.000000,4.000000,4.000000,,,,,,,,,,,,,,,,,,,,,,,,,
1577736981.185163,107.000000,0.000000,4193.333496,4377.948730,4163.077148,4175.897461,4186.153809,16209.000000,4.000000,,,,0.000000,4.000000,4.000000,4.000000,4.000000,4.000000,,,,,,,,,,,,,,,,,,,,,,,,,
1577736981.192966,108.000000,0.000000,4234.871582,4395.897461,4153.333496,4168.717773,4204.615234,450.000000,4.000000,,,,0.000000,4.000000,4.000000,4.000000,4.000000,4.000000,,,,,,,,,,,,,,,,,,,,,,,,,
1577736981.200769,109.000000,0.000000,4296.922852,4422.051270,4167.179688,4171.282227,4232.820313,450.000000,4.000000,,,,0.000000,4.000000,4.000000,4.000000,4.000000,4.000000,207.430206,26.640055,7.346126,1.235483,0.699719,0.898629,0.601427,0.474465,0.939206,2.858996,2.653964,1.624135,0.781218,0.324231,0.925487,0.929690,0.995986,0.515235,0.354353,0.569004,83.756325,13.516462,2.720936,0.958737,0.761578
1577736981.208471,110.000000,0.000000,4367.179688,4410.769043,4158.461426,4171.794922,4272.820313,450.000000,4.000000,,,,0.000000,4.000000,4.000000,4.000000,4.000000,4.000000,,,,,,,,,,,,,,,,,,,,,,,,,
1577736981.216174,111.000000,0.000000,4437.436035,4408.205078,4171.794922,4178.461426,4323.077148,16209.000000,4.000000,,,,0.000000,4.000000,4.000000,4.000000,4.000000,4.000000,,,,,,,,,,,,,,,,,,,,,,,,,
1577736981.223977,112.000000,0.000000,4500.000000,4418.974121,4187.692383,4177.436035,4374.871582,450.000000,4.000000,,,,0.000000,4.000000,4.000000,4.000000,4.000000,4.000000,,,,,,,,,,,,,,,,,,,,,,,,,
1577736981.231679,113.000000,0.000000,4528.205078,4398.974121,4156.922852,4162.051270,4399.487305,450.000000,4.000000,,,,0.000000,4.000000,4.000000,4.000000,4.000000,4.000000,,,,,,,,,,,,,,,,,,,,,,,,,
1577736981.239482,114.000000,0.000000,4535.897461,4398.461426,4167.692383,4171.282227,4407.692383,450.000000,4.000000,,,,0.000000,4.000000,4.000000,4.000000,4.000000,4.000000,,,,,,,,,,,,,,,,,,,,,,,,,
1577736981.247185,115.000000,0.000000,4543.589844,4402.563965,4175.897461,4175.897461,4414.358887,16209.000000,4.000000,,,,0.000000,4.000000,4.000000,4.000000,4.000000,4.000000,,,,,,,,,,,,,,,,,,,,,,,,,
1577736981.254988,116.000000,0.000000,4527.692383,4385.128418,4157.948730,4153.846191,4391.794922,450.000000,4.000000,,,,0.000000,4.000000,4.000000,4.000000,4.000000,4.000000,,,,,,,,,,,,,,,,,,,,,,,,,
1577736981.262690,117.000000,0.000000,4497.436035,4398.974121,4153.846191,4142.051270,4358.461426,450.000000,4.000000,,,,0.000000,4.000000,4.000000,4.000000,4.000000,4.000000,,,,,,,,,,,,,,,,,,,,,,,,,
1577736981.270493,118.000000,0.000000,4467.179688,4405.128418,4145.641113,4151.794922,4341.538574,450.000000,4.000000,,,,0.000000,4.000000,4.000000,4.000000,4.000000,4.000000,,,,,,,,,,,,,,,,,,,,,,,,,
1577736981.278195,119.000000,0.000000,4434.358887,4378.974121,4159.487305,4163.589844,4322.051270,16209.000000,4.000000,,,,0.000000,4.000000,4.000000,4.000000,4.000000,4.000000,,,,,,,,,,,,,,,,,,,,,,,,,
1577736981.286099,120.000000,0.000000,4403.077148,4391.282227,4162.563965,4158.974121,4294.358887,450.000000,4.000000,,,,0.000000,4.000000,4.000000,4.000000,4.000000,4.000000,,,,,,,,,,,,,,,,,,,,,,,,,
1577736981.293903,121.000000,0.000000,4376.410156,4413.333496,4165.641113,4155.897461,4267.692383,450.000000,4.000000,,,,0.000000,4.000000,4.000000,4.000000,4.000000,4.000000,,,,,,,,,,,,,,,,,,,,,,,,,
1577736981.301607,122.000000,0.000000,4357.436035,4391.794922,4182.563965,4165.128418,4256.922852,450.000000,4.000000,,,,0.000000,4.000000,4.000000,4.000000,4.000000,4.000000,,,,,,,,,,,,,,,,,,,,,,,,,
1577736981.309411,123.000000,0.000000,4335.384766,4387.179688,4166.153809,4167.179688,4257.436035,16209.000000,4.000000,,,,0.000000,4.000000,4.000000,4.000000,4.000000,4.000000,,,,,,,,,,,,,,,,,,,,,,,,,
1577736981.317215,124.000000,0.000000,4313.846191,4417.948730,4172.307617,4166.153809,4247.179688,450.000000,4.000000,,,,0.000000,4.000000,4.000000,4.000000,4.000000,4.000000,,,,,,,,,,,,,,,,,,,,,,,,,
1577736981.324917,125.000000,0.000000,4300.000000,4405.128418,4173.333496,4160.512695,4224.102539,450.000000,4.000000,,,,0.000000,4.000000,4.000000,4.000000,4.000000,4.000000,206.323212,26.412022,7.357376,1.301033,0.607411,0.783526,0.505108,0.578985,0.975910,3.184088,2.128396,1.618967,0.958655,0.322497,0.962707,1.009990,0.957133,0.538364,0.338631,0.567165,84.273193,13.347951,2.946518,0.956262,0.662748
1577736981.332719,126.000000,0.000000,4281.538574,4374.871582,4157.948730,4159.487305,4208.717773,450.000000,4.000000,,,,0.000000,4.000000,4.000000,4.000000,4.000000,4.000000,,,,,,,,,,,,,,,,,,,,,,,,,
1577736981.340421,127.000000,0.000000,4278.974121,4404.102539,4174.871582,4171.794922,4212.307617,238.000000,4.000000,,,,0.000000,4.000000,4.000000,4.000000,4.000000,4.000000,,,,,,,,,,,,,,,,,,,,,,,,,
1577736981.348223,0.000000,0.000000,4274.358887,4428.717773,4153.846191,4166.666504,4198.974121,450.000000,4.000000,,,,0.000000,4.000000,4.000000,4.000000,4.000000,4.000000,,,,,,,,,,,,,,,,,,,,,,,,,
1577736981.355925,1.000000,0.000000,4249.743652,4396.410156,4142.051270,4159.487305,4171.794922,450.000000,4.000000,,,,0.000000,4.000000,4.000000,4.000000,4.000000,4.000000,,,,,,,,,,,,,,,,,,,,,,,,,
1577736981.363726,2.000000,0.000000,4236.922852,4377.436035,4156.410156,4162.051270,4165.128418,16216.000000,4.000000,,,,0.000000,4.000000,4.000000,4.000000,4.000000,4.000000,,,,,,,,,,,,,,,,,,,,,,,,,
1577736981.371428,3.000000,0.000000,4224.102539,4391.282227,4152.820313,4157.436035,4160.000000,450.000000,4.000000,,,,0.000000,4.000000,4.000000,4.000000,4.000000,4.000000,,,,,,,,,,,,,,,,,,,,,,,,,
1577736981.379131,4.000000,0.000000,4214.871582,4404.102539,4169.743652,4162.051270,4151.794922,16218.000000,4.000000,,,,0.000000,4.000000,4.000000,4.000000,4.000000,4.000000,,,,,,,,,,,,,,,,,,,,,,,,,
1577736981.386934,5.000000,0.000000,4217.436035,4414.871582,4167.179688,4158.974121,4155.384766,450.000000,4.000000,,,,0.000000,4.000000,4.000000,4.000000,4.000000,4.000000,,,,,,,,,,,,,,,,,,,,,,,,,
1577736981.394637,6.000000,0.000000,4216.410156,4407.179688,4168.205078,4157.436035,4164.615234,16147.000000,4.000000,,,,0.000000,4.000000,4.000000,4.000000,4.000000,4.000000,,,,,,,,,,,,,,,,,,,,,,,,,
1577736981.402440,7.000000,0.000000,4210.256348,4373.333496,4171.282227,4162.563965,4163.589844,450.000000,4.000000,,,,0.000000,4.000000,4.000000,4.000000,4.000000,4.000000,,,,,,,,,,,,,,,,,,,,,,,,,
1577736981.410143,8.000000,0.000000,4196.410156,4378.461426,4138.974121,4150.256348,4151.794922,450.000000,4.000000,,,,0.000000,4.000000,4.000000,4.000000,4.000000,4.000000,,,,,,,,,,,,,,,,,,,,,,,,,
1577736981.417946,9.000000,0.000000,4185.128418,4427.692383,4146.666504,4150.769043,4152.307617,16134.000000,4.000000,,,,0.000000,4.000000,4.000000,4.000000,4.000000,4.000000,,,,,,,,,,,,,,,,,,,,,,,,,
1577736981.425648,10.000000,0.000000,4178.974121,4420.000000,4146.666504,4157.948730,4153.846191,450.000000,4.000000,,,,0.000000,4.000000,4.000000,4.000000,4.000000,4.000000,,,,,,,,,,,,,,,,,,,,,,,,,
1577736981.433451,11.000000,0.000000,4159.487305,4377.948730,4132.307617,4157.436035,4142.563965,16209.000000,4.000000,,,,0.000000,4.000000,4.000000,4.000000,4.000000,4.000000,,,,,,,,,,,,,,,,,,,,,,,,,
1577736981.441154,12.000000,0.000000,4151.282227,4382.563965,4145.128418,4161.025879,4148.205078,450.000000,4.000000,,,,0.000000,4.000000,4.000000,4.000000,4.000000,4.000000,,,,,,,,,,,,,,,,,,,,,,,,,
1577736981.448956,13.000000,0.000000,4184.102539,4406.666504,4137.436035,4162.051270,4170.769043,450.000000,4.000000,,,,0.000000,4.000000,4.000000,4.000000,4.000000,4.000000,179.859039,23.364176,6.468311,1.257097,0.509905,0.651666,0.429918,0.674655,1.002410,3.547912,1.712132,1.508590,1.079743,0.334978,0.914764,1.064692,0.831435,0.523980,0.334301,0.543679,74.197380,11.480268,2.809881,0.879919,0.542147
1577736981.456659,14.000000,0.000000,4251.794922,4430.769043,4158.461426,4176.922852,4198.461426,450.000000,4.000000,,,,0.000000,4.000000,4.000000,4.000000,4.000000,4.000000,,,,,,,,,,,,,,,,,,,,,,,,,
1577736981.464461,15.000000,0.000000,4329.743652,4426.666504,4171.794922,4184.102539,4232.307617,16209.000000,4.000000,,,,0.000000,4.000000,4.000000,4.000000,4.000000,4.000000,,,,,,,,,,,,,,,,,,,,,,,,,
1577736981.472164,16.000000,0.000000,4395.384766,4393.846191,4155.384766,4170.769043,4265.641113,0.000000,4.000000,,,,0.000000,4.000000,4.000000,4.000000,4.000000,4.000000,,,,,,,,,,,,,,,,,,,,,,,,,
1577736981.479966,17.000000,0.000000,4452.307617,4397.948730,4162.563965,4166.153809,4298.461426,0.000000,4.000000,,,,0.000000,4.000000,4.000000,4.000000,4.000000,4.000000,,,,,,,,,,,,,,,,,,,,,,,,,
1577736981.487669,18.000000,0.000000,4490.256348,4421.538574,4149.743652,4162.051270,4318.974121,0.000000,4.000000,,,,0.000000,4.000000,4.000000,4.000000,4.000000,4.000000,,,,,,,,,,,,,,,,,,,,,,,,,
1577736981.495471,19.000000,0.000000,4511.794922,4415.897461,4155.897461,4163.077148,4327.692383,0.000000,4.000000,,,,0.000000,4.000000,4.000000,4.000000,4.000000,4.000000,,,,,,,,,,,,,,,,,,,,,,,,,
1577736981.503173,20.000000,0.000000,4527.179688,4403.077148,4170.769043,4167.179688,4329.230957,0.000000,4.000000,,,,0.000000,4.000000,4.000000,4.000000,4.000000,4.000000,,,,,,,,,,,,,,,,,,,,,,,,,
1577736981.510975,21.000000,0.000000,4514.358887,4407.692383,4157.948730,4164.102539,4317.436035,0.000000,4.000000,,,,0.000000,4.000000,4.000000,4.000000,4.000000,4.000000,,,,,,,,,,,,,,,,,,,,,,,,,
1577736981.518677,22.000000,0.000000,4487.179688,4404.102539,4158.461426,4167.179688,4304.615234,0.000000,4.000000,,,,0.000000,4.000000,4.000000,4.000000,4.000000,4.000000,,,,,,,,,,,,,,,,,,,,,,,,,
1577736981.526479,23.000000,0.000000,4460.512695,4391.794922,4143.589844,4165.128418,4290.769043,0.000000,4.000000,,,,0.000000,4.000000,4.000000,4.000000,4.000000,4.000000,,,,,,,,,,,,,,,,,,,,,,,,,
1577736981.534181,24.000000,0.000000,4424.102539,4400.000000,4142.563965,4154.871582,4258.461426,0.000000,4.000000,,,,0.000000,4.000000,4.000000,4.000000,4.000000,4.000000,,,,,,,,,,,,,,,,,,,,,,,,,
1577736981.541983,25.000000,0.000000,4382.563965,4407.179688,4148.205078,4148.717773,4225.128418,0.000000,4.000000,,,,0.000000,4.000000,4.000000,4.000000,4.000000,4.000000,,,,,,,,,,,,,,,,,,,,,,,,,
1577736981.549685,26.000000,0.000000,4344.102539,4391.282227,4135.897461,4155.897461,4206.666504,0.000000,4.000000,,,,0.000000,4.000000,4.000000,4.000000,4.000000,4.000000,,,,,,,,,,,,,,,,,,,,,,,,,
1577736981.557388,27.000000,0.000000,4303.589844,4384.102539,4151.794922,4168.717773,4191.794922,0.000000,4.000000,,,,0.000000,4.000000,4.000000,4.000000,4.000000,4.000000,,,,,,,,,,,,,,,,,,,,,,,,,
1577736981.565192,28.000000,0.000000,4258.461426,4406.666504,4133.333496,4152.307617,4172.307617,0.000000,4.000000,,,,0.000000,4.000000,4.000000,4.000000,4.000000,4.000000,,,,,,,,,,,,,,,,,,,,,,,,,
1577736981.572895,29.000000,0.000000,4227.692383,4424.102539,4109.230957,4133.333496,4149.743652,0.000000,4.000000,,,,0.000000,4.000000,4.000000,4.000000,4.000000,4.000000,144.973373,19.277706,5.011075,1.139354,0.426626,0.528637,0.374726,0.733800,1.029449,3.878484,1.490335,1.309055,1.126739,0.354341,0.793355,1.079719,0.664151,0.482464,0.334331,0.506098,59.927494,9.141862,2.453539,0.762724,0.425920
1577736981.580698,30.000000,0.000000,4221.538574,4405.641113,4127.692383,4141.538574,4145.128418,0.000000,4.000000,,,,0.000000,4.000000,4.000000,4.000000,4.000000,4.000000,,,,,,,,,,,,,,,,,,,,,,,,,
1577736981.588401,31.000000,0.000000,4212.307617,4389.230957,4120.000000,4142.051270,4145.641113,0.000000,4.000000,,,,0.000000,4.000000,4.000000,4.000000,4.000000,4.000000,,,,,,,,,,,,,,,,,,,,,,,,,
1577736981.596205,32.000000,0.000000,4202.051270,4406.666504,4118.461426,4141.538574,4138.461426,0.000000,4.000000,,,,0.000000,4.000000,4.000000,4.000000,4.000000,4.000000,,,,,,,,,,,,,,,,,,,,,,,,,
1577736981.603908,33.000000,0.000000,4222.051270,4409.230957,4129.743652,4158.974121,4151.794922,0.000000,4.000000,,,,0.000000,4.000000,4.000000,4.000000,4.000000,4.000000,,,,,,,,,,,,,,,,,,,,,,,,,
1577736981.611711,34.000000,0.000000,4244.102539,4396.922852,4143.589844,4175.384766,4170.256348,0.000000,4.000000,,,,0.000000,4.000000,4.000000,4.000000,4.000000,4.000000,,,,,,,,,,,,,,,,,,,,,,,,,
1577736981.619414,35.000000,0.000000,4232.820313,4415.384766,4154.871582,4168.205078,4164.615234,0.000000,4.000000,,,,0.000000,4.000000,4.000000,4.000000,4.000000,4.000000,,,,,,,,,,,,,,,,,,,,,,,,,
1577736981.627318,36.000000,0.000000,4208.717773,4403.077148,4129.743652,4150.769043,4147.179688,0.000000,4.000000,,,,0.000000,4.000000,4.000000,4.000000,4.000000,4.000000,,,,,,,,,,,,,,,,,,,,,,,,,
1577736981.635123,37.000000,0.000000,4207.179688,4374.871582,4145.641113,4159.487305,4149.743652,0.000000,4.000000,,,,0.000000,4.000000,4.000000,4.000000,4.000000,4.000000,,,,,,,,,,,,,,,,,,,,,,,,,
1577736981.643027,38.000000,0.000000,4209.743652,4406.666504,4169.743652,4169.743652,4168.205078,0.000000,4.000000,,,,0.000000,4.000000,4.000000,4.000000,4.000000,4.000000,,,,,,,,,,,,,,,,,,,,,,,,,
1577736981.650832,39.000000,0.000000,4180.512695,4417.948730,4141.538574,4156.922852,4157.436035,0.000000,4.000000,,,,0.000000,4.000000,4.000000,4.000000,4.000000,4.000000,,,,,,,,,,,,,,,,,,,,,,,,,
1577736981.658736,40.000000,0.000000,4156.410156,4380.000000,4132.307617,4154.358887,4140.000000,0.000000,4.000000,,,,0.000000,4.000000,4.000000,4.000000,4.000000,4.000000,,,,,,,,,,,,,,,,,,,,,,,,,
1577736981.666540,41.000000,0.000000,4154.358887,4385.641113,4125.128418,4153.846191,4145.641113,0.000000,4.000000,,,,0.000000,4.000000,4.000000,4.000000,4.000000,4.000000,,,,,,,,,,,,,,,,,,,,,,,,,
1577736981.674444,42.000000,0.000000,4145.641113,4422.051270,4124.615234,4144.102539,4143.589844,0.000000,4.000000,,,,0.000000,4.000000,4.000000,4.000000,4.000000,4.000000,,,,,,,,,,,,,,,,,,,,,,,,,
1577736981.682248,43.000000,0.000000,4142.563965,4410.769043,4125.641113,4142.563965,4133.846191,0.000000,4.000000,,,,0.000000,4.000000,4.000000,4.000000,4.000000,4.000000,,,,,,,,,,,,,,,,,,,,,,,,,
1577736981.690152,44.000000,0.000000,4143.589844,4372.307617,4114.871582,4144.615234,4130.769043,0.000000,4.000000,,,,0.000000,4.000000,4.000000,4.000000,4.000000,4.000000,,,,,,,,,,,,,,,,,,,,,,,,,
1577736981.698058,45.000000,0.000000,4133.846191,4373.846191,4132.307617,4144.615234,4128.717773,0.000000,4.000000,,,,0.000000,4.000000,4.000000,4.000000,4.000000,4.000000,125.628487,17.127853,3.597009,1.021041,0.368699,0.454498,0.347877,0.731807,1.064225,4.095519,1.438557,1.091408,1.119760,0.373637,0.635038,1.073050,0.508609,0.432050,0.330235,0.465703,51.087635,7.988185,2.150980,0.645985,0.336680
1577736981.705864,46.000000,0.000000,4123.077148,4402.563965,4124.615234,4133.846191,4124.102539,0.000000,4.000000,,,,0.000000,4.000000,4.000000,4.000000,4.000000,4.000000,,,,,,,,,,,,,,,,,,,,,,,,,
1577736981.713769,47.000000,0.000000,4122.051270,4400.512695,4114.871582,4129.230957,4120.512695,0.000000,4.000000,,,,0.000000,4.000000,4.000000,4.000000,4.000000,4.000000,,,,,,,,,,,,,,,,,,,,,,,,,
1577736981.721575,48.000000,0.000000,4128.717773,4383.589844,4128.205078,4137.436035,4122.563965,0.000000,4.000000,,,,0.000000,4.000000,4.000000,4.000000,4.000000,4.000000,,,,,,,,,,,,,,,,,,,,,,,,,
1577736981.729480,49.000000,0.000000,4132.307617,4391.282227,4118.974121,4138.461426,4125.128418,0.000000,4.000000,,,,0.000000,4.000000,4.000000,4.000000,4.000000,4.000000,,,,,,,,,,,,,,,,,,,,,,,,,
1577736981.737285,50.000000,0.000000,4132.307617,4403.589844,4130.769043,4144.615234,4129.743652,0.000000,4.000000,,,,0.000000,4.000000,4.000000,4.000000,4.000000,4.000000,,,,,,,,,,,,,,,,,,,,,,,,,
1577736981.745191,51.000000,0.000000,4135.897461,4393.846191,4142.051270,4154.358887,4140.512695,0.000000,4.000000,,,,0.000000,4.000000,4.000000,4.000000,4.000000,4.000000,,,,,,,,,,,,,,,,,,,,,,,,,
1577736981.752996,52.000000,0.000000,4139.487305,4397.436035,4142.563965,4153.846191,4147.692383,0.000000,4.000000,,,,0.000000,4.000000,4.000000,4.000000,4.000000,4.000000,,,,,,,,,,,,,,,,,,,,,,,,,
1577736981.760801,53.000000,0.000000,4147.179688,4425.128418,4158.974121,4148.205078,4148.717773,0.000000,4.000000,,,,0.000000,4.000000,4.000000,4.000000,4.000000,4.000000,,,,,,,,,,,,,,,,,,,,,,,,,
1577736981.768505,54.000000,0.000000,4137.948730,4407.179688,4150.769043,4143.589844,4146.666504,0.000000,4.000000,,,,0.000000,4.000000,4.000000,4.000000,4.000000,4.000000,,,,,,,,,,,,,,,,,,,,,,,,,
1577736981.776410,55.000000,0.000000,4109.230957,4364.615234,4146.666504,4144.102539,4137.436035,0.000000,4.000000,,,,0.000000,4.000000,4.000000,4.000000,4.000000,4.000000,,,,,,,,,,,,,,,,,,,,,,,,,
1577736981.784215,56.000000,0.000000,4097.436035,4384.615234,4136.922852,4141.025879,4128.717773,0.000000,4.000000,,,,0.000000,4.000000,4.000000,4.000000,4.000000,4.000000,,,,,,,,,,,,,,,,,,,,,,,,,
1577736981.792020,57.000000,0.000000,4101.025879,4409.743652,4127.692383,4140.000000,4133.846191,0.000000,4.000000,,,,0.000000,4.000000,4.000000,4.000000,4.000000,4.000000,,,,,,,,,,,,,,,,,,,,,,,,,
1577736981.799723,58.000000,0.000000,4100.000000,4384.615234,4155.897461,4148.205078,4142.563965,0.000000,4.000000,,,,0.000000,4.000000,4.000000,4.000000,4.000000,4.000000,,,,,,,,,,,,,,,,,,,,,,,,,
1577736981.807628,59.000000,0.000000,4091.794922,4386.153809,4150.256348,4145.128418,4133.846191,0.000000,4.000000,,,,0.000000,4.000000,4.000000,4.000000,4.000000,4.000000,,,,,,,,,,,,,,,,,,,,,,,,,
1577736981.815433,60.000000,0.000000,4094.871826,4423.589844,4140.512695,4142.051270,4125.641113,0.000000,4.000000,,,,0.000000,4.000000,4.000000,4.000000,4.000000,4.000000,,,,,,,,,,,,,,,,,,,,,,,,,
1577736981.823337,61.000000,0.000000,4111.794922,4408.205078,4151.282227,4149.743652,4138.974121,0.000000,4.000000,,,,0.000000,4.000000,4.000000,4.000000,4.000000,4.000000,142.537979,19.742916,2.956173,0.969037,0.335184,0.467194,0.370834,0.664664,1.107742,4.152908,1.498806,0.940193,1.109425,0.391714,0.484135,1.069550,0.399251,0.391683,0.320003,0.431312,56.174374,9.282988,2.180840,0.559538,0.284173
1577736981.831141,62.000000,0.000000,4112.820313,4368.205078,4142.051270,4140.000000,4142.051270,0.000000,4.000000,,,,0.000000,4.000000,4.000000,4.000000,4.000000,4.000000,,,,,,,,,,,,,,,,,,,,,,,,,
1577736981.839046,63.000000,0.000000,4101.538574,4391.282227,4145.128418,4131.794922,4128.717773,0.000000,4.000000,,,,0.000000,4.000000,4.000000,4.000000,4.000000,4.000000,,,,,,,,,,,,,,,,,,,,,,,,,
1577736981.846952,64.000000,0.000000,4105.128418,4413.333496,4140.512695,4139.487305,4126.153809,450.000000,4.000000,,,,0.000000,4.000000,4.000000,4.000000,4.000000,4.000000,,,,,,,,,,,,,,,,,,,,,,,,,
1577736981.854758,65.000000,0.000000,4114.871582,4390.256348,4139.487305,4142.051270,4127.179688,450.000000,4.000000,,,,0.000000,4.000000,4.000000,4.000000,4.000000,4.000000,,,,,,,,,,,,,,,,,,,,,,,,,
1577736981.862564,66.000000,0.000000,4108.717773,4393.846191,4141.025879,4134.358887,4116.410156,16208.000000,4.000000,,,,0.000000,4.000000,4.000000,4.000000,4.000000,4.000000,,,,,,,,,,,,,,,,,,,,,,,,,
1577736981.870467,67.000000,0.000000,4100.512695,4413.333496,4128.717773,4130.769043,4109.230957,450.000000,4.000000,,,,0.000000,4.000000,4.000000,4.000000,4.000000,4.000000,,,,,,,,,,,,,,,,,,,,,,,,,
1577736981.878271,68.000000,0.000000,4110.256348,4393.846191,4147.692383,4142.563965,4119.487305,16206.000000,4.000000,,,,0.000000,4.000000,4.000000,4.000000,4.000000,4.000000,,,,,,,,,,,,,,,,,,,,,,,,,
1577736981.885975,69.000000,0.000000,4116.410156,4375.897461,4144.102539,4145.128418,4127.692383,450.000000,4.000000,,,,0.000000,4.000000,4.000000,4.000000,4.000000,4.000000,,,,,,,,,,,,,,,,,,,,,,,,,
1577736981.893779,70.000000,0.000000,4102.051270,4393.846191,4132.820313,4135.897461,4121.538574,16144.000000,4.000000,,,,0.000000,4.000000,4.000000,4.000000,4.000000,4.000000,,,,,,,,,,,,,,,,,,,,,,,,,
1577736981.901583,71.000000,0.000000,4103.589844,4402.051270,4155.384766,4150.769043,4127.692383,450.000000,4.000000,,,,0.000000,4.000000,4.000000,4.000000,4.000000,4.000000,,,,,,,,,,,,,,,,,,,,,,,,,
1577736981.909387,72.000000,0.000000,4117.948730,4383.077148,4144.615234,4164.102539,4142.051270,450.000000,4.000000,,,,0.000000,4.000000,4.000000,4.000000,4.000000,4.000000,,,,,,,,,,,,,,,,,,,,,,,,,
1577736981.917091,73.000000,0.000000,4121.025879,4385.128418,4140.000000,4156.410156,4142.051270,16114.000000,4.000000,,,,0.000000,4.000000,4.000000,4.000000,4.000000,4.000000,,,,,,,,,,,,,,,,,,,,,,,,,
1577736981.924895,74.000000,0.000000,4127.179688,4413.846191,4147.692383,4151.282227,4145.641113,450.000000,4.000000,,,,0.000000,4.000000,4.000000,4.000000,4.000000,4.000000,,,,,,,,,,,,,,,,,,,,,,,,,
1577736981.932598,75.000000,0.000000,4131.282227,4417.948730,4139.487305,4148.205078,4148.205078,16222.000000,4.000000,,,,0.000000,4.000000,4.000000,4.000000,4.000000,4.000000,,,,,,,,,,,,,,,,,,,,,,,,,
1577736981.940402,76.000000,0.000000,4125.641113,4397.436035,4138.974121,4138.461426,4140.512695,450.000000,4.000000,,,,0.000000,4.000000,4.000000,4.000000,4.000000,4.000000,,,,,,,,,,,,,,,,,,,,,,,,,
1577736981.948105,77.000000,0.000000,4122.563965,4393.333496,4123.589844,4131.282227,4135.897461,450.000000,4.000000,,,,0.000000,4.000000,4.000000,4.000000,4.000000,4.000000,200.251495,28.000032,3.381317,1.001598,0.319511,0.566949,0.442571,0.552262,1.148219,4.059889,1.630249,0.929156,1.139604,0.413774,0.375838,1.124036,0.349452,0.376808,0.312255,0.406621,77.414589,13.018985,2.595943,0.511545,0.265857
1577736981.956010,78.000000,0.000000,4134.871582,4398.461426,4134.871582,4141.538574,4142.563965,450.000000,4.000000,,,,0.000000,4.000000,4.000000,4.000000,4.000000,4.000000,,,,,,,,,,,,,,,,,,,,,,,,,
1577736981.963815,79.000000,0.000000,4156.410156,4401.025879,4149.743652,4152.820313,4156.922852,16222.000000,4.000000,,,,0.000000,4.000000,4.000000,4.000000,4.000000,4.000000,,,,,,,,,,,,,,,,,,,,,,,,,
1577736981.971720,80.000000,0.000000,4157.948730,4398.974121,4132.307617,4145.128418,4149.230957,450.000000,4.000000,,,,0.000000,4.000000,4.000000,4.000000,4.000000,4.000000,,,,,,,,,,,,,,,,,,,,,,,,,
1577736981.979525,81.000000,0.000000,4146.153809,4392.820313,4131.794922,4134.871582,4135.897461,450.000000,4.000000,,,,0.000000,4.000000,4.000000,4.000000,4.000000,4.000000,,,,,,,,,,,,,,,,,,,,,,,,,
1577736981.987429,82.000000,0.000000,4143.077148,4388.205078,4120.512695,4134.358887,4141.025879,450.000000,4.000000,,,,0.000000,4.000000,4.000000,4.000000,4.000000,4.000000,,,,,,,,,,,,,,,,,,,,,,,,,
1577736981.995234,83.000000,0.000000,4147.179688,4396.410156,4118.974121,4143.589844,4141.025879,16222.000000,4.000000,,,,0.000000,4.000000,4.000000,4.000000,4.000000,4.000000,,,,,,,,,,,,,,,,,,,,,,,,,
1577736982.003139,84.000000,0.000000,4150.769043,4400.512695,4130.769043,4144.102539,4141.025879,450.000000,4.000000,,,,0.000000,4.000000,4.000000,4.000000,4.000000,4.000000,,,,,,,,,,,,,,,,,,,,,,,,,
1577736982.010943,85.000000,0.000000,4152.820313,4391.794922,4126.153809,4137.436035,4150.256348,450.000000,4.000000,,,,0.000000,4.000000,4.000000,4.000000,4.000000,4.000000,,,,,,,,,,,,,,,,,,,,,,,,,
1577736982.018848,86.000000,0.000000,4148.205078,4393.846191,4147.179688,4141.538574,4151.282227,450.000000,4.000000,,,,0.000000,4.000000,4.000000,4.000000,4.000000,4.000000,,,,,,,,,,,,,,,,,,,,,,,,,
1577736982.026653,87.000000,0.000000,4144.102539,4395.897461,4145.641113,4142.563965,4147.179688,16222.000000,4.000000,,,,0.000000,4.000000,4.000000,4.000000,4.000000,4.000000,,,,,,,,,,,,,,,,,,,,,,,,,
1577736982.034557,88.000000,0.000000,4147.692383,4398.461426,4129.230957,4147.179688,4152.820313,450.000000,4.000000,,,,0.000000,4.000000,4.000000,4.000000,4.000000,4.000000,,,,,,,,,,,,,,,,,,,,,,,,,
1577736982.042361,89.000000,0.000000,4157.948730,4410.256348,4140.000000,4157.948730,4168.205078,450.000000,4.000000,,,,0.000000,4.000000,4.000000,4.000000,4.000000,4.000000,,,,,,,,,,,,,,,,,,,,,,,,,
1577736982.050265,90.000000,0.000000,4160.000000,4398.974121,4138.974121,4155.384766,4171.282227,450.000000,4.000000,,,,0.000000,4.000000,4.000000,4.000000,4.000000,4.000000,,,,,,,,,,,,,,,,,,,,,,,,,
1577736982.058070,91.000000,0.000000,4151.794922,4381.538574,4150.256348,4154.871582,4162.051270,16222.000000,4.000000,,,,0.000000,4.000000,4.000000,4.000000,4.000000,4.000000,,,,,,,,,,,,,,,,,,,,,,,,,
1577736982.065973,92.000000,0.000000,4141.538574,4395.897461,4148.205078,4155.384766,4162.563965,450.000000,4.000000,,,,0.000000,4.000000,4.000000,4.000000,4.000000,4.000000,,,,,,,,,,,,,,,,,,,,,,,,,
1577736982.073777,93.000000,0.000000,4128.717773,4423.077148,4131.794922,4151.282227,4163.589844,450.000000,4.000000,,,,0.000000,4.000000,4.000000,4.000000,4.000000,4.000000,284.547791,40.051216,4.644176,1.073285,0.318538,0.715268,0.538421,0.429178,1.169713,3.873153,1.898624,1.082404,1.222653,0.445061,0.323919,1.270178,0.353197,0.395220,0.318668,0.390106,109.189484,17.791513,3.214215,0.489662,0.273200
1577736982.081481,94.000000,0.000000,4125.128418,4422.563965,4141.538574,4149.743652,4161.025879,450.000000,4.000000,,,,0.000000,4.000000,4.000000,4.000000,4.000000,4.000000,,,,,,,,,,,,,,,,,,,,,,,,,
1577736982.089285,95.000000,0.000000,4120.000000,4391.282227,4129.230957,4146.153809,4157.436035,16222.000000,4.000000,,,,0.000000,4.000000,4.000000,4.000000,4.000000,4.000000,,,,,,,,,,,,,,,,,,,,,,,,,
1577736982.096989,96.000000,0.000000,4111.794922,4368.205078,4126.666504,4152.307617,4149.743652,450.000000,4.000000,,,,0.000000,4.000000,4.000000,4.000000,4.000000,4.000000,,,,,,,,,,,,,,,,,,,,,,,,,
1577736982.104895,97.000000,0.000000,4117.948730,4376.922852,4135.384766,4159.487305,4149.743652,450.000000,4.000000,,,,0.000000,4.000000,4.000000,4.000000,4.000000,4.000000,,,,,,,,,,,,,,,,,,,,,,,,,
1577736982.112700,98.000000,0.000000,4111.794922,4400.512695,4125.128418,4148.205078,4146.666504,450.000000,4.000000,,,,0.000000,4.000000,4.000000,4.000000,4.000000,4.000000,,,,,,,,,,,,,,,,,,,,,,,,,
1577736982.120606,99.000000,0.000000,4104.615234,4398.461426,4131.282227,4139.487305,4136.922852,16222.000000,4.000000,,,,0.000000,4.000000,4.000000,4.000000,4.000000,4.000000,,,,,,,,,,,,,,,,,,,,,,,,,
1577736982.128411,100.000000,0.000000,4121.025879,4372.307617,4128.717773,4143.589844,4143.077148,450.000000,4.000000,,,,0.000000,4.000000,4.000000,4.000000,4.000000,4.000000,,,,,,,,,,,,,,,,,,,,,,,,,
1577736982.136317,101.000000,0.000000,4132.820313,4381.025879,4137.948730,4152.820313,4153.333496,450.000000,4.000000,,,,0.000000,4.000000,4.000000,4.000000,4.000000,4.000000,,,,,,,,,,,,,,,,,,,,,,,,,
1577736982.144122,102.000000,0.000000,4131.282227,4409.743652,4145.641113,4157.436035,4148.717773,450.000000,4.000000,,,,0.000000,4.000000,4.000000,4.000000,4.000000,4.000000,,,,,,,,,,,,,,,,,,,,,,,,,
1577736982.152027,103.000000,0.000000,4132.307617,4397.436035,4129.743652,4152.307617,4148.205078,16222.000000,4.000000,,,,0.000000,4.000000,4.000000,4.000000,4.000000,4.000000,,,,,,,,,,,,,,,,,,,,,,,,,
1577736982.159832,104.000000,0.000000,4143.077148,4396.410156,4142.563965,4155.384766,4162.051270,450.000000,4.000000,,,,0.000000,4.000000,4.000000,4.000000,4.000000,4.000000,,,,,,,,,,,,,,,,,,,,,,,,,
1577736982.167737,105.000000,0.000000,4147.179688,4426.153809,4140.000000,4164.102539,4172.820313,450.000000,4.000000,,,,0.000000,4.000000,4.000000,4.000000,4.000000,4.000000,,,,,,,,,,,,,,,,,,,,,,,,,
1577736982.175542,106.000000,0.000000,4136.922852,4407.692383,4132.820313,4162.051270,4168.205078,450.000000,4.000000,,,,0.000000,4.000000,4.000000,4.000000,4.000000,4.000000,,,,,,,,,,,,,,,,,,,,,,,,,
1577736982.183347,107.000000,0.000000,4132.307617,4377.948730,4149.230957,4152.820313,4158.461426,16222.000000,4.000000,,,,0.000000,4.000000,4.000000,4.000000,4.000000,4.000000,,,,,,,,,,,,,,,,,,,,,,,,,
1577736982.191050,108.000000,0.000000,4134.871582,4404.615234,4142.563965,4151.794922,4157.948730,450.000000,4.000000,,,,0.000000,4.000000,4.000000,4.000000,4.000000,4.000000,,,,,,,,,,,,,,,,,,,,,,,,,
1577736982.198954,109.000000,0.000000,4137.948730,4426.666504,4156.410156,4165.128418,4168.717773,450.000000,4.000000,,,,0.000000,4.000000,4.000000,4.000000,4.000000,4.000000,366.682129,52.068443,6.114366,1.115155,0.333823,0.852939,0.632803,0.329174,1.156065,3.661650,2.315388,1.334088,1.336584,0.486444,0.319477,1.519769,0.399248,0.443299,0.347462,0.377536,139.521255,21.514708,3.720854,0.470944,0.296853
1577736982.206759,110.000000,0.000000,4137.948730,4397.436035,4161.025879,4162.563965,4170.769043,450.000000,4.000000,,,,0.000000,4.000000,4.000000,4.000000,4.000000,4.000000,,,,,,,,,,,,,,,,,,,,,,,,,
1577736982.214663,111.000000,0.000000,4123.589844,4364.102539,4137.436035,4142.563965,4152.307617,16222.000000,4.000000,,,,0.000000,4.000000,4.000000,4.000000,4.000000,4.000000,,,,,,,,,,,,,,,,,,,,,,,,,
1577736982.222467,112.000000,0.000000,4114.358887,4367.692383,4138.461426,4143.589844,4141.538574,450.000000,4.000000,,,,0.000000,4.000000,4.000000,4.000000,4.000000,4.000000,,,,,,,,,,,,,,,,,,,,,,,,,
1577736982.230272,113.000000,0.000000,4114.358887,4404.102539,4132.820313,4150.256348,4146.666504,450.000000,4.000000,,,,0.000000,4.000000,4.000000,4.000000,4.000000,4.000000,,,,,,,,,,,,,,,,,,,,,,,,,
1577736982.237978,114.000000,0.000000,4112.820313,4421.538574,4137.436035,4150.256348,4153.333496,450.000000,4.000000,,,,0.000000,4.000000,4.000000,4.000000,4.000000,4.000000,,,,,,,,,,,,,,,,,,,,,,,,,
1577736982.245886,115.000000,0.000000,4115.897461,4381.025879,4142.563965,4151.282227,4156.922852,16222.000000,4.000000,,,,0.000000,4.000000,4.000000,4.000000,4.000000,4.000000,,,,,,,,,,,,,,,,,,,,,,,,,
1577736982.253694,116.000000,0.000000,4120.512695,4366.666504,4132.307617,4150.256348,4151.282227,450.000000,4.000000,,,,0.000000,4.000000,4.000000,4.000000,4.000000,4.000000,,,,,,,,,,,,,,,,,,,,,,,,,
1577736982.261501,117.000000,0.000000,4124.615234,4409.230957,4146.153809,4152.307617,4143.589844,450.000000,4.000000,,,,0.000000,4.000000,4.000000,4.000000,4.000000,4.000000,,,,,,,,,,,,,,,,,,,,,,,,,
1577736982.269407,118.000000,0.000000,4135.897461,4405.128418,4146.666504,4155.897461,4149.743652,450.000000,4.000000,,,,0.000000,4.000000,4.000000,4.000000,4.000000,4.000000,,,,,,,,,,,,,,,,,,,,,,,,,
1577736982.277213,119.000000,0.000000,4154.358887,4374.871582,4155.897461,4164.615234,4166.666504,16222.000000,4.000000,,,,0.000000,4.000000,4.000000,4.000000,4.000000,4.000000,,,,,,,,,,,,,,,,,,,,,,,,,
1577736982.285118,120.000000,0.000000,4167.179688,4397.436035,4168.205078,4168.717773,4177.948730,450.000000,4.000000,,,,0.000000,4.000000,4.000000,4.000000,4.000000,4.000000,,,,,,,,,,,,,,,,,,,,,,,,,
1577736982.292924,121.000000,0.000000,4168.717773,4416.922852,4153.846191,4160.000000,4175.897461,450.000000,4.000000,,,,0.000000,4.000000,4.000000,4.000000,4.000000,4.000000,,,,,,,,,,,,,,,,,,,,,,,,,
1577736982.300730,122.000000,0.000000,4170.769043,4389.743652,4167.179688,4164.102539,4178.974121,450.000000,4.000000,,,,0.000000,4.000000,4.000000,4.000000,4.000000,4.000000,,,,,,,,,,,,,,,,,,,,,,,,,
1577736982.308433,123.000000,0.000000,4164.102539,4378.974121,4167.692383,4170.256348,4183.589844,16222.000000,4.000000,,,,0.000000,4.000000,4.000000,4.000000,4.000000,4.000000,,,,,,,,,,,,,,,,,,,,,,,,,
1577736982.316237,124.000000,0.000000,4145.128418,4401.025879,4155.384766,4158.974121,4170.256348,450.000000,4.000000,,,,0.000000,4.000000,4.000000,4.000000,4.000000,4.000000,,,,,,,,,,,,,,,,,,,,,,,,,
1577736982.323940,125.000000,0.000000,4139.487305,4409.230957,4153.846191,4149.743652,4157.436035,450.000000,4.000000,,,,0.000000,4.000000,4.000000,4.000000,4.000000,4.000000,417.554413,59.431526,7.112113,1.081546,0.364023,0.921333,0.708702,0.281930,1.099877,3.473382,2.827242,1.564608,1.430875,0.534851,0.338974,1.819007,0.461320,0.502658,0.397802,0.364050,157.119110,22.478680,3.834187,0.441265,0.326560
1577736982.331744,126.000000,0.000000,4143.589844,4387.179688,4139.487305,4149.743652,4150.256348,450.000000,4.000000,,,,0.000000,4.000000,4.000000,4.000000,4.000000,4.000000,,,,,,,,,,,,,,,,,,,,,,,,,
1577736982.339447,127.000000,0.000000,4138.974121,4366.153809,4147.179688,4152.820313,4144.102539,238.000000,4.000000,,,,0.000000,4.000000,4.000000,4.000000,4.000000,4.000000,,,,,,,,,,,,,,,,,,,,,,,,,
1577736982.347352,0.000000,0.000000,4132.307617,4386.666504,4144.102539,4151.282227,4149.230957,450.000000,4.000000,,,,0.000000,4.000000,4.000000,4.000000,4.000000,4.000000,,,,,,,,,,,,,,,,,,,,,,,,,
1577736982.355157,1.000000,0.000000,4126.666504,4418.461426,4138.461426,4144.615234,4150.769043,450.000000,4.000000,,,,0.000000,4.000000,4.000000,4.000000,4.000000,4.000000,,,,,,,,,,,,,,,,,,,,,,,,,
1577736982.362962,2.000000,0.000000,4127.692383,4408.205078,4154.358887,4142.051270,4150.769043,16206.000000,4.000000,,,,0.000000,4.000000,4.000000,4.000000,4.000000,4.000000,,,,,,,,,,,,,,,,,,,,,,,,,
1577736982.370665,3.000000,0.000000,4133.333496,4381.025879,4145.641113,4153.333496,4166.153809,450.000000,4.000000,,,,0.000000,4.000000,4.000000,4.000000,4.000000,4.000000,,,,,,,,,,,,,,,,,,,,,,,,,
1577736982.378570,4.000000,0.000000,4138.974121,4387.692383,4154.871582,4168.717773,4185.641113,16199.000000,4.000000,,,,0.000000,4.000000,4.000000,4.000000,4.000000,4.000000,,,,,,,,,,,,,,,,,,,,,,,,,
1577736982.386375,5.000000,0.000000,4137.436035,4402.563965,4158.461426,4152.307617,4184.615234,450.000000,4.000000,,,,0.000000,4.000000,4.000000,4.000000,4.000000,4.000000,,,,,,,,,,,,,,,,,,,,,,,,,
1577736982.394279,6.000000,0.000000,4131.282227,4405.128418,4145.641113,4135.384766,4168.717773,16147.000000,4.000000,,,,0.000000,4.000000,4.000000,4.000000,4.000000,4.000000,,,,,,,,,,,,,,,,,,,,,,,,,
1577736982.402084,7.000000,0.000000,4129.743652,4412.307617,4155.897461,4144.615234,4168.717773,450.000000,4.000000,,,,0.000000,4.000000,4.000000,4.000000,4.000000,4.000000,,,,,,,,,,,,,,,,,,,,,,,,,
1577736982.409988,8.000000,0.000000,4122.563965,4397.948730,4144.102539,4145.641113,4174.871582,450.000000,4.000000,,,,0.000000,4.000000,4.000000,4.000000,4.000000,4.000000,,,,,,,,,,,,,,,,,,,,,,,,,
1577736982.417793,9.000000,0.000000,4120.000000,4385.128418,4149.230957,4148.717773,4172.307617,16118.000000,4.000000,,,,0.000000,4.000000,4.000000,4.000000,4.000000,4.000000,,,,,,,,,,,,,,,,,,,,,,,,,
1577736982.425697,10.000000,0.000000,4127.692383,4403.077148,4160.000000,4157.436035,4173.846191,450.000000,4.000000,,,,0.000000,4.000000,4.000000,4.000000,4.000000,4.000000,,,,,,,,,,,,,,,,,,,,,,,,,
1577736982.433501,11.000000,0.000000,4123.077148,4403.077148,4142.563965,4150.256348,4174.358887,16213.000000,4.000000,,,,0.000000,4.000000,4.000000,4.000000,4.000000,4.000000,,,,,,,,,,,,,,,,,,,,,,,,,
1577736982.441205,12.000000,0.000000,4117.436035,4381.025879,4150.769043,4145.128418,4176.922852,450.000000,4.000000,,,,0.000000,4.000000,4.000000,4.000000,4.000000,4.000000,,,,,,,,,,,,,,,,,,,,,,,,,
1577736982.449009,13.000000,0.000000,4132.307617,4389.743652,4155.384766,4151.794922,4190.769043,450.000000,4.000000,,,,0.000000,4.000000,4.000000,4.000000,4.000000,4.000000,414.758484,59.517532,7.309831,0.978155,0.401698,0.895789,0.773221,0.298166,1.020004,3.329966,3.276546,1.664954,1.457222,0.582059,0.358712,2.090074,0.514676,0.551993,0.456195,0.347995,153.792435,20.375488,3.502944,0.402828,0.352843
1577736982.456713,14.000000,0.000000,4146.666504,4408.205078,4162.051270,4156.922852,4195.897461,450.000000,4.000000,,,,0.000000,4.000000,4.000000,4.000000,4.000000,4.000000,,,,,,,,,,,,,,,,,,,,,,,,,
1577736982.464518,15.000000,0.000000,4153.333496,4386.666504,4164.615234,4151.282227,4191.282227,16213.000000,4.000000,,,,0.000000,4.000000,4.000000,4.000000,4.000000,4.000000,,,,,,,,,,,,,,,,,,,,,,,,,
1577736982.472221,16.000000,0.000000,4154.871582,4365.641113,4140.512695,4145.128418,4188.205078,0.000000,4.000000,,,,0.000000,4.000000,4.000000,4.000000,4.000000,4.000000,,,,,,,,,,,,,,,,,,,,,,,,,
1577736982.480025,17.000000,0.000000,4154.358887,4396.922852,4143.589844,4148.717773,4184.102539,0.000000,4.000000,,,,0.000000,4.000000,4.000000,4.000000,4.000000,4.000000,,,,,,,,,,,,,,,,,,,,,,,,,
1577736982.487729,18.000000,0.000000,4154.871582,4424.615234,4141.538574,4144.615234,4181.538574,0.000000,4.000000,,,,0.000000,4.000000,4.000000,4.000000,4.000000,4.000000,,,,,,,,,,,,,,,,,,,,,,,,,
1577736982.495532,19.000000,0.000000,4152.820313,4398.974121,4138.974121,4140.512695,4176.922852,0.000000,4.000000,,,,0.000000,4.000000,4.000000,4.000000,4.000000,4.000000,,,,,,,,,,,,,,,,,,,,,,,,,
1577736982.503236,20.000000,0.000000,4161.538574,4366.666504,4155.897461,4146.666504,4178.974121,0.000000,4.000000,,,,0.000000,4.000000,4.000000,4.000000,4.000000,4.000000,,,,,,,,,,,,,,,,,,,,,,,,,
1577736982.511039,21.000000,0.000000,4161.025879,4379.487305,4145.641113,4144.615234,4181.538574,0.000000,4.000000,,,,0.000000,4.000000,4.000000,4.000000,4.000000,4.000000,,,,,,,,,,,,,,,,,,,,,,,,,
1577736982.518743,22.000000,0.000000,4149.230957,4417.436035,4148.205078,4143.589844,4176.410156,0.000000,4.000000,,,,0.000000,4.000000,4.000000,4.000000,4.000000,4.000000,,,,,,,,,,,,,,,,,,,,,,,,,
1577736982.526648,23.000000,0.000000,4156.922852,4415.384766,4155.897461,4150.256348,4181.025879,0.000000,4.000000,,,,0.000000,4.000000,4.000000,4.000000,4.000000,4.000000,,,,,,,,,,,,,,,,,,,,,,,,,
1577736982.534453,24.000000,0.000000,4159.487305,4385.128418,4149.230957,4151.794922,4183.077148,0.000000,4.000000,,,,0.000000,4.000000,4.000000,4.000000,4.000000,4.000000,,,,,,,,,,,,,,,,,,,,,,,,,
1577736982.542358,25.000000,0.000000,4149.743652,4400.512695,4149.230957,4144.102539,4171.794922,0.000000,4.000000,,,,0.000000,4.000000,4.000000,4.000000,4.000000,4.000000,,,,,,,,,,,,,,,,,,,,,,,,,
1577736982.550163,26.000000,0.000000,4154.358887,4408.205078,4140.512695,4137.436035,4170.256348,0.000000,4.000000,,,,0.000000,4.000000,4.000000,4.000000,4.000000,4.000000,,,,,,,,,,,,,,,,,,,,,,,,,
1577736982.558068,27.000000,0.000000,4170.256348,4372.307617,4156.410156,4138.974121,4179.487305,0.000000,4.000000,,,,0.000000,4.000000,4.000000,4.000000,4.000000,4.000000,,,,,,,,,,,,,,,,,,,,,,,,,
1577736982.565872,28.000000,0.000000,4176.922852,4376.410156,4156.410156,4132.820313,4178.974121,0.000000,4.000000,,,,0.000000,4.000000,4.000000,4.000000,4.000000,4.000000,,,,,,,,,,,,,,,,,,,,,,,,,
1577736982.573777,29.000000,0.000000,4173.333496,4408.717773,4136.922852,4126.666504,4173.333496,0.000000,4.000000,,,,0.000000,4.000000,4.000000,4.000000,4.000000,4.000000,360.190918,52.541809,6.615056,0.837706,0.433507,0.790153,0.855124,0.361312,0.956672,3.234998,3.530021,1.623129,1.399665,0.617533,0.365111,2.253779,0.555817,0.575857,0.501491,0.332444,131.317123,16.105906,2.830419,0.365224,0.370505
1577736982.581582,30.000000,0.000000,4179.487305,4400.000000,4166.153809,4140.512695,4177.948730,0.000000,4.000000,,,,0.000000,4.000000,4.000000,4.000000,4.000000,4.000000,,,,,,,,,,,,,,,,,,,,,,,,,
1577736982.589486,31.000000,0.000000,4183.589844,4380.000000,4173.333496,4149.743652,4179.487305,0.000000,4.000000,,,,0.000000,4.000000,4.000000,4.000000,4.000000,4.000000,,,,,,,,,,,,,,,,,,,,,,,,,
1577736982.597291,32.000000,0.000000,4171.282227,4385.128418,4164.615234,4152.820313,4168.717773,0.000000,4.000000,,,,0.000000,4.000000,4.000000,4.000000,4.000000,4.000000,,,,,,,,,,,,,,,,,,,,,,,,,
1577736982.605195,33.000000,0.000000,4172.820313,4406.153809,4174.358887,4166.666504,4170.256348,0.000000,4.000000,,,,0.000000,4.000000,4.000000,4.000000,4.000000,4.000000,,,,,,,,,,,,,,,,,,,,,,,,,
1577736982.612999,34.000000,0.000000,4186.666504,4412.307617,4167.179688,4169.230957,4186.666504,0.000000,4.000000,,,,0.000000,4.000000,4.000000,4.000000,4.000000,4.000000,,,,,,,,,,,,,,,,,,,,,,,,,
1577736982.620904,35.000000,0.000000,4188.717773,4406.153809,4170.769043,4162.051270,4192.307617,0.000000,4.000000,,,,0.000000,4.000000,4.000000,4.000000,4.000000,4.000000,,,,,,,,,,,,,,,,,,,,,,,,,
1577736982.628708,36.000000,0.000000,4181.025879,4397.948730,4167.179688,4157.436035,4189.230957,0.000000,4.000000,,,,0.000000,4.000000,4.000000,4.000000,4.000000,4.000000,,,,,,,,,,,,,,,,,,,,,,,,,
1577736982.636513,37.000000,0.000000,4172.820313,4395.384766,4166.666504,4154.871582,4186.666504,0.000000,4.000000,,,,0.000000,4.000000,4.000000,4.000000,4.000000,4.000000,,,,,,,,,,,,,,,,,,,,,,,,,
1577736982.644215,38.000000,0.000000,4169.743652,4400.000000,4173.846191,4155.384766,4183.077148,0.000000,4.000000,,,,0.000000,4.000000,4.000000,4.000000,4.000000,4.000000,,,,,,,,,,,,,,,,,,,,,,,,,
1577736982.651919,39.000000,0.000000,4175.384766,4391.282227,4159.487305,4157.436035,4182.051270,0.000000,4.000000,,,,0.000000,4.000000,4.000000,4.000000,4.000000,4.000000,,,,,,,,,,,,,,,,,,,,,,,,,
1577736982.659825,40.000000,0.000000,4178.461426,4378.461426,4165.128418,4159.487305,4180.000000,0.000000,4.000000,,,,0.000000,4.000000,4.000000,4.000000,4.000000,4.000000,,,,,,,,,,,,,,,,,,,,,,,,,
1577736982.667630,41.000000,0.000000,4172.820313,4397.948730,4166.666504,4153.333496,4170.769043,0.000000,4.000000,,,,0.000000,4.000000,4.000000,4.000000,4.000000,4.000000,,,,,,,,,,,,,,,,,,,,,,,,,
1577736982.675536,42.000000,0.000000,4174.871582,4423.077148,4169.230957,4159.487305,4172.820313,0.000000,4.000000,,,,0.000000,4.000000,4.000000,4.000000,4.000000,4.000000,,,,,,,,,,,,,,,,,,,,,,,,,
1577736982.683342,43.000000,0.000000,4184.615234,4402.051270,4189.230957,4171.794922,4185.128418,0.000000,4.000000,,,,0.000000,4.000000,4.000000,4.000000,4.000000,4.000000,,,,,,,,,,,,,,,,,,,,,,,,,
1577736982.691247,44.000000,0.000000,4175.384766,4371.794922,4166.666504,4156.410156,4181.025879,0.000000,4.000000,,,,0.000000,4.000000,4.000000,4.000000,4.000000,4.000000,,,,,,,,,,,,,,,,,,,,,,,,,
1577736982.699052,45.000000,0.000000,4164.615234,4396.410156,4162.051270,4154.871582,4182.051270,0.000000,4.000000,,,,0.000000,4.000000,4.000000,4.000000,4.000000,4.000000,272.454041,40.903080,5.300927,0.703084,0.444160,0.648767,0.985845,0.437856,0.964990,3.182864,3.513622,1.495713,1.269385,0.629694,0.352816,2.263639,0.597848,0.567063,0.516470,0.322259,97.422188,11.207258,2.071624,0.339768,0.379040
1577736982.706957,46.000000,0.000000,4174.358887,4424.102539,4174.871582,4172.307617,4203.589844,0.000000,4.000000,,,,0.000000,4.000000,4.000000,4.000000,4.000000,4.000000,,,,,,,,,,,,,,,,,,,,,,,,,
1577736982.714762,47.000000,0.000000,4174.358887,4407.179688,4160.512695,4161.538574,4206.153809,0.000000,4.000000,,,,0.000000,4.000000,4.000000,4.000000,4.000000,4.000000,,,,,,,,,,,,,,,,,,,,,,,,,
1577736982.722668,48.000000,0.000000,4162.051270,4392.820313,4155.384766,4145.128418,4192.820313,0.000000,4.000000,,,,0.000000,4.000000,4.000000,4.000000,4.000000,4.000000,,,,,,,,,,,,,,,,,,,,,,,,,
1577736982.730473,49.000000,0.000000,4168.717773,4394.871582,4144.102539,4147.179688,4193.333496,0.000000,4.000000,,,,0.000000,4.000000,4.000000,4.000000,4.000000,4.000000,,,,,,,,,,,,,,,,,,,,,,,,,
1577736982.738378,50.000000,0.000000,4186.666504,4398.974121,4155.384766,4155.897461,4200.512695,0.000000,4.000000,,,,0.000000,4.000000,4.000000,4.000000,4.000000,4.000000,,,,,,,,,,,,,,,,,,,,,,,,,
1577736982.746183,51.000000,0.000000,4191.794922,4403.077148,4170.769043,4160.000000,4206.666504,0.000000,4.000000,,,,0.000000,4.000000,4.000000,4.000000,4.000000,4.000000,,,,,,,,,,,,,,,,,,,,,,,,,
1577736982.753988,52.000000,0.000000,4181.538574,4379.487305,4151.794922,4161.538574,4203.589844,0.000000,4.000000,,,,0.000000,4.000000,4.000000,4.000000,4.000000,4.000000,,,,,,,,,,,,,,,,,,,,,,,,,
1577736982.761691,53.000000,0.000000,4180.512695,4371.282227,4159.487305,4168.717773,4200.512695,0.000000,4.000000,,,,0.000000,4.000000,4.000000,4.000000,4.000000,4.000000,,,,,,,,,,,,,,,,,,,,,,,,,
1577736982.769596,54.000000,0.000000,4185.128418,4389.743652,4153.846191,4164.615234,4203.077148,0.000000,4.000000,,,,0.000000,4.000000,4.000000,4.000000,4.000000,4.000000,,,,,,,,,,,,,,,,,,,,,,,,,
1577736982.777401,55.000000,0.000000,4182.563965,4389.743652,4139.487305,4151.794922,4196.410156,0.000000,4.000000,,,,0.000000,4.000000,4.000000,4.000000,4.000000,4.000000,,,,,,,,,,,,,,,,,,,,,,,,,
1577736982.785305,56.000000,0.000000,4192.820313,4392.820313,4147.179688,4153.846191,4199.487305,0.000000,4.000000,,,,0.000000,4.000000,4.000000,4.000000,4.000000,4.000000,,,,,,,,,,,,,,,,,,,,,,,,,
1577736982.793110,57.000000,0.000000,4207.692383,4409.230957,4143.589844,4158.974121,4205.641113,0.000000,4.000000,,,,0.000000,4.000000,4.000000,4.000000,4.000000,4.000000,,,,,,,,,,,,,,,,,,,,,,,,,
1577736982.801014,58.000000,0.000000,4202.563965,4382.563965,4153.846191,4147.179688,4191.794922,0.000000,4.000000,,,,0.000000,4.000000,4.000000,4.000000,4.000000,4.000000,,,,,,,,,,,,,,,,,,,,,,,,,
1577736982.808920,59.000000,0.000000,4193.846191,4351.794922,4143.589844,4137.436035,4185.128418,0.000000,4.000000,,,,0.000000,4.000000,4.000000,4.000000,4.000000,4.000000,,,,,,,,,,,,,,,,,,,,,,,,,
1577736982.816727,60.000000,0.000000,4203.589844,4388.205078,4133.333496,4159.487305,4202.051270,0.000000,4.000000,,,,0.000000,4.000000,4.000000,4.000000,4.000000,4.000000,,,,,,,,,,,,,,,,,,,,,,,,,
1577736982.824533,61.000000,0.000000,4216.410156,4417.948730,4147.179688,4173.333496,4213.333496,0.000000,4.000000,,,,0.000000,4.000000,4.000000,4.000000,4.000000,4.000000,177.017838,28.031750,3.782493,0.605982,0.424581,0.528097,1.165494,0.492585,1.070846,3.165659,3.226314,1.349468,1.111740,0.611721,0.322946,2.119598,0.653320,0.539157,0.495852,0.319514,62.096161,7.109919,1.471072,0.327920,0.379447
1577736982.832237,62.000000,0.000000,4208.717773,4385.128418,4132.307617,4155.384766,4205.128418,0.000000,4.000000,,,,0.000000,4.000000,4.000000,4.000000,4.000000,4.000000,,,,,,,,,,,,,,,,,,,,,,,,,
1577736982.840143,63.000000,0.000000,4204.615234,4352.820313,4133.846191,4151.282227,4193.333496,0.000000,4.000000,,,,0.000000,4.000000,4.000000,4.000000,4.000000,4.000000,,,,,,,,,,,,,,,,,,,,,,,,,
1577736982.847949,64.000000,0.000000,4211.794922,4369.230957,4134.871582,4150.256348,4189.230957,450.000000,4.000000,,,,0.000000,4.000000,4.000000,4.000000,4.000000,4.000000,,,,,,,,,,,,,,,,,,,,,,,,,
1577736982.855755,65.000000,0.000000,4215.384766,4410.769043,4130.769043,4146.666504,4189.230957,450.000000,4.000000,,,,0.000000,4.000000,4.000000,4.000000,4.000000,4.000000,,,,,,,,,,,,,,,,,,,,,,,,,
1577736982.863459,66.000000,0.000000,4222.051270,4410.256348,4146.153809,4150.256348,4189.230957,16217.000000,4.000000,,,,0.000000,4.000000,4.000000,4.000000,4.000000,4.000000,,,,,,,,,,,,,,,,,,,,,,,,,
1577736982.871263,67.000000,0.000000,4232.820313,4384.102539,4129.230957,4140.512695,4189.743652,450.000000,4.000000,,,,0.000000,4.000000,4.000000,4.000000,4.000000,4.000000,,,,,,,,,,,,,,,,,,,,,,,,,
1577736982.878966,68.000000,0.000000,4242.563965,4395.897461,4133.333496,4144.615234,4198.974121,16212.000000,4.000000,,,,0.000000,4.000000,4.000000,4.000000,4.000000,4.000000,,,,,,,,,,,,,,,,,,,,,,,,,
1577736982.886770,69.000000,0.000000,4248.717773,4415.897461,4146.153809,4152.307617,4205.128418,450.000000,4.000000,,,,0.000000,4.000000,4.000000,4.000000,4.000000,4.000000,,,,,,,,,,,,,,,,,,,,,,,,,
1577736982.894474,70.000000,0.000000,4242.563965,4390.769043,4122.563965,4140.000000,4191.794922,16147.000000,4.000000,,,,0.000000,4.000000,4.000000,4.000000,4.000000,4.000000,,,,,,,,,,,,,,,,,,,,,,,,,
1577736982.902277,71.000000,0.000000,4245.128418,4362.051270,4126.666504,4140.000000,4190.769043,450.000000,4.000000,,,,0.000000,4.000000,4.000000,4.000000,4.000000,4.000000,,,,,,,,,,,,,,,,,,,,,,,,,
1577736982.909981,72.000000,0.000000,4263.077148,4379.487305,4137.436035,4155.384766,4218.461426,450.000000,4.000000,,,,0.000000,4.000000,4.000000,4.000000,4.000000,4.000000,,,,,,,,,,,,,,,,,,,,,,,,,
1577736982.917784,73.000000,0.000000,4263.589844,4410.769043,4150.256348,4164.615234,4225.641113,16128.000000,4.000000,,,,0.000000,4.000000,4.000000,4.000000,4.000000,4.000000,,,,,,,,,,,,,,,,,,,,,,,,,
1577736982.925487,74.000000,0.000000,4251.794922,4413.333496,4156.922852,4161.538574,4210.769043,450.000000,4.000000,,,,0.000000,4.000000,4.000000,4.000000,4.000000,4.000000,,,,,,,,,,,,,,,,,,,,,,,,,
1577736982.933392,75.000000,0.000000,4240.000000,4386.153809,4138.461426,4155.384766,4208.205078,16197.000000,4.000000,,,,0.000000,4.000000,4.000000,4.000000,4.000000,4.000000,,,,,,,,,,,,,,,,,,,,,,,,,
1577736982.941197,76.000000,0.000000,4227.179688,4373.846191,4146.153809,4150.769043,4204.615234,450.000000,4.000000,,,,0.000000,4.000000,4.000000,4.000000,4.000000,4.000000,,,,,,,,,,,,,,,,,,,,,,,,,
1577736982.949102,77.000000,0.000000,4215.384766,4388.205078,4135.897461,4141.025879,4189.743652,450.000000,4.000000,,,,0.000000,4.000000,4.000000,4.000000,4.000000,4.000000,97.267365,17.046152,2.439298,0.555702,0.378424,0.458054,1.352134,0.500563,1.249132,3.180615,2.752449,1.240320,0.985857,0.565317,0.284374,1.869567,0.719737,0.525515,0.447882,0.323129,33.634968,4.550872,1.167051,0.324833,0.372521
1577736982.957008,78.000000,0.000000,4204.615234,4386.666504,4119.487305,4137.948730,4181.538574,450.000000,4.000000,,,,0.000000,4.000000,4.000000,4.000000,4.000000,4.000000,,,,,,,,,,,,,,,,,,,,,,,,,
1577736982.964815,79.000000,0.000000,4214.358887,4379.487305,4138.461426,4147.179688,4189.230957,16197.000000,4.000000,,,,0.000000,4.000000,4.000000,4.000000,4.000000,4.000000,,,,,,,,,,,,,,,,,,,,,,,,,
1577736982.972721,80.000000,0.000000,4221.538574,4387.179688,4133.333496,4150.256348,4193.333496,450.000000,4.000000,,,,0.000000,4.000000,4.000000,4.000000,4.000000,4.000000,,,,,,,,,,,,,,,,,,,,,,,,,
1577736982.980527,81.000000,0.000000,4213.333496,4396.922852,4131.794922,4152.307617,4186.666504,450.000000,4.000000,,,,0.000000,4.000000,4.000000,4.000000,4.000000,4.000000,,,,,,,,,,,,,,,,,,,,,,,,,
1577736982.988433,82.000000,0.000000,4221.538574,4383.077148,4131.282227,4159.487305,4184.615234,450.000000,4.000000,,,,0.000000,4.000000,4.000000,4.000000,4.000000,4.000000,,,,,,,,,,,,,,,,,,,,,,,,,
1577736982.996240,83.000000,0.000000,4237.948730,4365.128418,4134.358887,4166.666504,4197.948730,16197.000000,4.000000,,,,0.000000,4.000000,4.000000,4.000000,4.000000,4.000000,,,,,,,,,,,,,,,,,,,,,,,,,
1577736983.004146,84.000000,0.000000,4251.794922,4378.461426,4165.128418,4172.307617,4217.948730,450.000000,4.000000,,,,0.000000,4.000000,4.000000,4.000000,4.000000,4.000000,,,,,,,,,,,,,,,,,,,,,,,,,
1577736983.011952,85.000000,0.000000,4256.410156,4399.487305,4157.948730,4161.025879,4217.948730,450.000000,4.000000,,,,0.000000,4.000000,4.000000,4.000000,4.000000,4.000000,,,,,,,,,,,,,,,,,,,,,,,,,
1577736983.019857,86.000000,0.000000,4249.743652,4399.487305,4153.846191,4153.846191,4206.666504,450.000000,4.000000,,,,0.000000,4.000000,4.000000,4.000000,4.000000,4.000000,,,,,,,,,,,,,,,,,,,,,,,,,
1577736983.027663,87.000000,0.000000,4245.641113,4380.000000,4162.563965,4157.436035,4204.615234,16197.000000,4.000000,,,,0.000000,4.000000,4.000000,4.000000,4.000000,4.000000,,,,,,,,,,,,,,,,,,,,,,,,,
1577736983.035569,88.000000,0.000000,4238.974121,4376.922852,4149.230957,4154.358887,4201.025879,450.000000,4.000000,,,,0.000000,4.000000,4.000000,4.000000,4.000000,4.000000,,,,,,,,,,,,,,,,,,,,,,,,,
1577736983.043375,89.000000,0.000000,4229.230957,4402.051270,4151.794922,4152.307617,4193.846191,450.000000,4.000000,,,,0.000000,4.000000,4.000000,4.000000,4.000000,4.000000,,,,,,,,,,,,,,,,,,,,,,,,,
1577736983.051280,90.000000,0.000000,4231.794922,4400.000000,4142.563965,4149.230957,4194.871582,450.000000,4.000000,,,,0.000000,4.000000,4.000000,4.000000,4.000000,4.000000,,,,,,,,,,,,,,,,,,,,,,,,,
1577736983.059086,91.000000,0.000000,4235.897461,4377.948730,4144.615234,4150.256348,4193.333496,16197.000000,4.000000,,,,0.000000,4.000000,4.000000,4.000000,4.000000,4.000000,,,,,,,,,,,,,,,,,,,,,,,,,
1577736983.066991,92.000000,0.000000,4226.153809,4383.077148,4157.436035,4154.871582,4178.461426,450.000000,4.000000,,,,0.000000,4.000000,4.000000,4.000000,4.000000,4.000000,,,,,,,,,,,,,,,,,,,,,,,,,
1577736983.074797,93.000000,0.000000,4222.051270,4402.563965,4148.205078,4154.358887,4174.358887,450.000000,4.000000,,,,0.000000,4.000000,4.000000,4.000000,4.000000,4.000000,44.327778,9.642396,1.490773,0.539373,0.322435,0.435433,1.487630,0.470146,1.447305,3.227976,2.221228,1.184428,0.926007,0.501881,0.250292,1.581596,0.781747,0.570624,0.391466,0.331553,15.363432,3.428464,1.135286,0.326112,0.360870
1577736983.082702,94.000000,0.000000,4235.897461,4403.077148,4165.641113,4168.205078,4195.897461,450.000000,4.000000,,,,0.000000,4.000000,4.000000,4.000000,4.000000,4.000000,,,,,,,,,,,,,,,,,,,,,,,,,
1577736983.090609,95.000000,0.000000,4232.820313,4375.897461,4162.563965,4174.358887,4206.153809,16197.000000,4.000000,,,,0.000000,4.000000,4.000000,4.000000,4.000000,4.000000,,,,,,,,,,,,,,,,,,,,,,,,,
1577736983.098416,96.000000,0.000000,4204.102539,4367.692383,4143.077148,4157.436035,4186.153809,450.000000,4.000000,,,,0.000000,4.000000,4.000000,4.000000,4.000000,4.000000,,,,,,,,,,,,,,,,,,,,,,,,,
1577736983.106223,97.000000,0.000000,4194.871582,4406.153809,4151.794922,4150.256348,4176.922852,450.000000,4.000000,,,,0.000000,4.000000,4.000000,4.000000,4.000000,4.000000,,,,,,,,,,,,,,,,,,,,,,,,,
1577736983.114128,98.000000,0.000000,4205.128418,4408.205078,4146.666504,4158.974121,4189.230957,450.000000,4.000000,,,,0.000000,4.000000,4.000000,4.000000,4.000000,4.000000,,,,,,,,,,,,,,,,,,,,,,,,,
1577736983.122035,99.000000,0.000000,4210.769043,4360.512695,4150.256348,4158.974121,4192.307617,16197.000000,4.000000,,,,0.000000,4.000000,4.000000,4.000000,4.000000,4.000000,,,,,,,,,,,,,,,,,,,,,,,,,
1577736983.129841,100.000000,0.000000,4213.846191,4355.897461,4152.307617,4152.307617,4192.820313,450.000000,4.000000,,,,0.000000,4.000000,4.000000,4.000000,4.000000,4.000000,,,,,,,,,,,,,,,,,,,,,,,,,
1577736983.137748,101.000000,0.000000,4220.000000,4395.897461,4157.948730,4157.436035,4202.563965,450.000000,4.000000,,,,0.000000,4.000000,4.000000,4.000000,4.000000,4.000000,,,,,,,,,,,,,,,,,,,,,,,,,
1577736983.145554,102.000000,0.000000,4223.077148,4417.436035,4172.820313,4161.538574,4212.307617,450.000000,4.000000,,,,0.000000,4.000000,4.000000,4.000000,4.000000,4.000000,,,,,,,,,,,,,,,,,,,,,,,,,
1577736983.153461,103.000000,0.000000,4218.461426,4401.025879,4152.307617,4149.230957,4211.282227,16197.000000,4.000000,,,,0.000000,4.000000,4.000000,4.000000,4.000000,4.000000,,,,,,,,,,,,,,,,,,,,,,,,,
1577736983.161267,104.000000,0.000000,4222.563965,4381.025879,4161.025879,4151.794922,4206.666504,450.000000,4.000000,,,,0.000000,4.000000,4.000000,4.000000,4.000000,4.000000,,,,,,,,,,,,,,,,,,,,,,,,,
1577736983.169174,105.000000,0.000000,4229.743652,4393.846191,4177.948730,4164.615234,4213.846191,450.000000,4.000000,,,,0.000000,4.000000,4.000000,4.000000,4.000000,4.000000,,,,,,,,,,,,,,,,,,,,,,,,,
1577736983.176980,106.000000,0.000000,4216.922852,4395.897461,4161.025879,4160.000000,4213.333496,450.000000,4.000000,,,,0.000000,4.000000,4.000000,4.000000,4.000000,4.000000,,,,,,,,,,,,,,,,,,,,,,,,,
1577736983.184886,107.000000,0.000000,4211.282227,4381.538574,4165.641113,4154.358887,4211.794922,16197.000000,4.000000,,,,0.000000,4.000000,4.000000,4.000000,4.000000,4.000000,,,,,,,,,,,,,,,,,,,,,,,,,
1577736983.192794,108.000000,0.000000,4217.436035,4397.948730,4165.641113,4156.922852,4216.410156,450.000000,4.000000,,,,0.000000,4.000000,4.000000,4.000000,4.000000,4.000000,,,,,,,,,,,,,,,,,,,,,,,,,
1577736983.200602,109.000000,0.000000,4207.692383,4410.769043,4165.641113,4159.487305,4208.205078,450.000000,4.000000,,,,0.000000,4.000000,4.000000,4.000000,4.000000,4.000000,17.194927,5.741920,0.935340,0.535934,0.276951,0.450293,1.528677,0.431289,1.612926,3.295718,1.748118,1.155953,0.935259,0.440861,0.232135,1.312654,0.814858,0.707965,0.345772,0.343267,6.270484,3.126964,1.228903,0.333449,0.349307
1577736983.208509,110.000000,0.000000,4195.384766,4381.025879,4166.153809,4158.461426,4205.128418,450.000000,4.000000,,,,0.000000,4.000000,4.000000,4.000000,4.000000,4.000000,,,,,,,,,,,,,,,,,,,,,,,,,
1577736983.216317,111.000000,0.000000,4193.846191,4366.666504,4155.384766,4157.948730,4212.307617,16197.000000,4.000000,,,,0.000000,4.000000,4.000000,4.000000,4.000000,4.000000,,,,,,,,,,,,,,,,,,,,,,,,,
1577736983.224125,112.000000,0.000000,4196.922852,4385.128418,4167.179688,4162.563965,4213.333496,450.000000,4.000000,,,,0.000000,4.000000,4.000000,4.000000,4.000000,4.000000,,,,,,,,,,,,,,,,,,,,,,,,,
1577736983.232030,113.000000,0.000000,4201.538574,4391.282227,4161.538574,4152.820313,4213.846191,450.000000,4.000000,,,,0.000000,4.000000,4.000000,4.000000,4.000000,4.000000,,,,,,,,,,,,,,,,,,,,,,,,,
1577736983.239836,114.000000,0.000000,4202.563965,4401.538574,4165.641113,4147.179688,4215.897461,450.000000,4.000000,,,,0.000000,4.000000,4.000000,4.000000,4.000000,4.000000,,,,,,,,,,,,,,,,,,,,,,,,,
1577736983.247742,115.000000,0.000000,4204.102539,4407.179688,4180.000000,4156.922852,4218.461426,16197.000000,4.000000,,,,0.000000,4.000000,4.000000,4.000000,4.000000,4.000000,,,,,,,,,,,,,,,,,,,,,,,,,
1577736983.255547,116.000000,0.000000,4202.051270,4381.538574,4158.974121,4158.974121,4216.410156,450.000000,4.000000,,,,0.000000,4.000000,4.000000,4.000000,4.000000,4.000000,,,,,,,,,,,,,,,,,,,,,,,,,
1577736983.263453,117.000000,0.000000,4200.512695,4372.307617,4162.563965,4158.974121,4218.461426,450.000000,4.000000,,,,0.000000,4.000000,4.000000,4.000000,4.000000,4.000000,,,,,,,,,,,,,,,,,,,,,,,,,
1577736983.271360,118.000000,0.000000,4203.077148,4382.563965,4167.692383,4156.922852,4227.179688,450.000000,4.000000,,,,0.000000,4.000000,4.000000,4.000000,4.000000,4.000000,,,,,,,,,,,,,,,,,,,,,,,,,
1577736983.279167,119.000000,0.000000,4204.615234,4390.256348,4173.333496,4162.563965,4227.179688,16197.000000,4.000000,,,,0.000000,4.000000,4.000000,4.000000,4.000000,4.000000,,,,,,,,,,,,,,,,,,,,,,,,,
1577736983.286974,120.000000,0.000000,4214.871582,4397.948730,4188.205078,4168.717773,4225.128418,450.000000,4.000000,,,,0.000000,4.000000,4.000000,4.000000,4.000000,4.000000,,,,,,,,,,,,,,,,,,,,,,,,,
1577736983.294879,121.000000,0.000000,4215.384766,4394.871582,4166.153809,4162.563965,4223.077148,450.000000,4.000000,,,,0.000000,4.000000,4.000000,4.000000,4.000000,4.000000,,,,,,,,,,,,,,,,,,,,,,,,,
1577736983.302685,122.000000,0.000000,4201.025879,4393.333496,4169.230957,4163.589844,4213.333496,450.000000,4.000000,,,,0.000000,4.000000,4.000000,4.000000,4.000000,4.000000,,,,,,,,,,,,,,,,,,,,,,,,,
1577736983.310590,123.000000,0.000000,4193.846191,4386.153809,4168.717773,4159.487305,4198.461426,16197.000000,4.000000,,,,0.000000,4.000000,4.000000,4.000000,4.000000,4.000000,,,,,,,,,,,,,,,,,,,,,,,,,
1577736983.318395,124.000000,0.000000,4182.563965,4368.205078,4155.897461,4153.846191,4186.153809,450.000000,4.000000,,,,0.000000,4.000000,4.000000,4.000000,4.000000,4.000000,,,,,,,,,,,,,,,,,,,,,,,,,
1577736983.326100,125.000000,0.000000,4174.358887,4386.666504,4177.436035,4161.538574,4181.025879,450.000000,4.000000,,,,0.000000,4.000000,4.000000,4.000000,4.000000,4.000000,7.366895,4.296938,0.657237,0.536800,0.254706,0.495758,1.465406,0.419091,1.713763,3.356247,1.377220,1.118067,0.994952,0.398766,0.233986,1.085928,0.810677,0.936095,0.321548,0.356114,2.952779,3.074193,1.300507,0.353905,0.343046
1577736983.334006,126.000000,0.000000,4178.974121,4408.717773,4169.743652,4157.948730,4176.922852,450.000000,4.000000,,,,0.000000,4.000000,4.000000,4.000000,4.000000,4.000000,,,,,,,,,,,,,,,,,,,,,,,,,
1577736983.341813,127.000000,0.000000,4183.077148,4401.025879,4163.077148,4155.384766,4175.897461,238.000000,4.000000,,,,0.000000,4.000000,4.000000,4.000000,4.000000,4.000000,,,,,,,,,,,,,,,,,,,,,,,,,
1577736983.349619,0.000000,0.000000,4180.512695,4389.230957,4166.153809,4155.384766,4181.025879,450.000000,4.000000,,,,0.000000,4.000000,4.000000,4.000000,4.000000,4.000000,,,,,,,,,,,,,,,,,,,,,,,,,
1577736983.357324,1.000000,0.000000,4173.333496,4385.128418,4155.897461,4148.205078,4178.974121,450.000000,4.000000,,,,0.000000,4.000000,4.000000,4.000000,4.000000,4.000000,,,,,,,,,,,,,,,,,,,,,,,,,
1577736983.365230,2.000000,0.000000,4177.948730,4398.974121,4167.179688,4150.769043,4174.358887,16214.000000,4.000000,,,,0.000000,4.000000,4.000000,4.000000,4.000000,4.000000,,,,,,,,,,,,,,,,,,,,,,,,,
1577736983.373036,3.000000,0.000000,4177.948730,4402.563965,4154.871582,4151.794922,4173.846191,450.000000,4.000000,,,,0.000000,4.000000,4.000000,4.000000,4.000000,4.000000,,,,,,,,,,,,,,,,,,,,,,,,,
1577736983.380943,4.000000,0.000000,4156.410156,4371.282227,4147.179688,4147.179688,4170.769043,16219.000000,4.000000,,,,0.000000,4.000000,4.000000,4.000000,4.000000,4.000000,,,,,,,,,,,,,,,,,,,,,,,,,
1577736983.388749,5.000000,0.000000,4146.666504,4372.820313,4158.974121,4144.615234,4173.333496,450.000000,4.000000,,,,0.000000,4.000000,4.000000,4.000000,4.000000,4.000000,,,,,,,,,,,,,,,,,,,,,,,,,
1577736983.396655,6.000000,0.000000,4162.051270,4418.461426,4150.769043,4144.102539,4185.128418,16145.000000,4.000000,,,,0.000000,4.000000,4.000000,4.000000,4.000000,4.000000,,,,,,,,,,,,,,,,,,,,,,,,,
1577736983.404461,7.000000,0.000000,4175.897461,4415.384766,4164.102539,4153.846191,4189.230957,450.000000,4.000000,,,,0.000000,4.000000,4.000000,4.000000,4.000000,4.000000,,,,,,,,,,,,,,,,,,,,,,,,,
1577736983.412367,8.000000,0.000000,4181.025879,4371.794922,4167.179688,4161.025879,4192.307617,450.000000,4.000000,,,,0.000000,4.000000,4.000000,4.000000,4.000000,4.000000,,,,,,,,,,,,,,,,,,,,,,,,,
1577736983.420173,9.000000,0.000000,4189.743652,4375.384766,4160.000000,4162.563965,4205.128418,16135.000000,4.000000,,,,0.000000,4.000000,4.000000,4.000000,4.000000,4.000000,,,,,,,,,,,,,,,,,,,,,,,,,
1577736983.428078,10.000000,0.000000,4187.692383,4395.384766,4167.179688,4160.512695,4204.102539,450.000000,4.000000,,,,0.000000,4.000000,4.000000,4.000000,4.000000,4.000000,,,,,,,,,,,,,,,,,,,,,,,,,
1577736983.435884,11.000000,0.000000,4165.128418,4380.000000,4153.333496,4155.384766,4190.256348,16204.000000,4.000000,,,,0.000000,4.000000,4.000000,4.000000,4.000000,4.000000,,,,,,,,,,,,,,,,,,,,,,,,,
1577736983.443790,12.000000,0.000000,4160.000000,4371.282227,4164.102539,4169.230957,4196.922852,450.000000,4.000000,,,,0.000000,4.000000,4.000000,4.000000,4.000000,4.000000,,,,,,,,,,,,,,,,,,,,,,,,,
1577736983.451595,13.000000,0.000000,4167.179688,4396.922852,4167.179688,4174.871582,4202.563965,450.000000,4.000000,,,,0.000000,4.000000,4.000000,4.000000,4.000000,4.000000,5.285161,3.912234,0.545097,0.541925,0.256997,0.568287,1.312494,0.453098,1.757291,3.386441,1.107085,1.042203,1.079478,0.382529,0.251348,0.897919,0.790359,1.209725,0.318839,0.366945,2.186184,2.971498,1.283065,0.392879,0.346451
1577736983.459500,14.000000,0.000000,4154.871582,4409.230957,4153.333496,4153.333496,4189.230957,450.000000,4.000000,,,,0.000000,4.000000,4.000000,4.000000,4.000000,4.000000,,,,,,,,,,,,,,,,,,,,,,,,,
1577736983.467306,15.000000,0.000000,4155.897461,4406.153809,4171.794922,4150.769043,4191.794922,16204.000000,4.000000,,,,0.000000,4.000000,4.000000,4.000000,4.000000,4.000000,,,,,,,,,,,,,,,,,,,,,,,,,
1577736983.475211,16.000000,0.000000,4169.743652,4392.820313,4167.692383,4155.384766,4200.000000,0.000000,4.000000,,,,0.000000,4.000000,4.000000,4.000000,4.000000,4.000000,,,,,,,,,,,,,,,,,,,,,,,,,
1577736983.483016,17.000000,0.000000,4166.153809,4377.948730,4165.128418,4150.256348,4189.743652,0.000000,4.000000,,,,0.000000,4.000000,4.000000,4.000000,4.000000,4.000000,,,,,,,,,,,,,,,,,,,,,,,,,
1577736983.490721,18.000000,0.000000,4167.692383,4395.897461,4171.282227,4151.794922,4185.641113,0.000000,4.000000,,,,0.000000,4.000000,4.000000,4.000000,4.000000,4.000000,,,,,,,,,,,,,,,,,,,,,,,,,
1577736983.498526,19.000000,0.000000,4176.922852,4401.025879,4163.589844,4158.974121,4189.230957,0.000000,4.000000,,,,0.000000,4.000000,4.000000,4.000000,4.000000,4.000000,,,,,,,,,,,,,,,,,,,,,,,,,
1577736983.506231,20.000000,0.000000,4172.820313,4375.384766,4176.410156,4162.051270,4185.641113,0.000000,4.000000,,,,0.000000,4.000000,4.000000,4.000000,4.000000,4.000000,,,,,,,,,,,,,,,,,,,,,,,,,
1577736983.514138,21.000000,0.000000,4161.025879,4376.410156,4163.077148,4151.794922,4176.410156,0.000000,4.000000,,,,0.000000,4.000000,4.000000,4.000000,4.000000,4.000000,,,,,,,,,,,,,,,,,,,,,,,,,
1577736983.521945,22.000000,0.000000,4166.153809,4400.000000,4158.974121,4148.205078,4175.897461,0.000000,4.000000,,,,0.000000,4.000000,4.000000,4.000000,4.000000,4.000000,,,,,,,,,,,,,,,,,,,,,,,,,
1577736983.529851,23.000000,0.000000,4181.538574,4399.487305,4166.666504,4155.384766,4184.102539,0.000000,4.000000,,,,0.000000,4.000000,4.000000,4.000000,4.000000,4.000000,,,,,,,,,,,,,,,,,,,,,,,,,
1577736983.537658,24.000000,0.000000,4186.666504,4384.102539,4149.743652,4153.846191,4188.205078,0.000000,4.000000,,,,0.000000,4.000000,4.000000,4.000000,4.000000,4.000000,,,,,,,,,,,,,,,,,,,,,,,,,
1577736983.545564,25.000000,0.000000,4190.769043,4397.436035,4168.717773,4153.846191,4196.410156,0.000000,4.000000,,,,0.000000,4.000000,4.000000,4.000000,4.000000,4.000000,,,,,,,,,,,,,,,,,,,,,,,,,
1577736983.553370,26.000000,0.000000,4195.897461,4407.179688,4176.410156,4160.000000,4204.615234,0.000000,4.000000,,,,0.000000,4.000000,4.000000,4.000000,4.000000,4.000000,,,,,,,,,,,,,,,,,,,,,,,,,
1577736983.561276,27.000000,0.000000,4180.000000,4384.615234,4164.102539,4161.538574,4187.179688,0.000000,4.000000,,,,0.000000,4.000000,4.000000,4.000000,4.000000,4.000000,,,,,,,,,,,,,,,,,,,,,,,,,
1577736983.569082,28.000000,0.000000,4161.025879,4370.769043,4168.205078,4152.820313,4170.256348,0.000000,4.000000,,,,0.000000,4.000000,4.000000,4.000000,4.000000,4.000000,,,,,,,,,,,,,,,,,,,,,,,,,
1577736983.576988,29.000000,0.000000,4161.025879,4402.563965,4158.461426,4147.179688,4176.922852,0.000000,4.000000,,,,0.000000,4.000000,4.000000,4.000000,4.000000,4.000000,4.920970,3.785621,0.547835,0.558356,0.275402,0.651169,1.103263,0.512310,1.784271,3.374243,0.907265,0.937716,1.164529,0.388282,0.274031,0.738801,0.781315,1.451350,0.330542,0.370874,2.139528,2.771160,1.171714,0.446452,0.358756
1577736983.584794,30.000000,0.000000,4172.820313,4424.102539,4168.717773,4159.487305,4189.743652,0.000000,4.000000,,,,0.000000,4.000000,4.000000,4.000000,4.000000,4.000000,,,,,,,,,,,,,,,,,,,,,,,,,
1577736983.592700,31.000000,0.000000,4190.769043,4387.179688,4174.871582,4171.282227,4210.769043,0.000000,4.000000,,,,0.000000,4.000000,4.000000,4.000000,4.000000,4.000000,,,,,,,,,,,,,,,,,,,,,,,,,
1577736983.600506,32.000000,0.000000,4199.487305,4371.794922,4161.538574,4168.205078,4217.436035,0.000000,4.000000,,,,0.000000,4.000000,4.000000,4.000000,4.000000,4.000000,,,,,,,,,,,,,,,,,,,,,,,,,
1577736983.608412,33.000000,0.000000,4192.307617,4401.025879,4155.384766,4154.871582,4195.384766,0.000000,4.000000,,,,0.000000,4.000000,4.000000,4.000000,4.000000,4.000000,,,,,,,,,,,,,,,,,,,,,,,,,
1577736983.616218,34.000000,0.000000,4206.153809,4415.897461,4158.461426,4155.384766,4198.461426,0.000000,4.000000,,,,0.000000,4.000000,4.000000,4.000000,4.000000,4.000000,,,,,,,,,,,,,,,,,,,,,,,,,
1577736983.624123,35.000000,0.000000,4241.025879,4403.589844,4194.358887,4172.820313,4227.692383,0.000000,4.000000,,,,0.000000,4.000000,4.000000,4.000000,4.000000,4.000000,,,,,,,,,,,,,,,,,,,,,,,,,
1577736983.631929,36.000000,0.000000,4247.692383,4375.897461,4188.717773,4156.922852,4223.589844,0.000000,4.000000,,,,0.000000,4.000000,4.000000,4.000000,4.000000,4.000000,,,,,,,,,,,,,,,,,,,,,,,,,
1577736983.639835,37.000000,0.000000,4237.948730,4377.948730,4157.436035,4137.436035,4205.128418,0.000000,4.000000,,,,0.000000,4.000000,4.000000,4.000000,4.000000,4.000000,,,,,,,,,,,,,,,,,,,,,,,,,
1577736983.647640,38.000000,0.000000,4250.256348,4400.000000,4177.948730,4158.974121,4217.948730,0.000000,4.000000,,,,0.000000,4.000000,4.000000,4.000000,4.000000,4.000000,,,,,,,,,,,,,,,,,,,,,,,,,
1577736983.655546,39.000000,0.000000,4252.820313,4391.794922,4169.743652,4162.051270,4227.179688,0.000000,4.000000,,,,0.000000,4.000000,4.000000,4.000000,4.000000,4.000000,,,,,,,,,,,,,,,,,,,,,,,,,
1577736983.663351,40.000000,0.000000,4248.717773,4380.000000,4165.128418,4150.256348,4218.974121,0.000000,4.000000,,,,0.000000,4.000000,4.000000,4.000000,4.000000,4.000000,,,,,,,,,,,,,,,,,,,,,,,,,
1577736983.671256,41.000000,0.000000,4270.256348,4406.153809,4192.820313,4157.436035,4232.820313,0.000000,4.000000,,,,0.000000,4.000000,4.000000,4.000000,4.000000,4.000000,,,,,,,,,,,,,,,,,,,,,,,,,
1577736983.679061,42.000000,0.000000,4273.846191,4409.230957,4189.230957,4156.922852,4238.461426,0.000000,4.000000,,,,0.000000,4.000000,4.000000,4.000000,4.000000,4.000000,,,,,,,,,,,,,,,,,,,,,,,,,
1577736983.686767,43.000000,0.000000,4261.538574,4387.179688,4189.743652,4151.794922,4225.128418,0.000000,4.000000,,,,0.000000,4.000000,4.000000,4.000000,4.000000,4.000000,,,,,,,,,,,,,,,,,,,,,,,,,
1577736983.694673,44.000000,0.000000,4273.333496,4390.256348,4184.102539,4150.769043,4229.230957,0.000000,4.000000,,,,0.000000,4.000000,4.000000,4.000000,4.000000,4.000000,,,,,,,,,,,,,,,,,,,,,,,,,
1577736983.702480,45.000000,0.000000,4281.538574,4404.615234,4184.615234,4154.871582,4235.897461,0.000000,4.000000,,,,0.000000,4.000000,4.000000,4.000000,4.000000,4.000000,5.046871,3.745383,0.659031,0.591018,0.297483,0.725552,0.883158,0.567735,1.836248,3.309848,0.767203,0.833935,1.227318,0.406194,0.291649,0.605352,0.803481,1.581687,0.346455,0.364130,2.442868,2.620145,1.013873,0.499795,0.373265
1577736983.710387,46.000000,0.000000,4285.128418,4424.615234,4191.794922,4155.384766,4232.307617,0.000000,4.000000,,,,0.000000,4.000000,4.000000,4.000000,4.000000,4.000000,,,,,,,,,,,,,,,,,,,,,,,,,
1577736983.718194,47.000000,0.000000,4293.846191,4412.820313,4171.282227,4148.717773,4231.794922,0.000000,4.000000,,,,0.000000,4.000000,4.000000,4.000000,4.000000,4.000000,,,,,,,,,,,,,,,,,,,,,,,,,
1577736983.726100,48.000000,0.000000,4303.077148,4386.666504,4181.025879,4166.153809,4242.051270,0.000000,4.000000,,,,0.000000,4.000000,4.000000,4.000000,4.000000,4.000000,,,,,,,,,,,,,,,,,,,,,,,,,
1577736983.733907,49.000000,0.000000,4316.410156,4411.794922,4192.307617,4188.205078,4262.563965,0.000000,4.000000,,,,0.000000,4.000000,4.000000,4.000000,4.000000,4.000000,,,,,,,,,,,,,,,,,,,,,,,,,
1577736983.741713,50.000000,0.000000,4318.974121,4427.692383,4189.743652,4184.102539,4278.461426,0.000000,4.000000,,,,0.000000,4.000000,4.000000,4.000000,4.000000,4.000000,,,,,,,,,,,,,,,,,,,,,,,,,
1577736983.749418,51.000000,0.000000,4310.256348,4388.717773,4198.461426,4176.922852,4280.512695,0.000000,4.000000,,,,0.000000,4.000000,4.000000,4.000000,4.000000,4.000000,,,,,,,,,,,,,,,,,,,,,,,,,
1577736983.757222,52.000000,0.000000,4303.589844,4382.051270,4186.153809,4178.974121,4275.384766,0.000000,4.000000,,,,0.000000,4.000000,4.000000,4.000000,4.000000,4.000000,,,,,,,,,,,,,,,,,,,,,,,,,
1577736983.764927,53.000000,0.000000,4309.230957,4422.051270,4202.051270,4184.615234,4272.820313,0.000000,4.000000,,,,0.000000,4.000000,4.000000,4.000000,4.000000,4.000000,,,,,,,,,,,,,,,,,,,,,,,,,
1577736983.772833,54.000000,0.000000,4312.820313,4413.333496,4212.820313,4178.461426,4271.282227,0.000000,4.000000,,,,0.000000,4.000000,4.000000,4.000000,4.000000,4.000000,,,,,,,,,,,,,,,,,,,,,,,,,
1577736983.780639,55.000000,0.000000,4306.666504,4388.717773,4184.102539,4170.769043,4268.205078,0.000000,4.000000,,,,0.000000,4.000000,4.000000,4.000000,4.000000,4.000000,,,,,,,,,,,,,,,,,,,,,,,,,
1577736983.788545,56.000000,0.000000,4324.615234,4396.410156,4185.641113,4177.948730,4270.769043,0.000000,4.000000,,,,0.000000,4.000000,4.000000,4.000000,4.000000,4.000000,,,,,,,,,,,,,,,,,,,,,,,,,
1577736983.796351,57.000000,0.000000,4344.102539,4399.487305,4176.410156,4181.025879,4272.307617,0.000000,4.000000,,,,0.000000,4.000000,4.000000,4.000000,4.000000,4.000000,,,,,,,,,,,,,,,,,,,,,,,,,
1577736983.804257,58.000000,0.000000,4334.871582,4400.000000,4171.282227,4176.922852,4267.179688,0.000000,4.000000,,,,0.000000,4.000000,4.000000,4.000000,4.000000,4.000000,,,,,,,,,,,,,,,,,,,,,,,,,
1577736983.812063,59.000000,0.000000,4331.282227,4407.179688,4181.025879,4179.487305,4271.794922,0.000000,4.000000,,,,0.000000,4.000000,4.000000,4.000000,4.000000,4.000000,,,,,,,,,,,,,,,,,,,,,,,,,
1577736983.819969,60.000000,0.000000,4331.794922,4398.974121,4167.692383,4182.051270,4278.974121,0.000000,4.000000,,,,0.000000,4.000000,4.000000,4.000000,4.000000,4.000000,,,,,,,,,,,,,,,,,,,,,,,,,
1577736983.827876,61.000000,0.000000,4317.436035,4392.307617,4165.128418,4174.871582,4274.358887,0.000000,4.000000,,,,0.000000,4.000000,4.000000,4.000000,4.000000,4.000000,5.288434,3.809843,0.881174,0.641482,0.314977,0.760799,0.688207,0.601215,1.924692,3.195726,0.693629,0.760897,1.250821,0.421628,0.299442,0.509737,0.854654,1.557540,0.356811,0.347209,3.073907,2.552448,0.875723,0.539153,0.383526
1577736983.835683,62.000000,0.000000,4300.000000,4387.692383,4154.358887,4159.487305,4263.077148,0.000000,4.000000,,,,0.000000,4.000000,4.000000,4.000000,4.000000,4.000000,,,,,,,,,,,,,,,,,,,,,,,,,
1577736983.843491,63.000000,0.000000,4297.436035,4375.384766,4165.128418,4161.025879,4260.000000,0.000000,4.000000,,,,0.000000,4.000000,4.000000,4.000000,4.000000,4.000000,,,,,,,,,,,,,,,,,,,,,,,,,
1577736983.851396,64.000000,0.000000,4305.641113,4382.563965,4182.051270,4170.769043,4257.948730,450.000000,4.000000,,,,0.000000,4.000000,4.000000,4.000000,4.000000,4.000000,,,,,,,,,,,,,,,,,,,,,,,,,
1577736983.859202,65.000000,0.000000,4305.128418,4398.974121,4155.384766,4165.128418,4247.179688,450.000000,4.000000,,,,0.000000,4.000000,4.000000,4.000000,4.000000,4.000000,,,,,,,,,,,,,,,,,,,,,,,,,
1577736983.866907,66.000000,0.000000,4301.538574,4385.641113,4161.025879,4168.205078,4246.153809,16201.000000,4.000000,,,,0.000000,4.000000,4.000000,4.000000,4.000000,4.000000,,,,,,,,,,,,,,,,,,,,,,,,,
1577736983.874713,67.000000,0.000000,4309.743652,4365.128418,4170.256348,4167.179688,4256.410156,450.000000,4.000000,,,,0.000000,4.000000,4.000000,4.000000,4.000000,4.000000,,,,,,,,,,,,,,,,,,,,,,,,,
1577736983.882418,68.000000,0.000000,4323.589844,4388.205078,4169.230957,4164.615234,4261.538574,16205.000000,4.000000,,,,0.000000,4.000000,4.000000,4.000000,4.000000,4.000000,,,,,,,,,,,,,,,,,,,,,,,,,
1577736983.890223,69.000000,0.000000,4333.846191,4411.282227,4183.589844,4180.000000,4260.512695,450.000000,4.000000,,,,0.000000,4.000000,4.000000,4.000000,4.000000,4.000000,,,,,,,,,,,,,,,,,,,,,,,,,
1577736983.897928,70.000000,0.000000,4346.666504,4394.871582,4172.307617,4184.615234,4266.666504,16136.000000,4.000000,,,,0.000000,4.000000,4.000000,4.000000,4.000000,4.000000,,,,,,,,,,,,,,,,,,,,,,,,,
1577736983.905733,71.000000,0.000000,4367.692383,4395.897461,4188.717773,4178.974121,4291.794922,450.000000,4.000000,,,,0.000000,4.000000,4.000000,4.000000,4.000000,4.000000,,,,,,,,,,,,,,,,,,,,,,,,,
1577736983.913438,72.000000,0.000000,4376.410156,4394.358887,4208.205078,4168.205078,4306.153809,450.000000,4.000000,,,,0.000000,4.000000,4.000000,4.000000,4.000000,4.000000,,,,,,,,,,,,,,,,,,,,,,,,,
1577736983.921243,73.000000,0.000000,4354.871582,4370.769043,4191.282227,4155.384766,4282.563965,16119.000000,4.000000,,,,0.000000,4.000000,4.000000,4.000000,4.000000,4.000000,,,,,,,,,,,,,,,,,,,,,,,,,
1577736983.928947,74.000000,0.000000,4341.025879,4384.615234,4195.384766,4162.051270,4263.589844,450.000000,4.000000,,,,0.000000,4.000000,4.000000,4.000000,4.000000,4.000000,,,,,,,,,,,,,,,,,,,,,,,,,
1577736983.936752,75.000000,0.000000,4346.153809,4401.025879,4192.307617,4166.666504,4271.794922,16218.000000,4.000000,,,,0.000000,4.000000,4.000000,4.000000,4.000000,4.000000,,,,,,,,,,,,,,,,,,,,,,,,,
1577736983.944457,76.000000,0.000000,4350.256348,4387.179688,4193.846191,4164.615234,4281.025879,450.000000,4.000000,,,,0.000000,4.000000,4.000000,4.000000,4.000000,4.000000,,,,,,,,,,,,,,,,,,,,,,,,,
1577736983.952261,77.000000,0.000000,4360.000000,4412.307617,4195.897461,4188.205078,4285.641113,450.000000,4.000000,,,,0.000000,4.000000,4.000000,4.000000,4.000000,4.000000,5.413469,3.960701,1.180758,0.713179,0.326958,0.738685,0.538679,0.615640,2.024731,3.051393,0.704814,0.712391,1.226194,0.425338,0.300824,0.491121,0.899208,1.390028,0.355638,0.326889,4.066330,2.519733,0.824229,0.560040,0.388575
1577736983.959966,78.000000,0.000000,4368.205078,4433.333496,4189.743652,4205.641113,4286.666504,450.000000,4.000000,,,,0.000000,4.000000,4.000000,4.000000,4.000000,4.000000,,,,,,,,,,,,,,,,,,,,,,,,,
1577736983.967872,79.000000,0.000000,4380.000000,4397.948730,4212.307617,4193.846191,4294.871582,16218.000000,4.000000,,,,0.000000,4.000000,4.000000,4.000000,4.000000,4.000000,,,,,,,,,,,,,,,,,,,,,,,,,
1577736983.975678,80.000000,0.000000,4387.692383,4380.512695,4206.153809,4185.128418,4301.025879,450.000000,4.000000,,,,0.000000,4.000000,4.000000,4.000000,4.000000,4.000000,,,,,,,,,,,,,,,,,,,,,,,,,
1577736983.983584,81.000000,0.000000,4372.820313,4410.256348,4199.487305,4197.948730,4280.000000,450.000000,4.000000,,,,0.000000,4.000000,4.000000,4.000000,4.000000,4.000000,,,,,,,,,,,,,,,,,,,,,,,,,
1577736983.991390,82.000000,0.000000,4357.436035,4441.025879,4204.615234,4218.974121,4258.974121,450.000000,4.000000,,,,0.000000,4.000000,4.000000,4.000000,4.000000,4.000000,,,,,,,,,,,,,,,,,,,,,,,,,
1577736983.999296,83.000000,0.000000,4363.589844,4441.025879,4191.282227,4228.205078,4265.128418,16218.000000,4.000000,,,,0.000000,4.000000,4.000000,4.000000,4.000000,4.000000,,,,,,,,,,,,,,,,,,,,,,,,,
1577736984.007102,84.000000,0.000000,4383.077148,4416.410156,4206.153809,4241.538574,4289.230957,450.000000,4.000000,,,,0.000000,4.000000,4.000000,4.000000,4.000000,4.000000,,,,,,,,,,,,,,,,,,,,,,,,,
1577736984.015007,85.000000,0.000000,4390.256348,4403.077148,4195.384766,4245.641113,4290.769043,450.000000,4.000000,,,,0.000000,4.000000,4.000000,4.000000,4.000000,4.000000,,,,,,,,,,,,,,,,,,,,,,,,,
1577736984.022813,86.000000,0.000000,4395.897461,4405.128418,4185.641113,4239.487305,4282.563965,450.000000,4.000000,,,,0.000000,4.000000,4.000000,4.000000,4.000000,4.000000,,,,,,,,,,,,,,,,,,,,,,,,,
1577736984.030718,87.000000,0.000000,4420.000000,4412.307617,4210.256348,4236.922852,4311.794922,16218.000000,4.000000,,,,0.000000,4.000000,4.000000,4.000000,4.000000,4.000000,,,,,,,,,,,,,,,,,,,,,,,,,
1577736984.038524,88.000000,0.000000,4431.794922,4413.846191,4218.461426,4222.563965,4328.205078,450.000000,4.000000,,,,0.000000,4.000000,4.000000,4.000000,4.000000,4.000000,,,,,,,,,,,,,,,,,,,,,,,,,
1577736984.046429,89.000000,0.000000,4463.589844,4418.974121,4250.769043,4195.384766,4350.256348,450.000000,4.000000,,,,0.000000,4.000000,4.000000,4.000000,4.000000,4.000000,,,,,,,,,,,,,,,,,,,,,,,,,
1577736984.054235,90.000000,0.000000,4502.563965,4408.717773,4254.871582,4204.102539,4395.384766,450.000000,4.000000,,,,0.000000,4.000000,4.000000,4.000000,4.000000,4.000000,,,,,,,,,,,,,,,,,,,,,,,,,
1577736984.061940,91.000000,0.000000,4520.512695,4387.692383,4259.487305,4202.563965,4435.384766,16218.000000,4.000000,,,,0.000000,4.000000,4.000000,4.000000,4.000000,4.000000,,,,,,,,,,,,,,,,,,,,,,,,,
1577736984.069847,92.000000,0.000000,4582.563965,4393.333496,4321.025879,4124.102539,4511.282227,450.000000,4.000000,,,,0.000000,4.000000,4.000000,4.000000,4.000000,4.000000,,,,,,,,,,,,,,,,,,,,,,,,,
1577736984.077654,93.000000,0.000000,4514.358887,4451.794922,4220.512695,4185.641113,4426.153809,450.000000,4.000000,,,,0.000000,4.000000,4.000000,4.000000,4.000000,4.000000,5.457046,4.158718,1.494577,0.805789,0.337869,0.669490,0.441115,0.618699,2.085018,2.901724,0.817063,0.670435,1.156184,0.416808,0.305916,0.588679,0.891506,1.143418,0.343383,0.314001,5.075437,2.439516,0.888158,0.570685,0.392728
1577736984.085461,94.000000,0.000000,4276.922852,4489.230957,4027.179443,4362.563965,4154.358887,450.000000,4.000000,,,,0.000000,4.000000,4.000000,4.000000,4.000000,4.000000,,,,,,,,,,,,,,,,,,,,,,,,,
1577736984.093166,95.000000,0.000000,4140.512695,4437.436035,3980.512939,4346.666504,4011.281982,16218.000000,4.000000,,,,0.000000,4.000000,4.000000,4.000000,4.000000,4.000000,,,,,,,,,,,,,,,,,,,,,,,,,
1577736984.101072,96.000000,0.000000,4160.512695,4383.077148,4026.666748,4231.282227,4036.410156,450.000000,4.000000,,,,0.000000,4.000000,4.000000,4.000000,4.000000,4.000000,,,,,,,,,,,,,,,,,,,,,,,,,
1577736984.108879,97.000000,0.000000,4458.974121,4331.794922,4244.615234,4104.102539,4332.820313,450.000000,4.000000,,,,0.000000,4.000000,4.000000,4.000000,4.000000,4.000000,,,,,,,,,,,,,,,,,,,,,,,,,
1577736984.116785,98.000000,0.000000,4905.641113,4217.436035,4548.205078,3873.846191,4814.871582,450.000000,4.000000,,,,0.000000,4.000000,4.000000,4.000000,4.000000,4.000000,,,,,,,,,,,,,,,,,,,,,,,,,
1577736984.124592,99.000000,0.000000,4805.641113,4224.615234,4482.563965,3762.051270,4734.871582,16218.000000,4.000000,,,,0.000000,4.000000,4.000000,4.000000,4.000000,4.000000,,,,,,,,,,,,,,,,,,,,,,,,,
1577736984.132498,100.000000,0.000000,4290.256348,4386.153809,4086.153809,4033.333252,4168.205078,450.000000,4.000000,,,,0.000000,4.000000,4.000000,4.000000,4.000000,4.000000,,,,,,,,,,,,,,,,,,,,,,,,,
1577736984.140304,101.000000,0.000000,4273.846191,4436.410156,4046.666748,4285.641113,4162.563965,450.000000,4.000000,,,,0.000000,4.000000,4.000000,4.000000,4.000000,4.000000,,,,,,,,,,,,,,,,,,,,,,,,,
1577736984.148210,102.000000,0.000000,4514.358887,4410.769043,4278.974121,4144.102539,4456.410156,450.000000,4.000000,,,,0.000000,4.000000,4.000000,4.000000,4.000000,4.000000,,,,,,,,,,,,,,,,,,,,,,,,,
1577736984.156016,103.000000,0.000000,4352.820313,4443.077148,4146.666504,4105.128418,4263.077148,16218.000000,4.000000,,,,0.000000,4.000000,4.000000,4.000000,4.000000,4.000000,,,,,,,,,,,,,,,,,,,,,,,,,
1577736984.163922,104.000000,0.000000,4265.128418,4407.179688,4045.128174,4277.948730,4149.743652,450.000000,4.000000,,,,0.000000,4.000000,4.000000,4.000000,4.000000,4.000000,,,,,,,,,,,,,,,,,,,,,,,,,
1577736984.171728,105.000000,0.000000,4433.333496,4363.589844,4213.333496,4146.666504,4355.384766,450.000000,4.000000,,,,0.000000,4.000000,4.000000,4.000000,4.000000,4.000000,,,,,,,,,,,,,,,,,,,,,,,,,
1577736984.179634,106.000000,0.000000,4392.307617,4395.384766,4212.307617,3961.025635,4340.512695,450.000000,4.000000,,,,0.000000,4.000000,4.000000,4.000000,4.000000,4.000000,,,,,,,,,,,,,,,,,,,,,,,,,
1577736984.187440,107.000000,0.000000,4273.333496,4389.743652,4131.794922,4131.282227,4222.051270,16218.000000,4.000000,,,,0.000000,4.000000,4.000000,4.000000,4.000000,4.000000,,,,,,,,,,,,,,,,,,,,,,,,,
1577736984.195345,108.000000,0.000000,4341.538574,4365.128418,4158.461426,4149.230957,4271.282227,450.000000,4.000000,,,,0.000000,4.000000,4.000000,4.000000,4.000000,4.000000,,,,,,,,,,,,,,,,,,,,,,,,,
1577736984.203151,109.000000,0.000000,4390.769043,4379.487305,4177.436035,3988.718018,4308.717773,450.000000,4.000000,,,,0.000000,4.000000,4.000000,4.000000,4.000000,4.000000,5.365880,4.408936,1.931487,0.994228,0.364910,0.599042,0.409175,0.622341,2.068576,2.767336,1.103535,0.615972,1.118645,0.452123,0.332185,0.925954,0.878320,0.978332,0.360013,0.324826,6.052877,2.297793,1.188975,0.683105,0.419772
1577736984.210957,110.000000,0.000000,4335.384766,4360.000000,4186.666504,4109.230957,4285.128418,450.000000,4.000000,,,,0.000000,4.000000,4.000000,4.000000,4.000000,4.000000,,,,,,,,,,,,,,,,,,,,,,,,,
1577736984.218661,111.000000,0.000000,4378.974121,4308.717773,4230.769043,4131.282227,4341.538574,16218.000000,4.000000,,,,0.000000,4.000000,4.000000,4.000000,4.000000,4.000000,,,,,,,,,,,,,,,,,,,,,,,,,
1577736984.226366,112.000000,0.000000,4437.948730,4365.128418,4225.641113,3916.923096,4377.436035,450.000000,4.000000,,,,0.000000,4.000000,4.000000,4.000000,4.000000,4.000000,,,,,,,,,,,,,,,,,,,,,,,,,
1577736984.234172,113.000000,0.000000,4381.538574,4446.153809,4185.128418,4016.923096,4333.846191,450.000000,4.000000,,,,0.000000,4.000000,4.000000,4.000000,4.000000,4.000000,,,,,,,,,,,,,,,,,,,,,,,,,
1577736984.241877,114.000000,0.000000,4387.692383,4361.538574,4222.051270,4225.128418,4359.487305,450.000000,4.000000,,,,0.000000,4.000000,4.000000,4.000000,4.000000,4.000000,,,,,,,,,,,,,,,,,,,,,,,,,
1577736984.249784,115.000000,0.000000,4427.692383,4258.974121,4257.436035,4042.564209,4379.487305,16218.000000,4.000000,,,,0.000000,4.000000,4.000000,4.000000,4.000000,4.000000,,,,,,,,,,,,,,,,,,,,,,,,,
1577736984.257591,116.000000,0.000000,4319.487305,4390.256348,4161.538574,3916.923096,4287.692383,450.000000,4.000000,,,,0.000000,4.000000,4.000000,4.000000,4.000000,4.000000,,,,,,,,,,,,,,,,,,,,,,,,,
1577736984.265498,117.000000,0.000000,4239.487305,4486.153809,4133.333496,4153.333496,4231.794922,450.000000,4.000000,,,,0.000000,4.000000,4.000000,4.000000,4.000000,4.000000,,,,,,,,,,,,,,,,,,,,,,,,,
1577736984.273406,118.000000,0.000000,4344.615234,4332.307617,4218.461426,4224.102539,4289.743652,450.000000,4.000000,,,,0.000000,4.000000,4.000000,4.000000,4.000000,4.000000,,,,,,,,,,,,,,,,,,,,,,,,,
1577736984.281215,119.000000,0.000000,4345.641113,4267.692383,4196.922852,3959.487061,4287.179688,16218.000000,4.000000,,,,0.000000,4.000000,4.000000,4.000000,4.000000,4.000000,,,,,,,,,,,,,,,,,,,,,,,,,
1577736984.289123,120.000000,0.000000,4305.641113,4348.205078,4199.487305,3903.589844,4280.512695,450.000000,4.000000,,,,0.000000,4.000000,4.000000,4.000000,4.000000,4.000000,,,,,,,,,,,,,,,,,,,,,,,,,
1577736984.296931,121.000000,0.000000,4369.230957,4394.358887,4232.307617,4080.512939,4334.871582,450.000000,4.000000,,,,0.000000,4.000000,4.000000,4.000000,4.000000,4.000000,,,,,,,,,,,,,,,,,,,,,,,,,
1577736984.304839,122.000000,0.000000,4323.077148,4391.282227,4163.589844,4137.948730,4264.615234,450.000000,4.000000,,,,0.000000,4.000000,4.000000,4.000000,4.000000,4.000000,,,,,,,,,,,,,,,,,,,,,,,,,
1577736984.312648,123.000000,0.000000,4272.820313,4325.128418,4142.563965,4075.897461,4217.948730,16218.000000,4.000000,,,,0.000000,4.000000,4.000000,4.000000,4.000000,4.000000,,,,,,,,,,,,,,,,,,,,,,,,,
1577736984.320555,124.000000,0.000000,4329.230957,4349.743652,4204.102539,3989.743652,4276.410156,450.000000,4.000000,,,,0.000000,4.000000,4.000000,4.000000,4.000000,4.000000,,,,,,,,,,,,,,,,,,,,,,,,,
1577736984.328465,125.000000,0.000000,4308.717773,4461.025879,4202.051270,4025.128174,4252.307617,450.000000,4.000000,,,,0.000000,4.000000,4.000000,4.000000,4.000000,4.000000,5.155400,5.224197,4.315476,2.893678,0.806328,0.659440,0.656271,0.865974,2.128389,2.675548,1.471904,0.920087,2.157110,1.442247,0.620989,1.920274,1.366458,2.053744,1.058676,0.527798,6.467364,2.713523,3.504640,2.855039,0.963711
1577736984.336275,126.000000,0.000000,4246.666504,4357.948730,4143.077148,4070.256348,4213.846191,450.000000,4.000000,,,,0.000000,4.000000,4.000000,4.000000,4.000000,4.000000,,,,,,,,,,,,,,,,,,,,,,,,,
1577736984.344085,127.000000,0.000000,4284.615234,4259.487305,4167.692383,4057.435791,4247.179688,238.000000,4.000000,,,,0.000000,4.000000,4.000000,4.000000,4.000000,4.000000,,,,,,,,,,,,,,,,,,,,,,,,,
1577736984.351993,0.000000,0.000000,4308.205078,4430.769043,4209.743652,4094.358887,4260.512695,450.000000,4.000000,,,,0.000000,4.000000,4.000000,4.000000,4.000000,4.000000,,,,,,,,,,,,,,,,,,,,,,,,,
1577736984.359902,1.000000,0.000000,4277.436035,4431.282227,4180.000000,4050.769287,4236.410156,450.000000,4.000000,,,,0.000000,4.000000,4.000000,4.000000,4.000000,4.000000,,,,,,,,,,,,,,,,,,,,,,,,,
1577736984.367712,2.000000,0.000000,4253.846191,4290.256348,4165.128418,3960.000000,4216.922852,16239.000000,4.000000,,,,0.000000,4.000000,4.000000,4.000000,4.000000,4.000000,,,,,,,,,,,,,,,,,,,,,,,,,
1577736984.375621,3.000000,0.000000,4206.666504,4339.487305,4144.615234,3973.333252,4177.948730,450.000000,4.000000,,,,0.000000,4.000000,4.000000,4.000000,4.000000,4.000000,,,,,,,,,,,,,,,,,,,,,,,,,
1577736984.383430,4.000000,0.000000,4188.205078,4413.846191,4138.974121,4117.948730,4180.512695,16221.000000,4.000000,,,,0.000000,4.000000,4.000000,4.000000,4.000000,4.000000,,,,,,,,,,,,,,,,,,,,,,,,,
1577736984.391339,5.000000,0.000000,4175.897461,4414.358887,4152.820313,4170.769043,4184.102539,450.000000,4.000000,,,,0.000000,4.000000,4.000000,4.000000,4.000000,4.000000,,,,,,,,,,,,,,,,,,,,,,,,,
1577736984.399149,6.000000,0.000000,4139.487305,4394.358887,4126.666504,4095.384521,4131.794922,16163.000000,4.000000,,,,0.000000,4.000000,4.000000,4.000000,4.000000,4.000000,,,,,,,,,,,,,,,,,,,,,,,,,
1577736984.407058,7.000000,0.000000,4126.153809,4350.256348,4136.922852,4043.076904,4116.410156,450.000000,4.000000,,,,0.000000,4.000000,4.000000,4.000000,4.000000,4.000000,,,,,,,,,,,,,,,,,,,,,,,,,
1577736984.414867,8.000000,0.000000,4149.743652,4351.282227,4174.358887,4052.820557,4163.077148,450.000000,4.000000,,,,0.000000,4.000000,4.000000,4.000000,4.000000,4.000000,,,,,,,,,,,,,,,,,,,,,,,,,
1577736984.422776,9.000000,0.000000,4162.051270,4386.153809,4177.436035,4065.128174,4186.153809,16097.000000,4.000000,,,,0.000000,4.000000,4.000000,4.000000,4.000000,4.000000,,,,,,,,,,,,,,,,,,,,,,,,,
1577736984.430584,10.000000,0.000000,4150.769043,4371.794922,4186.666504,4024.615479,4175.384766,450.000000,4.000000,,,,0.000000,4.000000,4.000000,4.000000,4.000000,4.000000,,,,,,,,,,,,,,,,,,,,,,,,,
1577736984.438493,11.000000,0.000000,4148.717773,4349.230957,4186.666504,4008.205078,4194.358887,16228.000000,4.000000,,,,0.000000,4.000000,4.000000,4.000000,4.000000,4.000000,,,,,,,,,,,,,,,,,,,,,,,,,
1577736984.446302,12.000000,0.000000,4140.000000,4360.512695,4179.487305,4022.564209,4200.512695,450.000000,4.000000,,,,0.000000,4.000000,4.000000,4.000000,4.000000,4.000000,,,,,,,,,,,,,,,,,,,,,,,,,
1577736984.454211,13.000000,0.000000,4134.871582,4379.487305,4177.436035,4008.718018,4180.000000,450.000000,4.000000,,,,0.000000,4.000000,4.000000,4.000000,4.000000,4.000000,5.030726,8.418826,12.257004,10.816801,2.972766,1.079780,1.751656,2.008395,2.718351,2.737407,1.932991,2.714613,6.627345,5.751889,1.962300,4.174984,3.825582,7.203390,4.275637,1.734081,6.648503,5.587191,11.714088,12.065284,3.643124
1577736984.462019,14.000000,0.000000,4139.487305,4398.461426,4164.102539,4013.846191,4171.282227,450.000000,4.000000,,,,0.000000,4.000000,4.000000,4.000000,4.000000,4.000000,,,,,,,,,,,,,,,,,,,,,,,,,
1577736984.469927,15.000000,0.000000,4146.153809,4371.794922,4178.974121,4022.564209,4176.922852,16228.000000,4.000000,,,,0.000000,4.000000,4.000000,4.000000,4.000000,4.000000,,,,,,,,,,,,,,,,,,,,,,,,,
1577736984.477736,16.000000,0.000000,4158.461426,4347.179688,4180.512695,4018.974365,4188.205078,0.000000,4.000000,,,,0.000000,4.000000,4.000000,4.000000,4.000000,4.000000,,,,,,,,,,,,,,,,,,,,,,,,,
1577736984.485644,17.000000,0.000000,4169.743652,4378.974121,4173.846191,4020.000000,4191.794922,0.000000,4.000000,,,,0.000000,4.000000,4.000000,4.000000,4.000000,4.000000,,,,,,,,,,,,,,,,,,,,,,,,,
1577736984.493452,18.000000,0.000000,4190.256348,4396.410156,4190.769043,4028.718018,4201.025879,0.000000,4.000000,,,,0.000000,4.000000,4.000000,4.000000,4.000000,4.000000,,,,,,,,,,,,,,,,,,,,,,,,,
1577736984.501360,19.000000,0.000000,4207.179688,4370.769043,4184.615234,4029.743652,4212.307617,0.000000,4.000000,,,,0.000000,4.000000,4.000000,4.000000,4.000000,4.000000,,,,,,,,,,,,,,,,,,,,,,,,,
1577736984.509270,20.000000,0.000000,4211.794922,4369.230957,4189.230957,4029.743652,4218.461426,0.000000,4.000000,,,,0.000000,4.000000,4.000000,4.000000,4.000000,4.000000,,,,,,,,,,,,,,,,,,,,,,,,,
1577736984.517080,21.000000,0.000000,4208.717773,4395.384766,4187.692383,4035.384521,4224.102539,0.000000,4.000000,,,,0.000000,4.000000,4.000000,4.000000,4.000000,4.000000,,,,,,,,,,,,,,,,,,,,,,,,,
1577736984.524989,22.000000,0.000000,4184.615234,4380.000000,4170.256348,4027.179443,4217.436035,0.000000,4.000000,,,,0.000000,4.000000,4.000000,4.000000,4.000000,4.000000,,,,,,,,,,,,,,,,,,,,,,,,,
1577736984.532799,23.000000,0.000000,4166.666504,4350.769043,4170.769043,4009.230713,4203.077148,0.000000,4.000000,,,,0.000000,4.000000,4.000000,4.000000,4.000000,4.000000,,,,,,,,,,,,,,,,,,,,,,,,,
1577736984.540709,24.000000,0.000000,4162.051270,4352.820313,4151.794922,4006.666748,4198.974121,0.000000,4.000000,,,,0.000000,4.000000,4.000000,4.000000,4.000000,4.000000,,,,,,,,,,,,,,,,,,,,,,,,,
1577736984.548518,25.000000,0.000000,4145.128418,4368.205078,4157.948730,4023.589844,4201.538574,0.000000,4.000000,,,,0.000000,4.000000,4.000000,4.000000,4.000000,4.000000,,,,,,,,,,,,,,,,,,,,,,,,,
1577736984.556428,26.000000,0.000000,4131.794922,4375.897461,4171.794922,4024.615479,4202.051270,0.000000,4.000000,,,,0.000000,4.000000,4.000000,4.000000,4.000000,4.000000,,,,,,,,,,,,,,,,,,,,,,,,,
1577736984.564237,27.000000,0.000000,4122.051270,4374.358887,4153.846191,4003.589844,4188.205078,0.000000,4.000000,,,,0.000000,4.000000,4.000000,4.000000,4.000000,4.000000,,,,,,,,,,,,,,,,,,,,,,,,,
1577736984.572147,28.000000,0.000000,4113.846191,4366.666504,4163.077148,4006.666748,4176.410156,0.000000,4.000000,,,,0.000000,4.000000,4.000000,4.000000,4.000000,4.000000,,,,,,,,,,,,,,,,,,,,,,,,,
1577736984.579956,29.000000,0.000000,4111.794922,4368.205078,4162.563965,4015.384521,4185.128418,0.000000,4.000000,,,,0.000000,4.000000,4.000000,4.000000,4.000000,4.000000,5.269638,15.916579,28.457659,28.942217,8.361367,2.046352,4.233619,4.718307,4.334108,3.308474,2.472636,7.088624,16.540211,15.662145,5.268557,8.072044,9.852163,19.151571,12.059354,5.473702,6.788854,12.906428,28.948235,32.962940,10.271411
1577736984.587865,30.000000,0.000000,4112.307617,4374.871582,4155.384766,4017.435791,4196.922852,0.000000,4.000000,,,,0.000000,4.000000,4.000000,4.000000,4.000000,4.000000,,,,,,,,,,,,,,,,,,,,,,,,,
1577736984.595674,31.000000,0.000000,4106.153809,4369.743652,4153.333496,4018.974365,4189.230957,0.000000,4.000000,,,,0.000000,4.000000,4.000000,4.000000,4.000000,4.000000,,,,,,,,,,,,,,,,,,,,,,,,,
1577736984.603483,32.000000,0.000000,4089.230713,4369.743652,4133.846191,4010.769287,4173.846191,0.000000,4.000000,,,,0.000000,4.000000,4.000000,4.000000,4.000000,4.000000,,,,,,,,,,,,,,,,,,,,,,,,,
1577736984.611391,33.000000,0.000000,4083.076904,4391.282227,4141.025879,4009.743652,4177.948730,0.000000,4.000000,,,,0.000000,4.000000,4.000000,4.000000,4.000000,4.000000,,,,,,,,,,,,,,,,,,,,,,,,,
1577736984.619299,34.000000,0.000000,4080.512939,4401.025879,4132.820313,3995.384521,4185.641113,0.000000,4.000000,,,,0.000000,4.000000,4.000000,4.000000,4.000000,4.000000,,,,,,,,,,,,,,,,,,,,,,,,,
1577736984.627108,35.000000,0.000000,4056.923096,4376.922852,4120.000000,3967.692383,4169.230957,0.000000,4.000000,,,,0.000000,4.000000,4.000000,4.000000,4.000000,4.000000,,,,,,,,,,,,,,,,,,,,,,,,,
1577736984.635017,36.000000,0.000000,4044.102539,4361.538574,4136.922852,3958.974365,4152.307617,0.000000,4.000000,,,,0.000000,4.000000,4.000000,4.000000,4.000000,4.000000,,,,,,,,,,,,,,,,,,,,,,,,,
1577736984.642927,37.000000,0.000000,4063.076904,4369.230957,4132.307617,3949.743652,4164.102539,0.000000,4.000000,,,,0.000000,4.000000,4.000000,4.000000,4.000000,4.000000,,,,,,,,,,,,,,,,,,,,,,,,,
1577736984.650738,38.000000,0.000000,4088.718018,4394.871582,4144.615234,3951.281982,4189.230957,0.000000,4.000000,,,,0.000000,4.000000,4.000000,4.000000,4.000000,4.000000,,,,,,,,,,,,,,,,,,,,,,,,,
1577736984.658548,39.000000,0.000000,4110.769043,4414.871582,4159.487305,3969.743652,4209.230957,0.000000,4.000000,,,,0.000000,4.000000,4.000000,4.000000,4.000000,4.000000,,,,,,,,,,,,,,,,,,,,,,,,,
1577736984.666456,40.000000,0.000000,4121.025879,4400.000000,4160.512695,3966.666748,4218.974121,0.000000,4.000000,,,,0.000000,4.000000,4.000000,4.000000,4.000000,4.000000,,,,,,,,,,,,,,,,,,,,,,,,,
1577736984.674366,41.000000,0.000000,4122.563965,4406.666504,4171.282227,3953.846191,4223.077148,0.000000,4.000000,,,,0.000000,4.000000,4.000000,4.000000,4.000000,4.000000,,,,,,,,,,,,,,,,,,,,,,,,,
1577736984.682176,42.000000,0.000000,4121.025879,4421.538574,4163.589844,3948.205078,4216.922852,0.000000,4.000000,,,,0.000000,4.000000,4.000000,4.000000,4.000000,4.000000,,,,,,,,,,,,,,,,,,,,,,,,,
1577736984.690086,43.000000,0.000000,4125.641113,4389.743652,4180.000000,3957.948730,4211.794922,0.000000,4.000000,,,,0.000000,4.000000,4.000000,4.000000,4.000000,4.000000,,,,,,,,,,,,,,,,,,,,,,,,,
1577736984.697896,44.000000,0.000000,4126.153809,4364.102539,4181.538574,3958.461426,4215.384766,0.000000,4.000000,,,,0.000000,4.000000,4.000000,4.000000,4.000000,4.000000,,,,,,,,,,,,,,,,,,,,,,,,,
1577736984.705807,45.000000,0.000000,4110.769043,4392.820313,4151.282227,3949.230713,4211.794922,0.000000,4.000000,,,,0.000000,4.000000,4.000000,4.000000,4.000000,4.000000,6.941089,28.099827,52.117897,57.538921,17.403498,3.492739,8.117814,9.095423,7.120889,4.878160,3.238103,14.134861,31.728975,31.322960,10.817872,13.027936,19.950560,38.206436,25.044352,12.988967,7.653174,25.060390,54.651638,65.657578,21.325794
1577736984.713618,46.000000,0.000000,4116.410156,4411.794922,4156.922852,3971.281982,4210.769043,0.000000,4.000000,,,,0.000000,4.000000,4.000000,4.000000,4.000000,4.000000,,,,,,,,,,,,,,,,,,,,,,,,,
1577736984.721428,47.000000,0.000000,4146.666504,4384.615234,4153.333496,3997.435791,4224.615234,0.000000,4.000000,,,,0.000000,4.000000,4.000000,4.000000,4.000000,4.000000,,,,,,,,,,,,,,,,,,,,,,,,,
1577736984.729336,48.000000,0.000000,4160.000000,4366.153809,4154.871582,4005.641113,4230.256348,0.000000,4.000000,,,,0.000000,4.000000,4.000000,4.000000,4.000000,4.000000,,,,,,,,,,,,,,,,,,,,,,,,,
1577736984.737144,49.000000,0.000000,4150.769043,4384.615234,4156.410156,4001.025635,4220.000000,0.000000,4.000000,,,,0.000000,4.000000,4.000000,4.000000,4.000000,4.000000,,,,,,,,,,,,,,,,,,,,,,,,,
1577736984.745051,50.000000,0.000000,4151.794922,4413.333496,4145.641113,4004.615479,4219.487305,0.000000,4.000000,,,,0.000000,4.000000,4.000000,4.000000,4.000000,4.000000,,,,,,,,,,,,,,,,,,,,,,,,,
1577736984.752961,51.000000,0.000000,4169.230957,4402.563965,4171.794922,4032.820557,4231.794922,0.000000,4.000000,,,,0.000000,4.000000,4.000000,4.000000,4.000000,4.000000,,,,,,,,,,,,,,,,,,,,,,,,,
1577736984.760770,52.000000,0.000000,4176.922852,4378.461426,4174.358887,4042.051270,4234.871582,0.000000,4.000000,,,,0.000000,4.000000,4.000000,4.000000,4.000000,4.000000,,,,,,,,,,,,,,,,,,,,,,,,,
1577736984.768679,53.000000,0.000000,4172.307617,4395.897461,4158.974121,4031.281982,4221.538574,0.000000,4.000000,,,,0.000000,4.000000,4.000000,4.000000,4.000000,4.000000,,,,,,,,,,,,,,,,,,,,,,,,,
1577736984.776488,54.000000,0.000000,4185.128418,4421.538574,4169.743652,4038.974365,4231.794922,0.000000,4.000000,,,,0.000000,4.000000,4.000000,4.000000,4.000000,4.000000,,,,,,,,,,,,,,,,,,,,,,,,,
1577736984.784397,55.000000,0.000000,4208.717773,4411.794922,4167.179688,4054.871826,4257.948730,0.000000,4.000000,,,,0.000000,4.000000,4.000000,4.000000,4.000000,4.000000,,,,,,,,,,,,,,,,,,,,,,,,,
1577736984.792206,56.000000,0.000000,4216.922852,4395.897461,4167.179688,4056.410156,4255.897461,0.000000,4.000000,,,,0.000000,4.000000,4.000000,4.000000,4.000000,4.000000,,,,,,,,,,,,,,,,,,,,,,,,,
1577736984.800115,57.000000,0.000000,4221.538574,4396.922852,4160.000000,4048.205078,4249.230957,0.000000,4.000000,,,,0.000000,4.000000,4.000000,4.000000,4.000000,4.000000,,,,,,,,,,,,,,,,,,,,,,,,,
