title:clenching_1, start timestamp:2019-12-30T19:11:24.043774+03:00, stop timestamp:2019-12-30T19:11:56.821824+03:00, headset type:INSIGHT, headset serial:A2D200FB, headset firmware:930, subject name:Qasim, channels:44, sampling rate:eeg_128;pow_8, samples:4205      , version:2.0
Timestamp,EEG.Counter,EEG.Interpolated,EEG.AF3,EEG.T7,EEG.Pz,EEG.T8,EEG.AF4,EEG.RawCq,EEG.Battery,MarkerIndex,MarkerType,MarkerValueInt,EEG.MarkerHardware,CQ.AF3,CQ.T7,CQ.Pz,CQ.T8,CQ.AF4,POW.AF3.Theta,POW.AF3.Alpha,POW.AF3.BetaL,POW.AF3.BetaH,POW.AF3.Gamma,POW.T7.Theta,POW.T7.Alpha,POW.T7.BetaL,POW.T7.BetaH,POW.T7.Gamma,POW.Pz.Theta,POW.Pz.Alpha,POW.Pz.BetaL,POW.Pz.BetaH,POW.Pz.Gamma,POW.T8.Theta,POW.T8.Alpha,POW.T8.BetaL,POW.T8.BetaH,POW.T8.Gamma,POW.AF4.Theta,POW.AF4.Alpha,POW.AF4.BetaL,POW.AF4.BetaH,POW.AF4.Gamma
1577722284.043774,48.000000,0.000000,4230.256348,4262.051270,4142.563965,4132.820313,4200.000000,0.000000,4.000000,,,,0.000000,4.000000,4.000000,4.000000,4.000000,4.000000,,,,,,,,,,,,,,,,,,,,,,,,,
1577722284.051669,49.000000,0.000000,4224.615234,4255.897461,4141.538574,4122.051270,4189.743652,0.000000,4.000000,,,,0.000000,4.000000,4.000000,4.000000,4.000000,4.000000,,,,,,,,,,,,,,,,,,,,,,,,,
1577722284.059565,50.000000,0.000000,4246.153809,4275.384766,4153.333496,4138.461426,4206.666504,0.000000,4.000000,,,,0.000000,4.000000,4.000000,4.000000,4.000000,4.000000,,,,,,,,,,,,,,,,,,,,,,,,,
1577722284.067361,51.000000,0.000000,4252.307617,4269.230957,4169.230957,4161.538574,4215.384766,0.000000,4.000000,,,,0.000000,4.000000,4.000000,4.000000,4.000000,4.000000,2.314870,0.813360,1.029661,3.772868,0.513005,0.332151,0.529808,0.591598,3.424016,0.620588,2.771161,1.091843,0.650438,3.099519,0.564560,1.542776,0.940658,1.131247,3.150731,0.809118,2.191974,1.248682,1.192606,3.607910,0.480326
1577722284.075157,52.000000,0.000000,4237.436035,4248.717773,4150.769043,4165.128418,4211.794922,0.000000,4.000000,,,,0.000000,4.000000,4.000000,4.000000,4.000000,4.000000,,,,,,,,,,,,,,,,,,,,,,,,,
1577722284.083052,53.000000,0.000000,4220.512695,4248.205078,4129.230957,4140.000000,4195.384766,0.000000,4.000000,,,,0.000000,4.000000,4.000000,4.000000,4.000000,4.000000,,,,,,,,,,,,,,,,,,,,,,,,,
1577722284.090948,54.000000,0.000000,4228.205078,4252.820313,4141.025879,4133.333496,4193.846191,0.000000,4.000000,,,,0.000000,4.000000,4.000000,4.000000,4.000000,4.000000,,,,,,,,,,,,,,,,,,,,,,,,,
1577722284.098744,55.000000,0.000000,4253.846191,4244.102539,4145.128418,4149.230957,4215.897461,0.000000,4.000000,,,,0.000000,4.000000,4.000000,4.000000,4.000000,4.000000,,,,,,,,,,,,,,,,,,,,,,,,,
1577722284.106640,56.000000,0.000000,4257.436035,4237.948730,4153.846191,4151.794922,4222.051270,0.000000,4.000000,,,,0.000000,4.000000,4.000000,4.000000,4.000000,4.000000,,,,,,,,,,,,,,,,,,,,,,,,,
1577722284.114435,57.000000,0.000000,4260.512695,4262.563965,4169.743652,4162.051270,4228.717773,0.000000,4.000000,,,,0.000000,4.000000,4.000000,4.000000,4.000000,4.000000,,,,,,,,,,,,,,,,,,,,,,,,,
1577722284.122331,58.000000,0.000000,4252.820313,4275.897461,4161.025879,4167.179688,4219.487305,0.000000,4.000000,,,,0.000000,4.000000,4.000000,4.000000,4.000000,4.000000,,,,,,,,,,,,,,,,,,,,,,,,,
1577722284.130227,59.000000,0.000000,4229.230957,4243.077148,4138.974121,4151.282227,4191.794922,0.000000,4.000000,,,,0.000000,4.000000,4.000000,4.000000,4.000000,4.000000,,,,,,,,,,,,,,,,,,,,,,,,,
1577722284.138023,60.000000,0.000000,4224.102539,4225.128418,4128.205078,4140.000000,4185.641113,0.000000,4.000000,,,,0.000000,4.000000,4.000000,4.000000,4.000000,4.000000,,,,,,,,,,,,,,,,,,,,,,,,,
1577722284.145919,61.000000,0.000000,4228.717773,4246.153809,4143.589844,4145.641113,4197.948730,0.000000,4.000000,,,,0.000000,4.000000,4.000000,4.000000,4.000000,4.000000,,,,,,,,,,,,,,,,,,,,,,,,,
1577722284.153715,62.000000,0.000000,4240.000000,4263.077148,4148.717773,4154.871582,4213.846191,0.000000,4.000000,,,,0.000000,4.000000,4.000000,4.000000,4.000000,4.000000,,,,,,,,,,,,,,,,,,,,,,,,,
1577722284.161611,63.000000,0.000000,4245.128418,4263.077148,4142.051270,4149.743652,4211.794922,0.000000,4.000000,,,,0.000000,4.000000,4.000000,4.000000,4.000000,4.000000,,,,,,,,,,,,,,,,,,,,,,,,,
1577722284.169407,64.000000,0.000000,4225.641113,4255.897461,4135.384766,4139.487305,4199.487305,450.000000,4.000000,,,,0.000000,4.000000,4.000000,4.000000,4.000000,4.000000,,,,,,,,,,,,,,,,,,,,,,,,,
1577722284.177303,65.000000,0.000000,4206.666504,4242.051270,4114.358887,4124.102539,4189.743652,450.000000,4.000000,,,,0.000000,4.000000,4.000000,4.000000,4.000000,4.000000,,,,,,,,,,,,,,,,,,,,,,,,,
1577722284.185099,66.000000,0.000000,4212.307617,4236.410156,4125.641113,4118.974121,4185.128418,16199.000000,4.000000,,,,0.000000,4.000000,4.000000,4.000000,4.000000,4.000000,,,,,,,,,,,,,,,,,,,,,,,,,
1577722284.192995,67.000000,0.000000,4232.820313,4245.128418,4147.692383,4136.922852,4192.820313,450.000000,4.000000,,,,0.000000,4.000000,4.000000,4.000000,4.000000,4.000000,4.408718,0.990182,1.238830,3.971644,0.564490,0.374583,0.556094,0.550513,3.543113,0.620833,2.926069,0.935835,0.665062,3.235362,1.212062,1.461120,0.960011,0.981436,3.527108,0.797486,3.063512,1.433333,1.134741,3.790534,0.511435
1577722284.200791,68.000000,0.000000,4244.102539,4257.436035,4154.358887,4148.205078,4204.102539,16242.000000,4.000000,,,,0.000000,4.000000,4.000000,4.000000,4.000000,4.000000,,,,,,,,,,,,,,,,,,,,,,,,,
1577722284.208687,69.000000,0.000000,4232.820313,4261.538574,4152.820313,4136.410156,4205.128418,450.000000,4.000000,,,,0.000000,4.000000,4.000000,4.000000,4.000000,4.000000,,,,,,,,,,,,,,,,,,,,,,,,,
1577722284.216483,70.000000,0.000000,4211.794922,4251.282227,4127.692383,4114.871582,4191.282227,16135.000000,4.000000,,,,0.000000,4.000000,4.000000,4.000000,4.000000,4.000000,,,,,,,,,,,,,,,,,,,,,,,,,
1577722284.224378,71.000000,0.000000,4209.743652,4237.948730,4125.641113,4114.358887,4182.051270,450.000000,4.000000,,,,0.000000,4.000000,4.000000,4.000000,4.000000,4.000000,,,,,,,,,,,,,,,,,,,,,,,,,
1577722284.232174,72.000000,0.000000,4225.641113,4238.974121,4140.000000,4132.820313,4191.282227,450.000000,4.000000,,,,0.000000,4.000000,4.000000,4.000000,4.000000,4.000000,,,,,,,,,,,,,,,,,,,,,,,,,
1577722284.240070,73.000000,0.000000,4251.794922,4263.077148,4157.436035,4152.307617,4215.384766,16174.000000,4.000000,,,,0.000000,4.000000,4.000000,4.000000,4.000000,4.000000,,,,,,,,,,,,,,,,,,,,,,,,,
1577722284.247966,74.000000,0.000000,4266.666504,4281.025879,4175.897461,4154.358887,4231.282227,450.000000,4.000000,,,,0.000000,4.000000,4.000000,4.000000,4.000000,4.000000,,,,,,,,,,,,,,,,,,,,,,,,,
1577722284.255762,75.000000,0.000000,4248.717773,4270.769043,4157.436035,4133.846191,4221.025879,16205.000000,4.000000,,,,0.000000,4.000000,4.000000,4.000000,4.000000,4.000000,,,,,,,,,,,,,,,,,,,,,,,,,
1577722284.263558,76.000000,0.000000,4231.794922,4257.948730,4145.128418,4128.717773,4209.230957,450.000000,4.000000,,,,0.000000,4.000000,4.000000,4.000000,4.000000,4.000000,,,,,,,,,,,,,,,,,,,,,,,,,
1577722284.271454,77.000000,0.000000,4231.794922,4256.922852,4146.153809,4141.538574,4213.333496,450.000000,4.000000,,,,0.000000,4.000000,4.000000,4.000000,4.000000,4.000000,,,,,,,,,,,,,,,,,,,,,,,,,
1577722284.279249,78.000000,0.000000,4246.153809,4268.717773,4150.256348,4156.922852,4230.769043,450.000000,4.000000,,,,0.000000,4.000000,4.000000,4.000000,4.000000,4.000000,,,,,,,,,,,,,,,,,,,,,,,,,
1577722284.287145,79.000000,0.000000,4272.307617,4281.025879,4169.230957,4176.922852,4250.256348,16205.000000,4.000000,,,,0.000000,4.000000,4.000000,4.000000,4.000000,4.000000,,,,,,,,,,,,,,,,,,,,,,,,,
1577722284.294941,80.000000,0.000000,4272.307617,4276.410156,4160.512695,4188.205078,4251.794922,450.000000,4.000000,,,,0.000000,4.000000,4.000000,4.000000,4.000000,4.000000,,,,,,,,,,,,,,,,,,,,,,,,,
1577722284.302837,81.000000,0.000000,4249.230957,4261.538574,4143.077148,4169.743652,4234.871582,450.000000,4.000000,,,,0.000000,4.000000,4.000000,4.000000,4.000000,4.000000,,,,,,,,,,,,,,,,,,,,,,,,,
1577722284.310633,82.000000,0.000000,4241.538574,4254.358887,4135.897461,4139.487305,4224.615234,450.000000,4.000000,,,,0.000000,4.000000,4.000000,4.000000,4.000000,4.000000,,,,,,,,,,,,,,,,,,,,,,,,,
1577722284.318528,83.000000,0.000000,4252.307617,4266.666504,4136.922852,4147.692383,4233.846191,16205.000000,4.000000,,,,0.000000,4.000000,4.000000,4.000000,4.000000,4.000000,7.948351,1.327098,1.392411,4.138658,0.671732,0.458471,0.630539,0.518308,3.564805,0.680245,3.140780,0.776279,0.842289,3.366398,2.651066,1.498817,0.949520,0.938062,4.120056,0.849341,4.744566,1.741293,1.076507,3.920008,0.613515
1577722284.326424,84.000000,0.000000,4264.615234,4284.615234,4161.025879,4171.794922,4243.077148,450.000000,4.000000,,,,0.000000,4.000000,4.000000,4.000000,4.000000,4.000000,,,,,,,,,,,,,,,,,,,,,,,,,
1577722284.334220,85.000000,0.000000,4259.487305,4274.871582,4160.000000,4162.563965,4234.358887,450.000000,4.000000,,,,0.000000,4.000000,4.000000,4.000000,4.000000,4.000000,,,,,,,,,,,,,,,,,,,,,,,,,
1577722284.342116,86.000000,0.000000,4241.025879,4255.384766,4137.436035,4141.025879,4216.410156,450.000000,4.000000,,,,0.000000,4.000000,4.000000,4.000000,4.000000,4.000000,,,,,,,,,,,,,,,,,,,,,,,,,
1577722284.349912,87.000000,0.000000,4240.000000,4252.307617,4135.384766,4136.410156,4209.230957,16205.000000,4.000000,,,,0.000000,4.000000,4.000000,4.000000,4.000000,4.000000,,,,,,,,,,,,,,,,,,,,,,,,,
1577722284.357808,88.000000,0.000000,4258.461426,4262.563965,4147.179688,4147.179688,4223.077148,450.000000,4.000000,,,,0.000000,4.000000,4.000000,4.000000,4.000000,4.000000,,,,,,,,,,,,,,,,,,,,,,,,,
1577722284.365604,89.000000,0.000000,4272.820313,4280.512695,4167.179688,4162.051270,4236.410156,450.000000,4.000000,,,,0.000000,4.000000,4.000000,4.000000,4.000000,4.000000,,,,,,,,,,,,,,,,,,,,,,,,,
1577722284.373400,90.000000,0.000000,4266.666504,4281.025879,4168.205078,4161.025879,4231.794922,450.000000,4.000000,,,,0.000000,4.000000,4.000000,4.000000,4.000000,4.000000,,,,,,,,,,,,,,,,,,,,,,,,,
1577722284.381296,91.000000,0.000000,4246.666504,4256.410156,4155.384766,4144.615234,4216.410156,16205.000000,4.000000,,,,0.000000,4.000000,4.000000,4.000000,4.000000,4.000000,,,,,,,,,,,,,,,,,,,,,,,,,
1577722284.389192,92.000000,0.000000,4242.051270,4250.256348,4146.666504,4136.922852,4207.179688,450.000000,4.000000,,,,0.000000,4.000000,4.000000,4.000000,4.000000,4.000000,,,,,,,,,,,,,,,,,,,,,,,,,
1577722284.396987,93.000000,0.000000,4261.025879,4273.846191,4146.153809,4147.179688,4227.179688,450.000000,4.000000,,,,0.000000,4.000000,4.000000,4.000000,4.000000,4.000000,,,,,,,,,,,,,,,,,,,,,,,,,
1577722284.404883,94.000000,0.000000,4286.153809,4299.487305,4178.461426,4167.692383,4257.436035,450.000000,4.000000,,,,0.000000,4.000000,4.000000,4.000000,4.000000,4.000000,,,,,,,,,,,,,,,,,,,,,,,,,
1577722284.412679,95.000000,0.000000,4291.282227,4296.922852,4188.717773,4160.000000,4264.102539,16205.000000,4.000000,,,,0.000000,4.000000,4.000000,4.000000,4.000000,4.000000,,,,,,,,,,,,,,,,,,,,,,,,,
1577722284.420575,96.000000,0.000000,4269.743652,4269.230957,4160.512695,4131.794922,4249.230957,450.000000,4.000000,,,,0.000000,4.000000,4.000000,4.000000,4.000000,4.000000,,,,,,,,,,,,,,,,,,,,,,,,,
1577722284.428371,97.000000,0.000000,4252.307617,4253.333496,4145.128418,4128.205078,4232.307617,450.000000,4.000000,,,,0.000000,4.000000,4.000000,4.000000,4.000000,4.000000,,,,,,,,,,,,,,,,,,,,,,,,,
1577722284.436266,98.000000,0.000000,4258.974121,4262.563965,4147.692383,4149.743652,4230.769043,450.000000,4.000000,,,,0.000000,4.000000,4.000000,4.000000,4.000000,4.000000,,,,,,,,,,,,,,,,,,,,,,,,,
1577722284.444062,99.000000,0.000000,4281.025879,4283.077148,4171.282227,4168.205078,4245.128418,16205.000000,4.000000,,,,0.000000,4.000000,4.000000,4.000000,4.000000,4.000000,12.275103,1.689143,1.450163,4.226811,0.842630,0.555995,0.756030,0.501228,3.503334,0.816741,3.538291,0.629685,1.203722,3.451580,4.900904,1.661250,0.888104,0.992242,4.787323,0.981866,7.004863,2.035128,0.998545,3.949330,0.801463
1577722284.451958,100.000000,0.000000,4287.692383,4292.307617,4179.487305,4167.179688,4248.205078,450.000000,4.000000,,,,0.000000,4.000000,4.000000,4.000000,4.000000,4.000000,,,,,,,,,,,,,,,,,,,,,,,,,
1577722284.459754,101.000000,0.000000,4263.077148,4274.871582,4159.487305,4154.871582,4230.769043,450.000000,4.000000,,,,0.000000,4.000000,4.000000,4.000000,4.000000,4.000000,,,,,,,,,,,,,,,,,,,,,,,,,
1577722284.467649,102.000000,0.000000,4238.461426,4256.410156,4148.205078,4133.846191,4208.717773,450.000000,4.000000,,,,0.000000,4.000000,4.000000,4.000000,4.000000,4.000000,,,,,,,,,,,,,,,,,,,,,,,,,
1577722284.475445,103.000000,0.000000,4247.179688,4262.051270,4147.692383,4133.333496,4214.358887,16205.000000,4.000000,,,,0.000000,4.000000,4.000000,4.000000,4.000000,4.000000,,,,,,,,,,,,,,,,,,,,,,,,,
1577722284.483341,104.000000,0.000000,4274.871582,4283.589844,4177.948730,4176.410156,4248.717773,450.000000,4.000000,,,,0.000000,4.000000,4.000000,4.000000,4.000000,4.000000,,,,,,,,,,,,,,,,,,,,,,,,,
1577722284.491237,105.000000,0.000000,4278.974121,4286.666504,4189.743652,4187.179688,4251.282227,450.000000,4.000000,,,,0.000000,4.000000,4.000000,4.000000,4.000000,4.000000,,,,,,,,,,,,,,,,,,,,,,,,,
1577722284.499033,106.000000,0.000000,4255.384766,4264.102539,4153.333496,4147.179688,4223.589844,450.000000,4.000000,,,,0.000000,4.000000,4.000000,4.000000,4.000000,4.000000,,,,,,,,,,,,,,,,,,,,,,,,,
1577722284.506929,107.000000,0.000000,4237.948730,4250.256348,4141.538574,4139.487305,4210.256348,16205.000000,4.000000,,,,0.000000,4.000000,4.000000,4.000000,4.000000,4.000000,,,,,,,,,,,,,,,,,,,,,,,,,
1577722284.514725,108.000000,0.000000,4240.000000,4257.436035,4142.563965,4151.282227,4212.307617,450.000000,4.000000,,,,0.000000,4.000000,4.000000,4.000000,4.000000,4.000000,,,,,,,,,,,,,,,,,,,,,,,,,
1577722284.522621,109.000000,0.000000,4251.282227,4273.846191,4147.692383,4142.051270,4221.538574,450.000000,4.000000,,,,0.000000,4.000000,4.000000,4.000000,4.000000,4.000000,,,,,,,,,,,,,,,,,,,,,,,,,
1577722284.530417,110.000000,0.000000,4261.538574,4290.256348,4167.179688,4148.205078,4226.153809,450.000000,4.000000,,,,0.000000,4.000000,4.000000,4.000000,4.000000,4.000000,,,,,,,,,,,,,,,,,,,,,,,,,
1577722284.538313,111.000000,0.000000,4260.512695,4289.743652,4165.128418,4157.948730,4229.743652,16205.000000,4.000000,,,,0.000000,4.000000,4.000000,4.000000,4.000000,4.000000,,,,,,,,,,,,,,,,,,,,,,,,,
1577722284.546109,112.000000,0.000000,4247.692383,4275.384766,4151.282227,4140.512695,4225.641113,450.000000,4.000000,,,,0.000000,4.000000,4.000000,4.000000,4.000000,4.000000,,,,,,,,,,,,,,,,,,,,,,,,,
1577722284.554005,113.000000,0.000000,4231.794922,4266.153809,4134.871582,4122.051270,4205.128418,450.000000,4.000000,,,,0.000000,4.000000,4.000000,4.000000,4.000000,4.000000,,,,,,,,,,,,,,,,,,,,,,,,,
1577722284.561801,114.000000,0.000000,4236.922852,4270.769043,4143.077148,4137.436035,4206.666504,450.000000,4.000000,,,,0.000000,4.000000,4.000000,4.000000,4.000000,4.000000,,,,,,,,,,,,,,,,,,,,,,,,,
1577722284.569697,115.000000,0.000000,4254.871582,4282.563965,4171.282227,4161.025879,4224.615234,16205.000000,4.000000,,,,0.000000,4.000000,4.000000,4.000000,4.000000,4.000000,16.239004,1.948165,1.420244,4.253630,1.049808,0.632211,0.911274,0.482050,3.414473,1.015765,4.168794,0.506208,1.678180,3.487777,7.536376,1.991627,0.788601,1.079198,5.360262,1.172122,9.317312,2.185737,0.908894,3.890411,1.042941
1577722284.577493,116.000000,0.000000,4244.102539,4275.384766,4160.512695,4148.717773,4218.974121,450.000000,4.000000,,,,0.000000,4.000000,4.000000,4.000000,4.000000,4.000000,,,,,,,,,,,,,,,,,,,,,,,,,
1577722284.585388,117.000000,0.000000,4226.153809,4254.871582,4147.179688,4130.769043,4203.077148,450.000000,4.000000,,,,0.000000,4.000000,4.000000,4.000000,4.000000,4.000000,,,,,,,,,,,,,,,,,,,,,,,,,
1577722284.593184,118.000000,0.000000,4228.717773,4250.256348,4149.230957,4134.871582,4199.487305,450.000000,4.000000,,,,0.000000,4.000000,4.000000,4.000000,4.000000,4.000000,,,,,,,,,,,,,,,,,,,,,,,,,
1577722284.601080,119.000000,0.000000,4241.025879,4255.897461,4149.230957,4151.282227,4209.230957,16205.000000,4.000000,,,,0.000000,4.000000,4.000000,4.000000,4.000000,4.000000,,,,,,,,,,,,,,,,,,,,,,,,,
1577722284.608876,120.000000,0.000000,4246.666504,4262.051270,4161.025879,4164.615234,4210.256348,450.000000,4.000000,,,,0.000000,4.000000,4.000000,4.000000,4.000000,4.000000,,,,,,,,,,,,,,,,,,,,,,,,,
1577722284.616772,121.000000,0.000000,4227.692383,4262.051270,4154.358887,4159.487305,4195.897461,450.000000,4.000000,,,,0.000000,4.000000,4.000000,4.000000,4.000000,4.000000,,,,,,,,,,,,,,,,,,,,,,,,,
1577722284.624567,122.000000,0.000000,4198.461426,4253.846191,4135.897461,4130.256348,4181.025879,450.000000,4.000000,,,,0.000000,4.000000,4.000000,4.000000,4.000000,4.000000,,,,,,,,,,,,,,,,,,,,,,,,,
1577722284.632463,123.000000,0.000000,4183.589844,4239.487305,4123.077148,4105.128418,4164.615234,16205.000000,4.000000,,,,0.000000,4.000000,4.000000,4.000000,4.000000,4.000000,,,,,,,,,,,,,,,,,,,,,,,,,
1577722284.640259,124.000000,0.000000,4196.922852,4244.102539,4127.179688,4123.077148,4170.256348,450.000000,4.000000,,,,0.000000,4.000000,4.000000,4.000000,4.000000,4.000000,,,,,,,,,,,,,,,,,,,,,,,,,
1577722284.648155,125.000000,0.000000,4223.077148,4268.717773,4156.922852,4158.461426,4197.948730,450.000000,4.000000,,,,0.000000,4.000000,4.000000,4.000000,4.000000,4.000000,,,,,,,,,,,,,,,,,,,,,,,,,
1577722284.656050,126.000000,0.000000,4224.102539,4256.410156,4155.897461,4152.307617,4197.948730,450.000000,4.000000,,,,0.000000,4.000000,4.000000,4.000000,4.000000,4.000000,,,,,,,,,,,,,,,,,,,,,,,,,
1577722284.663847,127.000000,0.000000,4206.666504,4225.128418,4134.871582,4126.666504,4174.871582,239.000000,4.000000,,,,0.000000,4.000000,4.000000,4.000000,4.000000,4.000000,,,,,,,,,,,,,,,,,,,,,,,,,
1577722284.671742,0.000000,0.000000,4196.410156,4233.333496,4132.820313,4126.666504,4169.230957,450.000000,4.000000,,,,0.000000,4.000000,4.000000,4.000000,4.000000,4.000000,,,,,,,,,,,,,,,,,,,,,,,,,
1577722284.679539,1.000000,0.000000,4206.153809,4261.025879,4138.974121,4136.922852,4186.666504,450.000000,4.000000,,,,0.000000,4.000000,4.000000,4.000000,4.000000,4.000000,,,,,,,,,,,,,,,,,,,,,,,,,
1577722284.687434,2.000000,0.000000,4228.717773,4275.897461,4160.000000,4150.769043,4207.179688,16202.000000,4.000000,,,,0.000000,4.000000,4.000000,4.000000,4.000000,4.000000,,,,,,,,,,,,,,,,,,,,,,,,,
1577722284.695231,3.000000,0.000000,4226.666504,4262.563965,4151.794922,4158.974121,4204.102539,450.000000,4.000000,,,,0.000000,4.000000,4.000000,4.000000,4.000000,4.000000,18.718695,2.008202,1.331586,4.284398,1.240940,0.701408,1.051010,0.443813,3.371007,1.231387,4.914374,0.411135,2.127421,3.517945,9.809103,2.491281,0.683468,1.119302,5.704021,1.366283,11.082022,2.124653,0.822672,3.800173,1.269669
1577722284.703027,4.000000,0.000000,4201.025879,4241.025879,4128.205078,4140.512695,4182.563965,16239.000000,4.000000,,,,0.000000,4.000000,4.000000,4.000000,4.000000,4.000000,,,,,,,,,,,,,,,,,,,,,,,,,
1577722284.710922,5.000000,0.000000,4186.153809,4240.512695,4132.820313,4122.051270,4168.717773,450.000000,4.000000,,,,0.000000,4.000000,4.000000,4.000000,4.000000,4.000000,,,,,,,,,,,,,,,,,,,,,,,,,
1577722284.718718,6.000000,0.000000,4188.205078,4249.230957,4135.384766,4117.948730,4172.820313,16142.000000,4.000000,,,,0.000000,4.000000,4.000000,4.000000,4.000000,4.000000,,,,,,,,,,,,,,,,,,,,,,,,,
1577722284.726614,7.000000,0.000000,4207.692383,4262.051270,4148.205078,4125.641113,4190.769043,450.000000,4.000000,,,,0.000000,4.000000,4.000000,4.000000,4.000000,4.000000,,,,,,,,,,,,,,,,,,,,,,,,,
1577722284.734510,8.000000,0.000000,4216.922852,4268.205078,4144.615234,4134.871582,4201.025879,450.000000,4.000000,,,,0.000000,4.000000,4.000000,4.000000,4.000000,4.000000,,,,,,,,,,,,,,,,,,,,,,,,,
1577722284.742306,9.000000,0.000000,4201.025879,4259.487305,4124.615234,4134.358887,4188.717773,16187.000000,4.000000,,,,0.000000,4.000000,4.000000,4.000000,4.000000,4.000000,,,,,,,,,,,,,,,,,,,,,,,,,
1577722284.750202,10.000000,0.000000,4191.282227,4246.153809,4128.205078,4130.769043,4175.897461,450.000000,4.000000,,,,0.000000,4.000000,4.000000,4.000000,4.000000,4.000000,,,,,,,,,,,,,,,,,,,,,,,,,
1577722284.757998,11.000000,0.000000,4205.128418,4241.538574,4128.205078,4131.794922,4186.666504,16197.000000,4.000000,,,,0.000000,4.000000,4.000000,4.000000,4.000000,4.000000,,,,,,,,,,,,,,,,,,,,,,,,,
1577722284.765894,12.000000,0.000000,4231.794922,4260.000000,4143.589844,4152.307617,4211.282227,450.000000,4.000000,,,,0.000000,4.000000,4.000000,4.000000,4.000000,4.000000,,,,,,,,,,,,,,,,,,,,,,,,,
1577722284.773690,13.000000,0.000000,4237.436035,4270.769043,4154.358887,4161.538574,4217.436035,450.000000,4.000000,,,,0.000000,4.000000,4.000000,4.000000,4.000000,4.000000,,,,,,,,,,,,,,,,,,,,,,,,,
1577722284.781586,14.000000,0.000000,4214.871582,4256.922852,4140.000000,4137.948730,4203.589844,450.000000,4.000000,,,,0.000000,4.000000,4.000000,4.000000,4.000000,4.000000,,,,,,,,,,,,,,,,,,,,,,,,,
1577722284.789382,15.000000,0.000000,4203.589844,4247.692383,4131.282227,4120.000000,4191.282227,16197.000000,4.000000,,,,0.000000,4.000000,4.000000,4.000000,4.000000,4.000000,,,,,,,,,,,,,,,,,,,,,,,,,
1577722284.797277,16.000000,0.000000,4215.897461,4254.871582,4119.487305,4126.666504,4194.871582,0.000000,4.000000,,,,0.000000,4.000000,4.000000,4.000000,4.000000,4.000000,,,,,,,,,,,,,,,,,,,,,,,,,
1577722284.805173,17.000000,0.000000,4234.358887,4270.769043,4133.333496,4150.769043,4209.230957,0.000000,4.000000,,,,0.000000,4.000000,4.000000,4.000000,4.000000,4.000000,,,,,,,,,,,,,,,,,,,,,,,,,
1577722284.812969,18.000000,0.000000,4237.436035,4272.307617,4154.358887,4156.410156,4216.922852,0.000000,4.000000,,,,0.000000,4.000000,4.000000,4.000000,4.000000,4.000000,,,,,,,,,,,,,,,,,,,,,,,,,
1577722284.820766,19.000000,0.000000,4223.077148,4251.282227,4141.025879,4133.333496,4203.589844,0.000000,4.000000,,,,0.000000,4.000000,4.000000,4.000000,4.000000,4.000000,18.835835,1.834922,1.216194,4.388807,1.365247,0.749921,1.126434,0.395940,3.423158,1.407636,5.493184,0.352695,2.397178,3.599892,10.974886,3.057287,0.604393,1.065548,5.785819,1.510016,11.774746,1.873153,0.755548,3.747106,1.411909
1577722284.828661,20.000000,0.000000,4208.717773,4241.025879,4129.230957,4110.256348,4181.538574,0.000000,4.000000,,,,0.000000,4.000000,4.000000,4.000000,4.000000,4.000000,,,,,,,,,,,,,,,,,,,,,,,,,
1577722284.836457,21.000000,0.000000,4210.769043,4258.974121,4129.743652,4108.205078,4184.615234,0.000000,4.000000,,,,0.000000,4.000000,4.000000,4.000000,4.000000,4.000000,,,,,,,,,,,,,,,,,,,,,,,,,
1577722284.844353,22.000000,0.000000,4223.589844,4269.743652,4140.512695,4129.743652,4201.538574,0.000000,4.000000,,,,0.000000,4.000000,4.000000,4.000000,4.000000,4.000000,,,,,,,,,,,,,,,,,,,,,,,,,
1577722284.852149,23.000000,0.000000,4237.948730,4267.692383,4144.615234,4155.384766,4211.282227,0.000000,4.000000,,,,0.000000,4.000000,4.000000,4.000000,4.000000,4.000000,,,,,,,,,,,,,,,,,,,,,,,,,
1577722284.860044,24.000000,0.000000,4240.512695,4276.410156,4135.897461,4159.487305,4215.384766,0.000000,4.000000,,,,0.000000,4.000000,4.000000,4.000000,4.000000,4.000000,,,,,,,,,,,,,,,,,,,,,,,,,
1577722284.867840,25.000000,0.000000,4213.333496,4274.871582,4138.461426,4130.769043,4192.820313,0.000000,4.000000,,,,0.000000,4.000000,4.000000,4.000000,4.000000,4.000000,,,,,,,,,,,,,,,,,,,,,,,,,
1577722284.875736,26.000000,0.000000,4196.922852,4262.051270,4129.230957,4116.410156,4177.948730,0.000000,4.000000,,,,0.000000,4.000000,4.000000,4.000000,4.000000,4.000000,,,,,,,,,,,,,,,,,,,,,,,,,
1577722284.883532,27.000000,0.000000,4212.307617,4256.410156,4124.615234,4137.436035,4200.000000,0.000000,4.000000,,,,0.000000,4.000000,4.000000,4.000000,4.000000,4.000000,,,,,,,,,,,,,,,,,,,,,,,,,
1577722284.891427,28.000000,0.000000,4217.436035,4261.538574,4146.666504,4147.179688,4213.846191,0.000000,4.000000,,,,0.000000,4.000000,4.000000,4.000000,4.000000,4.000000,,,,,,,,,,,,,,,,,,,,,,,,,
1577722284.899223,29.000000,0.000000,4214.871582,4270.769043,4152.820313,4153.846191,4217.948730,0.000000,4.000000,,,,0.000000,4.000000,4.000000,4.000000,4.000000,4.000000,,,,,,,,,,,,,,,,,,,,,,,,,
1577722284.907119,30.000000,0.000000,4217.436035,4270.256348,4149.230957,4168.205078,4224.615234,0.000000,4.000000,,,,0.000000,4.000000,4.000000,4.000000,4.000000,4.000000,,,,,,,,,,,,,,,,,,,,,,,,,
1577722284.914915,31.000000,0.000000,4212.307617,4256.410156,4140.000000,4162.563965,4217.436035,0.000000,4.000000,,,,0.000000,4.000000,4.000000,4.000000,4.000000,4.000000,,,,,,,,,,,,,,,,,,,,,,,,,
1577722284.922810,32.000000,0.000000,4201.025879,4244.102539,4127.692383,4155.384766,4211.794922,0.000000,4.000000,,,,0.000000,4.000000,4.000000,4.000000,4.000000,4.000000,,,,,,,,,,,,,,,,,,,,,,,,,
1577722284.930606,33.000000,0.000000,4200.512695,4250.256348,4138.974121,4163.077148,4215.897461,0.000000,4.000000,,,,0.000000,4.000000,4.000000,4.000000,4.000000,4.000000,,,,,,,,,,,,,,,,,,,,,,,,,
1577722284.938502,34.000000,0.000000,4211.282227,4259.487305,4152.307617,4165.128418,4220.512695,0.000000,4.000000,,,,0.000000,4.000000,4.000000,4.000000,4.000000,4.000000,,,,,,,,,,,,,,,,,,,,,,,,,
1577722284.946398,35.000000,0.000000,4217.948730,4264.102539,4160.000000,4176.410156,4229.743652,0.000000,4.000000,,,,0.000000,4.000000,4.000000,4.000000,4.000000,4.000000,16.544655,1.473486,1.102171,4.603982,1.403671,0.815408,1.103734,0.358174,3.566938,1.508502,5.606859,0.331893,2.388336,3.759650,10.644433,3.543591,0.575935,0.926271,5.677208,1.576933,11.216134,1.531196,0.715908,3.775284,1.438355
1577722284.954194,36.000000,0.000000,4206.153809,4261.025879,4146.666504,4180.000000,4220.512695,0.000000,4.000000,,,,0.000000,4.000000,4.000000,4.000000,4.000000,4.000000,,,,,,,,,,,,,,,,,,,,,,,,,
1577722284.962090,37.000000,0.000000,4184.102539,4241.538574,4117.436035,4158.974121,4194.871582,0.000000,4.000000,,,,0.000000,4.000000,4.000000,4.000000,4.000000,4.000000,,,,,,,,,,,,,,,,,,,,,,,,,
1577722284.969886,38.000000,0.000000,4184.615234,4237.436035,4127.179688,4154.871582,4192.307617,0.000000,4.000000,,,,0.000000,4.000000,4.000000,4.000000,4.000000,4.000000,,,,,,,,,,,,,,,,,,,,,,,,,
1577722284.977782,39.000000,0.000000,4202.051270,4256.410156,4136.922852,4162.563965,4209.743652,0.000000,4.000000,,,,0.000000,4.000000,4.000000,4.000000,4.000000,4.000000,,,,,,,,,,,,,,,,,,,,,,,,,
1577722284.985578,40.000000,0.000000,4207.692383,4265.641113,4133.333496,4165.128418,4217.948730,0.000000,4.000000,,,,0.000000,4.000000,4.000000,4.000000,4.000000,4.000000,,,,,,,,,,,,,,,,,,,,,,,,,
1577722284.993474,41.000000,0.000000,4195.384766,4252.820313,4133.333496,4151.794922,4195.897461,0.000000,4.000000,,,,0.000000,4.000000,4.000000,4.000000,4.000000,4.000000,,,,,,,,,,,,,,,,,,,,,,,,,
1577722285.001269,42.000000,0.000000,4177.436035,4232.820313,4123.589844,4132.820313,4173.333496,0.000000,4.000000,,,,0.000000,4.000000,4.000000,4.000000,4.000000,4.000000,,,,,,,,,,,,,,,,,,,,,,,,,
1577722285.009165,43.000000,0.000000,4178.974121,4234.871582,4132.307617,4145.128418,4181.025879,0.000000,4.000000,,,,0.000000,4.000000,4.000000,4.000000,4.000000,4.000000,,,,,,,,,,,,,,,,,,,,,,,,,
1577722285.016961,44.000000,0.000000,4196.410156,4262.563965,4143.077148,4168.205078,4200.512695,0.000000,4.000000,,,,0.000000,4.000000,4.000000,4.000000,4.000000,4.000000,,,,,,,,,,,,,,,,,,,,,,,,,
1577722285.024857,45.000000,0.000000,4207.692383,4278.974121,4147.179688,4168.717773,4214.358887,0.000000,4.000000,,,,0.000000,4.000000,4.000000,4.000000,4.000000,4.000000,,,,,,,,,,,,,,,,,,,,,,,,,
1577722285.032652,46.000000,0.000000,4196.922852,4255.384766,4143.077148,4153.846191,4198.461426,0.000000,4.000000,,,,0.000000,4.000000,4.000000,4.000000,4.000000,4.000000,,,,,,,,,,,,,,,,,,,,,,,,,
1577722285.040548,47.000000,0.000000,4177.436035,4231.282227,4123.589844,4143.077148,4175.384766,0.000000,4.000000,,,,0.000000,4.000000,4.000000,4.000000,4.000000,4.000000,,,,,,,,,,,,,,,,,,,,,,,,,
1577722285.048444,48.000000,0.000000,4201.025879,4258.461426,4147.692383,4164.102539,4204.102539,0.000000,4.000000,,,,0.000000,4.000000,4.000000,4.000000,4.000000,4.000000,,,,,,,,,,,,,,,,,,,,,,,,,
1577722285.056240,49.000000,0.000000,4226.153809,4283.077148,4166.666504,4184.102539,4227.692383,0.000000,4.000000,,,,0.000000,4.000000,4.000000,4.000000,4.000000,4.000000,,,,,,,,,,,,,,,,,,,,,,,,,
1577722285.064136,50.000000,0.000000,4203.589844,4264.615234,4142.051270,4168.717773,4207.692383,0.000000,4.000000,,,,0.000000,4.000000,4.000000,4.000000,4.000000,4.000000,,,,,,,,,,,,,,,,,,,,,,,,,
1577722285.071932,51.000000,0.000000,4186.153809,4248.205078,4135.897461,4150.256348,4194.358887,0.000000,4.000000,,,,0.000000,4.000000,4.000000,4.000000,4.000000,4.000000,12.624207,1.064285,0.999221,4.914726,1.375306,0.885797,0.982974,0.349704,3.758528,1.527575,5.107800,0.343479,2.098954,3.971650,8.964571,3.798909,0.607039,0.750626,5.510895,1.575794,9.640165,1.240230,0.694062,3.892936,1.367483
1577722285.079828,52.000000,0.000000,4189.230957,4248.205078,4140.512695,4146.666504,4194.358887,0.000000,4.000000,,,,0.000000,4.000000,4.000000,4.000000,4.000000,4.000000,,,,,,,,,,,,,,,,,,,,,,,,,
1577722285.087624,53.000000,0.000000,4206.153809,4264.615234,4155.897461,4165.128418,4205.641113,0.000000,4.000000,,,,0.000000,4.000000,4.000000,4.000000,4.000000,4.000000,,,,,,,,,,,,,,,,,,,,,,,,,
1577722285.095520,54.000000,0.000000,4215.384766,4273.333496,4158.461426,4176.922852,4208.717773,0.000000,4.000000,,,,0.000000,4.000000,4.000000,4.000000,4.000000,4.000000,,,,,,,,,,,,,,,,,,,,,,,,,
1577722285.103316,55.000000,0.000000,4202.051270,4249.230957,4134.358887,4160.000000,4194.358887,0.000000,4.000000,,,,0.000000,4.000000,4.000000,4.000000,4.000000,4.000000,,,,,,,,,,,,,,,,,,,,,,,,,
1577722285.111112,56.000000,0.000000,4194.871582,4240.000000,4134.871582,4147.179688,4186.153809,0.000000,4.000000,,,,0.000000,4.000000,4.000000,4.000000,4.000000,4.000000,,,,,,,,,,,,,,,,,,,,,,,,,
1577722285.119008,57.000000,0.000000,4192.820313,4251.794922,4136.410156,4136.922852,4185.641113,0.000000,4.000000,,,,0.000000,4.000000,4.000000,4.000000,4.000000,4.000000,,,,,,,,,,,,,,,,,,,,,,,,,
1577722285.126904,58.000000,0.000000,4195.897461,4261.025879,4142.051270,4141.538574,4199.487305,0.000000,4.000000,,,,0.000000,4.000000,4.000000,4.000000,4.000000,4.000000,,,,,,,,,,,,,,,,,,,,,,,,,
1577722285.134700,59.000000,0.000000,4205.641113,4264.102539,4155.384766,4167.179688,4209.230957,0.000000,4.000000,,,,0.000000,4.000000,4.000000,4.000000,4.000000,4.000000,,,,,,,,,,,,,,,,,,,,,,,,,
1577722285.142596,60.000000,0.000000,4202.051270,4252.307617,4138.974121,4166.153809,4197.948730,0.000000,4.000000,,,,0.000000,4.000000,4.000000,4.000000,4.000000,4.000000,,,,,,,,,,,,,,,,,,,,,,,,,
1577722285.150392,61.000000,0.000000,4190.769043,4240.000000,4129.743652,4143.077148,4186.666504,0.000000,4.000000,,,,0.000000,4.000000,4.000000,4.000000,4.000000,4.000000,,,,,,,,,,,,,,,,,,,,,,,,,
1577722285.158288,62.000000,0.000000,4191.282227,4241.538574,4133.333496,4149.230957,4190.769043,0.000000,4.000000,,,,0.000000,4.000000,4.000000,4.000000,4.000000,4.000000,,,,,,,,,,,,,,,,,,,,,,,,,
1577722285.166084,63.000000,0.000000,4211.794922,4257.948730,4146.666504,4167.179688,4211.794922,0.000000,4.000000,,,,0.000000,4.000000,4.000000,4.000000,4.000000,4.000000,,,,,,,,,,,,,,,,,,,,,,,,,
1577722285.173980,64.000000,0.000000,4229.230957,4277.436035,4164.615234,4168.205078,4228.717773,450.000000,4.000000,,,,0.000000,4.000000,4.000000,4.000000,4.000000,4.000000,,,,,,,,,,,,,,,,,,,,,,,,,
1577722285.181776,65.000000,0.000000,4217.948730,4276.922852,4147.692383,4164.102539,4222.051270,450.000000,4.000000,,,,0.000000,4.000000,4.000000,4.000000,4.000000,4.000000,,,,,,,,,,,,,,,,,,,,,,,,,
1577722285.189672,66.000000,0.000000,4198.461426,4257.436035,4138.461426,4159.487305,4203.589844,16228.000000,4.000000,,,,0.000000,4.000000,4.000000,4.000000,4.000000,4.000000,,,,,,,,,,,,,,,,,,,,,,,,,
1577722285.197467,67.000000,0.000000,4198.974121,4250.256348,4145.128418,4153.333496,4196.922852,450.000000,4.000000,,,,0.000000,4.000000,4.000000,4.000000,4.000000,4.000000,8.352892,0.757566,0.904195,5.250350,1.321815,0.974802,0.803846,0.380824,3.936345,1.484174,4.108285,0.380625,1.616006,4.172668,6.543668,3.753313,0.697695,0.599850,5.415828,1.541623,7.602252,1.105404,0.674509,4.073340,1.253289
1577722285.205263,68.000000,0.000000,4224.102539,4268.205078,4154.871582,4162.563965,4216.410156,16251.000000,4.000000,,,,0.000000,4.000000,4.000000,4.000000,4.000000,4.000000,,,,,,,,,,,,,,,,,,,,,,,,,
1577722285.213159,69.000000,0.000000,4237.436035,4280.512695,4168.717773,4183.589844,4231.794922,450.000000,4.000000,,,,0.000000,4.000000,4.000000,4.000000,4.000000,4.000000,,,,,,,,,,,,,,,,,,,,,,,,,
1577722285.221055,70.000000,0.000000,4218.461426,4262.051270,4141.538574,4162.563965,4213.846191,16149.000000,4.000000,,,,0.000000,4.000000,4.000000,4.000000,4.000000,4.000000,,,,,,,,,,,,,,,,,,,,,,,,,
1577722285.228850,71.000000,0.000000,4201.025879,4241.538574,4123.077148,4125.128418,4194.871582,450.000000,4.000000,,,,0.000000,4.000000,4.000000,4.000000,4.000000,4.000000,,,,,,,,,,,,,,,,,,,,,,,,,
1577722285.236746,72.000000,0.000000,4204.615234,4243.589844,4142.563965,4148.717773,4203.077148,450.000000,4.000000,,,,0.000000,4.000000,4.000000,4.000000,4.000000,4.000000,,,,,,,,,,,,,,,,,,,,,,,,,
1577722285.244642,73.000000,0.000000,4229.743652,4264.102539,4157.948730,4186.153809,4222.563965,16191.000000,4.000000,,,,0.000000,4.000000,4.000000,4.000000,4.000000,4.000000,,,,,,,,,,,,,,,,,,,,,,,,,
1577722285.252438,74.000000,0.000000,4255.384766,4281.025879,4164.615234,4175.897461,4230.256348,450.000000,4.000000,,,,0.000000,4.000000,4.000000,4.000000,4.000000,4.000000,,,,,,,,,,,,,,,,,,,,,,,,,
1577722285.260234,75.000000,0.000000,4256.922852,4273.846191,4154.358887,4149.743652,4225.128418,16204.000000,4.000000,,,,0.000000,4.000000,4.000000,4.000000,4.000000,4.000000,,,,,,,,,,,,,,,,,,,,,,,,,
1577722285.268130,76.000000,0.000000,4254.871582,4265.128418,4145.128418,4142.051270,4218.974121,450.000000,4.000000,,,,0.000000,4.000000,4.000000,4.000000,4.000000,4.000000,,,,,,,,,,,,,,,,,,,,,,,,,
1577722285.275926,77.000000,0.000000,4263.589844,4264.102539,4141.538574,4136.410156,4214.358887,450.000000,4.000000,,,,0.000000,4.000000,4.000000,4.000000,4.000000,4.000000,,,,,,,,,,,,,,,,,,,,,,,,,
1577722285.283821,78.000000,0.000000,4281.025879,4263.077148,4140.512695,4133.846191,4222.051270,450.000000,4.000000,,,,0.000000,4.000000,4.000000,4.000000,4.000000,4.000000,,,,,,,,,,,,,,,,,,,,,,,,,
1577722285.291617,79.000000,0.000000,4300.000000,4274.358887,4157.436035,4143.589844,4239.487305,16204.000000,4.000000,,,,0.000000,4.000000,4.000000,4.000000,4.000000,4.000000,,,,,,,,,,,,,,,,,,,,,,,,,
1577722285.299513,80.000000,0.000000,4293.333496,4280.000000,4149.230957,4130.256348,4240.512695,450.000000,4.000000,,,,0.000000,4.000000,4.000000,4.000000,4.000000,4.000000,,,,,,,,,,,,,,,,,,,,,,,,,
1577722285.307309,81.000000,0.000000,4267.179688,4269.743652,4135.897461,4104.102539,4217.948730,450.000000,4.000000,,,,0.000000,4.000000,4.000000,4.000000,4.000000,4.000000,,,,,,,,,,,,,,,,,,,,,,,,,
1577722285.315204,82.000000,0.000000,4256.922852,4258.461426,4144.615234,4097.436035,4201.025879,450.000000,4.000000,,,,0.000000,4.000000,4.000000,4.000000,4.000000,4.000000,,,,,,,,,,,,,,,,,,,,,,,,,
1577722285.323000,83.000000,0.000000,4258.461426,4255.384766,4146.153809,4108.717773,4210.256348,16204.000000,4.000000,,,,0.000000,4.000000,4.000000,4.000000,4.000000,4.000000,4.915865,0.649300,0.810731,5.511316,1.291100,1.067798,0.616583,0.440750,4.044134,1.422838,2.918612,0.436201,1.081438,4.281883,4.164955,3.461891,0.839188,0.509156,5.443303,1.516402,5.738870,1.161248,0.639779,4.261804,1.165871
1577722285.330896,84.000000,0.000000,4266.666504,4272.820313,4162.563965,4127.692383,4231.282227,450.000000,4.000000,,,,0.000000,4.000000,4.000000,4.000000,4.000000,4.000000,,,,,,,,,,,,,,,,,,,,,,,,,
1577722285.338792,85.000000,0.000000,4272.307617,4277.948730,4169.230957,4131.282227,4236.922852,450.000000,4.000000,,,,0.000000,4.000000,4.000000,4.000000,4.000000,4.000000,,,,,,,,,,,,,,,,,,,,,,,,,
1577722285.346588,86.000000,0.000000,4256.410156,4248.717773,4155.384766,4128.717773,4218.461426,450.000000,4.000000,,,,0.000000,4.000000,4.000000,4.000000,4.000000,4.000000,,,,,,,,,,,,,,,,,,,,,,,,,
1577722285.354484,87.000000,0.000000,4237.436035,4231.282227,4147.179688,4127.692383,4198.974121,16204.000000,4.000000,,,,0.000000,4.000000,4.000000,4.000000,4.000000,4.000000,,,,,,,,,,,,,,,,,,,,,,,,,
1577722285.362280,88.000000,0.000000,4239.487305,4249.230957,4146.153809,4125.128418,4204.615234,450.000000,4.000000,,,,0.000000,4.000000,4.000000,4.000000,4.000000,4.000000,,,,,,,,,,,,,,,,,,,,,,,,,
1577722285.370176,89.000000,0.000000,4248.717773,4278.974121,4165.128418,4135.897461,4218.461426,450.000000,4.000000,,,,0.000000,4.000000,4.000000,4.000000,4.000000,4.000000,,,,,,,,,,,,,,,,,,,,,,,,,
1577722285.377972,90.000000,0.000000,4242.051270,4284.102539,4160.512695,4139.487305,4211.282227,450.000000,4.000000,,,,0.000000,4.000000,4.000000,4.000000,4.000000,4.000000,,,,,,,,,,,,,,,,,,,,,,,,,
1577722285.385868,91.000000,0.000000,4231.794922,4258.461426,4143.077148,4123.589844,4198.461426,16204.000000,4.000000,,,,0.000000,4.000000,4.000000,4.000000,4.000000,4.000000,,,,,,,,,,,,,,,,,,,,,,,,,
1577722285.393663,92.000000,0.000000,4238.461426,4241.538574,4152.820313,4123.589844,4198.974121,450.000000,4.000000,,,,0.000000,4.000000,4.000000,4.000000,4.000000,4.000000,,,,,,,,,,,,,,,,,,,,,,,,,
1577722285.401559,93.000000,0.000000,4245.641113,4255.897461,4150.769043,4136.410156,4203.589844,450.000000,4.000000,,,,0.000000,4.000000,4.000000,4.000000,4.000000,4.000000,,,,,,,,,,,,,,,,,,,,,,,,,
1577722285.409355,94.000000,0.000000,4248.717773,4274.871582,4158.461426,4140.512695,4212.307617,450.000000,4.000000,,,,0.000000,4.000000,4.000000,4.000000,4.000000,4.000000,,,,,,,,,,,,,,,,,,,,,,,,,
1577722285.417251,95.000000,0.000000,4253.846191,4266.153809,4173.846191,4142.051270,4221.538574,16204.000000,4.000000,,,,0.000000,4.000000,4.000000,4.000000,4.000000,4.000000,,,,,,,,,,,,,,,,,,,,,,,,,
1577722285.425046,96.000000,0.000000,4252.820313,4249.743652,4156.922852,4149.230957,4218.974121,450.000000,4.000000,,,,0.000000,4.000000,4.000000,4.000000,4.000000,4.000000,,,,,,,,,,,,,,,,,,,,,,,,,
1577722285.432942,97.000000,0.000000,4245.128418,4262.051270,4143.589844,4140.000000,4204.615234,450.000000,4.000000,,,,0.000000,4.000000,4.000000,4.000000,4.000000,4.000000,,,,,,,,,,,,,,,,,,,,,,,,,
1577722285.440738,98.000000,0.000000,4233.333496,4271.794922,4147.179688,4117.948730,4201.025879,450.000000,4.000000,,,,0.000000,4.000000,4.000000,4.000000,4.000000,4.000000,,,,,,,,,,,,,,,,,,,,,,,,,
1577722285.448634,99.000000,0.000000,4242.051270,4270.769043,4165.128418,4134.871582,4220.512695,16204.000000,4.000000,,,,0.000000,4.000000,4.000000,4.000000,4.000000,4.000000,2.894338,0.753474,0.728425,5.588004,1.313660,1.150841,0.464934,0.503673,4.025289,1.392995,1.879642,0.494388,0.628928,4.221126,2.427195,3.061967,0.995861,0.478822,5.518090,1.534634,4.434267,1.344966,0.586200,4.382039,1.157736
1577722285.456430,100.000000,0.000000,4267.179688,4283.589844,4171.282227,4149.230957,4231.282227,450.000000,4.000000,,,,0.000000,4.000000,4.000000,4.000000,4.000000,4.000000,,,,,,,,,,,,,,,,,,,,,,,,,
1577722285.464325,101.000000,0.000000,4258.461426,4279.487305,4146.153809,4123.589844,4213.333496,450.000000,4.000000,,,,0.000000,4.000000,4.000000,4.000000,4.000000,4.000000,,,,,,,,,,,,,,,,,,,,,,,,,
1577722285.472121,102.000000,0.000000,4231.282227,4247.692383,4141.538574,4114.358887,4192.820313,450.000000,4.000000,,,,0.000000,4.000000,4.000000,4.000000,4.000000,4.000000,,,,,,,,,,,,,,,,,,,,,,,,,
1577722285.480017,103.000000,0.000000,4229.230957,4235.384766,4146.666504,4124.615234,4191.794922,16204.000000,4.000000,,,,0.000000,4.000000,4.000000,4.000000,4.000000,4.000000,,,,,,,,,,,,,,,,,,,,,,,,,
1577722285.487813,104.000000,0.000000,4245.128418,4266.153809,4152.307617,4128.717773,4210.769043,450.000000,4.000000,,,,0.000000,4.000000,4.000000,4.000000,4.000000,4.000000,,,,,,,,,,,,,,,,,,,,,,,,,
1577722285.495708,105.000000,0.000000,4254.358887,4287.692383,4163.077148,4131.794922,4222.051270,450.000000,4.000000,,,,0.000000,4.000000,4.000000,4.000000,4.000000,4.000000,,,,,,,,,,,,,,,,,,,,,,,,,
1577722285.503504,106.000000,0.000000,4243.589844,4259.487305,4141.025879,4124.615234,4205.641113,450.000000,4.000000,,,,0.000000,4.000000,4.000000,4.000000,4.000000,4.000000,,,,,,,,,,,,,,,,,,,,,,,,,
1577722285.511400,107.000000,0.000000,4231.282227,4236.922852,4131.282227,4108.717773,4187.179688,16204.000000,4.000000,,,,0.000000,4.000000,4.000000,4.000000,4.000000,4.000000,,,,,,,,,,,,,,,,,,,,,,,,,
1577722285.519296,108.000000,0.000000,4233.333496,4256.922852,4142.051270,4108.205078,4186.666504,450.000000,4.000000,,,,0.000000,4.000000,4.000000,4.000000,4.000000,4.000000,,,,,,,,,,,,,,,,,,,,,,,,,
1577722285.527092,109.000000,0.000000,4238.974121,4276.410156,4150.256348,4128.205078,4203.077148,450.000000,4.000000,,,,0.000000,4.000000,4.000000,4.000000,4.000000,4.000000,,,,,,,,,,,,,,,,,,,,,,,,,
1577722285.534988,110.000000,0.000000,4245.128418,4273.333496,4165.128418,4147.179688,4213.846191,450.000000,4.000000,,,,0.000000,4.000000,4.000000,4.000000,4.000000,4.000000,,,,,,,,,,,,,,,,,,,,,,,,,
1577722285.542784,111.000000,0.000000,4242.563965,4267.692383,4152.307617,4140.512695,4207.179688,16204.000000,4.000000,,,,0.000000,4.000000,4.000000,4.000000,4.000000,4.000000,,,,,,,,,,,,,,,,,,,,,,,,,
1577722285.550680,112.000000,0.000000,4222.051270,4262.563965,4138.461426,4116.922852,4194.871582,450.000000,4.000000,,,,0.000000,4.000000,4.000000,4.000000,4.000000,4.000000,,,,,,,,,,,,,,,,,,,,,,,,,
1577722285.558476,113.000000,0.000000,4208.205078,4255.897461,4143.077148,4102.051270,4180.512695,450.000000,4.000000,,,,0.000000,4.000000,4.000000,4.000000,4.000000,4.000000,,,,,,,,,,,,,,,,,,,,,,,,,
1577722285.566372,114.000000,0.000000,4225.128418,4261.538574,4156.410156,4121.025879,4193.333496,450.000000,4.000000,,,,0.000000,4.000000,4.000000,4.000000,4.000000,4.000000,,,,,,,,,,,,,,,,,,,,,,,,,
1577722285.574168,115.000000,0.000000,4252.820313,4278.461426,4184.102539,4164.102539,4216.922852,16204.000000,4.000000,,,,0.000000,4.000000,4.000000,4.000000,4.000000,4.000000,2.171608,1.012293,0.668010,5.413291,1.394850,1.199141,0.380079,0.542396,3.860158,1.434982,1.184426,0.539955,0.334907,3.964104,1.527127,2.758111,1.136392,0.484787,5.494584,1.613297,3.657149,1.544276,0.520713,4.373633,1.248659
1577722285.582064,116.000000,0.000000,4246.153809,4283.077148,4175.897461,4162.051270,4208.717773,450.000000,4.000000,,,,0.000000,4.000000,4.000000,4.000000,4.000000,4.000000,,,,,,,,,,,,,,,,,,,,,,,,,
1577722285.589860,117.000000,0.000000,4211.282227,4263.077148,4140.000000,4115.897461,4180.512695,450.000000,4.000000,,,,0.000000,4.000000,4.000000,4.000000,4.000000,4.000000,,,,,,,,,,,,,,,,,,,,,,,,,
1577722285.597755,118.000000,0.000000,4196.410156,4250.256348,4127.179688,4098.974121,4166.666504,450.000000,4.000000,,,,0.000000,4.000000,4.000000,4.000000,4.000000,4.000000,,,,,,,,,,,,,,,,,,,,,,,,,
1577722285.605551,119.000000,0.000000,4217.948730,4256.410156,4140.512695,4113.333496,4181.025879,16204.000000,4.000000,,,,0.000000,4.000000,4.000000,4.000000,4.000000,4.000000,,,,,,,,,,,,,,,,,,,,,,,,,
1577722285.613447,120.000000,0.000000,4238.461426,4258.974121,4154.871582,4118.461426,4191.282227,450.000000,4.000000,,,,0.000000,4.000000,4.000000,4.000000,4.000000,4.000000,,,,,,,,,,,,,,,,,,,,,,,,,
1577722285.621243,121.000000,0.000000,4233.333496,4266.666504,4147.692383,4124.102539,4184.102539,450.000000,4.000000,,,,0.000000,4.000000,4.000000,4.000000,4.000000,4.000000,,,,,,,,,,,,,,,,,,,,,,,,,
1577722285.629139,122.000000,0.000000,4214.358887,4282.563965,4146.666504,4135.897461,4179.487305,450.000000,4.000000,,,,0.000000,4.000000,4.000000,4.000000,4.000000,4.000000,,,,,,,,,,,,,,,,,,,,,,,,,
1577722285.637034,123.000000,0.000000,4193.333496,4269.230957,4148.205078,4121.538574,4162.051270,16204.000000,4.000000,,,,0.000000,4.000000,4.000000,4.000000,4.000000,4.000000,,,,,,,,,,,,,,,,,,,,,,,,,
1577722285.644831,124.000000,0.000000,4192.307617,4248.717773,4129.230957,4106.666504,4156.922852,450.000000,4.000000,,,,0.000000,4.000000,4.000000,4.000000,4.000000,4.000000,,,,,,,,,,,,,,,,,,,,,,,,,
1577722285.652627,125.000000,0.000000,4219.487305,4266.153809,4137.436035,4131.282227,4183.589844,450.000000,4.000000,,,,0.000000,4.000000,4.000000,4.000000,4.000000,4.000000,,,,,,,,,,,,,,,,,,,,,,,,,
1577722285.660522,126.000000,0.000000,4234.871582,4282.051270,4148.717773,4144.102539,4199.487305,450.000000,4.000000,,,,0.000000,4.000000,4.000000,4.000000,4.000000,4.000000,,,,,,,,,,,,,,,,,,,,,,,,,
1577722285.668418,127.000000,0.000000,4229.230957,4271.794922,4141.538574,4124.102539,4202.051270,239.000000,4.000000,,,,0.000000,4.000000,4.000000,4.000000,4.000000,4.000000,,,,,,,,,,,,,,,,,,,,,,,,,
1577722285.676214,0.000000,0.000000,4222.563965,4268.205078,4144.102539,4114.871582,4198.974121,450.000000,4.000000,,,,0.000000,4.000000,4.000000,4.000000,4.000000,4.000000,,,,,,,,,,,,,,,,,,,,,,,,,
1577722285.684110,1.000000,0.000000,4224.615234,4266.666504,4140.000000,4128.717773,4193.846191,450.000000,4.000000,,,,0.000000,4.000000,4.000000,4.000000,4.000000,4.000000,,,,,,,,,,,,,,,,,,,,,,,,,
1577722285.691906,2.000000,0.000000,4248.205078,4278.461426,4160.512695,4154.358887,4211.282227,16206.000000,4.000000,,,,0.000000,4.000000,4.000000,4.000000,4.000000,4.000000,,,,,,,,,,,,,,,,,,,,,,,,,
1577722285.699802,3.000000,0.000000,4258.461426,4288.205078,4175.384766,4161.538574,4220.512695,450.000000,4.000000,,,,0.000000,4.000000,4.000000,4.000000,4.000000,4.000000,2.342525,1.333395,0.626527,5.008840,1.514570,1.195278,0.369563,0.551916,3.577687,1.558816,0.853866,0.562080,0.206855,3.560661,1.271118,2.731977,1.235901,0.498203,5.266561,1.740556,3.192671,1.659469,0.448408,4.220651,1.416033
1577722285.707598,4.000000,0.000000,4234.358887,4266.666504,4144.102539,4138.974121,4198.461426,16226.000000,4.000000,,,,0.000000,4.000000,4.000000,4.000000,4.000000,4.000000,,,,,,,,,,,,,,,,,,,,,,,,,
1577722285.715494,5.000000,0.000000,4222.563965,4250.256348,4132.820313,4122.563965,4189.230957,450.000000,4.000000,,,,0.000000,4.000000,4.000000,4.000000,4.000000,4.000000,,,,,,,,,,,,,,,,,,,,,,,,,
1577722285.723290,6.000000,0.000000,4234.871582,4253.333496,4135.897461,4128.205078,4203.589844,16139.000000,4.000000,,,,0.000000,4.000000,4.000000,4.000000,4.000000,4.000000,,,,,,,,,,,,,,,,,,,,,,,,,
1577722285.731186,7.000000,0.000000,4259.487305,4262.051270,4148.717773,4149.743652,4225.641113,450.000000,4.000000,,,,0.000000,4.000000,4.000000,4.000000,4.000000,4.000000,,,,,,,,,,,,,,,,,,,,,,,,,
1577722285.738982,8.000000,0.000000,4275.384766,4271.794922,4167.692383,4170.769043,4238.461426,450.000000,4.000000,,,,0.000000,4.000000,4.000000,4.000000,4.000000,4.000000,,,,,,,,,,,,,,,,,,,,,,,,,
1577722285.746878,9.000000,0.000000,4256.922852,4271.794922,4154.358887,4153.846191,4218.974121,16164.000000,4.000000,,,,0.000000,4.000000,4.000000,4.000000,4.000000,4.000000,,,,,,,,,,,,,,,,,,,,,,,,,
1577722285.754674,10.000000,0.000000,4233.846191,4267.179688,4136.922852,4128.717773,4191.794922,450.000000,4.000000,,,,0.000000,4.000000,4.000000,4.000000,4.000000,4.000000,,,,,,,,,,,,,,,,,,,,,,,,,
1577722285.762570,11.000000,0.000000,4238.974121,4267.692383,4137.948730,4135.897461,4195.384766,16214.000000,4.000000,,,,0.000000,4.000000,4.000000,4.000000,4.000000,4.000000,,,,,,,,,,,,,,,,,,,,,,,,,
1577722285.770366,12.000000,0.000000,4257.436035,4273.846191,4166.153809,4150.256348,4220.000000,450.000000,4.000000,,,,0.000000,4.000000,4.000000,4.000000,4.000000,4.000000,,,,,,,,,,,,,,,,,,,,,,,,,
1577722285.778262,13.000000,0.000000,4250.256348,4275.384766,4181.538574,4148.717773,4219.487305,450.000000,4.000000,,,,0.000000,4.000000,4.000000,4.000000,4.000000,4.000000,,,,,,,,,,,,,,,,,,,,,,,,,
1577722285.786058,14.000000,0.000000,4225.128418,4268.205078,4155.384766,4138.461426,4193.846191,450.000000,4.000000,,,,0.000000,4.000000,4.000000,4.000000,4.000000,4.000000,,,,,,,,,,,,,,,,,,,,,,,,,
1577722285.793954,15.000000,0.000000,4211.794922,4261.538574,4142.563965,4128.205078,4174.871582,16214.000000,4.000000,,,,0.000000,4.000000,4.000000,4.000000,4.000000,4.000000,,,,,,,,,,,,,,,,,,,,,,,,,
1577722285.801850,16.000000,0.000000,4202.051270,4253.846191,4131.794922,4111.794922,4169.230957,0.000000,4.000000,,,,0.000000,4.000000,4.000000,4.000000,4.000000,4.000000,,,,,,,,,,,,,,,,,,,,,,,,,
1577722285.809646,17.000000,0.000000,4214.871582,4262.051270,4134.358887,4122.563965,4189.230957,0.000000,4.000000,,,,0.000000,4.000000,4.000000,4.000000,4.000000,4.000000,,,,,,,,,,,,,,,,,,,,,,,,,
1577722285.817442,18.000000,0.000000,4247.692383,4283.589844,4154.358887,4151.282227,4215.897461,0.000000,4.000000,,,,0.000000,4.000000,4.000000,4.000000,4.000000,4.000000,,,,,,,,,,,,,,,,,,,,,,,,,
1577722285.825338,19.000000,0.000000,4240.512695,4283.589844,4137.948730,4138.974121,4207.692383,0.000000,4.000000,,,,0.000000,4.000000,4.000000,4.000000,4.000000,4.000000,3.124540,1.628480,0.600176,4.488341,1.646528,1.148412,0.420753,0.550681,3.251687,1.737753,0.763723,0.560824,0.203162,3.116439,1.296540,3.047449,1.284043,0.507338,4.856018,1.883642,2.871883,1.667814,0.386734,3.968322,1.611851
1577722285.833134,20.000000,0.000000,4209.230957,4265.641113,4123.589844,4115.897461,4183.077148,0.000000,4.000000,,,,0.000000,4.000000,4.000000,4.000000,4.000000,4.000000,,,,,,,,,,,,,,,,,,,,,,,,,
1577722285.841029,21.000000,0.000000,4204.102539,4251.794922,4129.230957,4118.461426,4182.563965,0.000000,4.000000,,,,0.000000,4.000000,4.000000,4.000000,4.000000,4.000000,,,,,,,,,,,,,,,,,,,,,,,,,
1577722285.848825,22.000000,0.000000,4225.128418,4262.051270,4138.461426,4137.948730,4202.563965,0.000000,4.000000,,,,0.000000,4.000000,4.000000,4.000000,4.000000,4.000000,,,,,,,,,,,,,,,,,,,,,,,,,
1577722285.856721,23.000000,0.000000,4241.025879,4277.436035,4156.922852,4155.897461,4207.692383,0.000000,4.000000,,,,0.000000,4.000000,4.000000,4.000000,4.000000,4.000000,,,,,,,,,,,,,,,,,,,,,,,,,
1577722285.864517,24.000000,0.000000,4230.256348,4263.077148,4148.717773,4145.641113,4194.358887,0.000000,4.000000,,,,0.000000,4.000000,4.000000,4.000000,4.000000,4.000000,,,,,,,,,,,,,,,,,,,,,,,,,
1577722285.872412,25.000000,0.000000,4204.615234,4247.692383,4130.769043,4119.487305,4174.358887,0.000000,4.000000,,,,0.000000,4.000000,4.000000,4.000000,4.000000,4.000000,,,,,,,,,,,,,,,,,,,,,,,,,
1577722285.880208,26.000000,0.000000,4194.358887,4253.333496,4129.230957,4115.897461,4167.692383,0.000000,4.000000,,,,0.000000,4.000000,4.000000,4.000000,4.000000,4.000000,,,,,,,,,,,,,,,,,,,,,,,,,
1577722285.888104,27.000000,0.000000,4212.307617,4263.589844,4146.153809,4136.922852,4191.282227,0.000000,4.000000,,,,0.000000,4.000000,4.000000,4.000000,4.000000,4.000000,,,,,,,,,,,,,,,,,,,,,,,,,
1577722285.895900,28.000000,0.000000,4235.384766,4276.410156,4170.769043,4149.230957,4214.871582,0.000000,4.000000,,,,0.000000,4.000000,4.000000,4.000000,4.000000,4.000000,,,,,,,,,,,,,,,,,,,,,,,,,
1577722285.903796,29.000000,0.000000,4233.333496,4279.487305,4153.846191,4137.436035,4209.743652,0.000000,4.000000,,,,0.000000,4.000000,4.000000,4.000000,4.000000,4.000000,,,,,,,,,,,,,,,,,,,,,,,,,
1577722285.911591,30.000000,0.000000,4208.717773,4253.846191,4130.769043,4123.589844,4185.641113,0.000000,4.000000,,,,0.000000,4.000000,4.000000,4.000000,4.000000,4.000000,,,,,,,,,,,,,,,,,,,,,,,,,
1577722285.919487,31.000000,0.000000,4200.000000,4236.410156,4133.846191,4120.000000,4177.436035,0.000000,4.000000,,,,0.000000,4.000000,4.000000,4.000000,4.000000,4.000000,,,,,,,,,,,,,,,,,,,,,,,,,
1577722285.927383,32.000000,0.000000,4223.077148,4254.358887,4142.563965,4132.307617,4197.948730,0.000000,4.000000,,,,0.000000,4.000000,4.000000,4.000000,4.000000,4.000000,,,,,,,,,,,,,,,,,,,,,,,,,
1577722285.935179,33.000000,0.000000,4232.820313,4278.974121,4163.589844,4141.538574,4203.077148,0.000000,4.000000,,,,0.000000,4.000000,4.000000,4.000000,4.000000,4.000000,,,,,,,,,,,,,,,,,,,,,,,,,
1577722285.943075,34.000000,0.000000,4230.256348,4285.128418,4169.230957,4148.205078,4201.025879,0.000000,4.000000,,,,0.000000,4.000000,4.000000,4.000000,4.000000,4.000000,,,,,,,,,,,,,,,,,,,,,,,,,
1577722285.950871,35.000000,0.000000,4236.410156,4271.282227,4158.974121,4164.102539,4215.384766,0.000000,4.000000,,,,0.000000,4.000000,4.000000,4.000000,4.000000,4.000000,4.358031,1.839415,0.588907,4.007250,1.769281,1.081464,0.513314,0.566671,2.978642,1.922661,0.787735,0.553343,0.267275,2.749870,1.352040,3.619571,1.272758,0.520348,4.400975,2.012468,2.692427,1.593813,0.348151,3.706358,1.789724
1577722285.958767,36.000000,0.000000,4224.615234,4256.922852,4144.102539,4152.307617,4203.589844,0.000000,4.000000,,,,0.000000,4.000000,4.000000,4.000000,4.000000,4.000000,,,,,,,,,,,,,,,,,,,,,,,,,
1577722285.966563,37.000000,0.000000,4201.025879,4259.487305,4124.615234,4133.333496,4178.461426,0.000000,4.000000,,,,0.000000,4.000000,4.000000,4.000000,4.000000,4.000000,,,,,,,,,,,,,,,,,,,,,,,,,
1577722285.974459,38.000000,0.000000,4197.948730,4261.025879,4136.410156,4149.230957,4186.666504,0.000000,4.000000,,,,0.000000,4.000000,4.000000,4.000000,4.000000,4.000000,,,,,,,,,,,,,,,,,,,,,,,,,
1577722285.982255,39.000000,0.000000,4216.922852,4254.871582,4158.461426,4167.179688,4212.820313,0.000000,4.000000,,,,0.000000,4.000000,4.000000,4.000000,4.000000,4.000000,,,,,,,,,,,,,,,,,,,,,,,,,
1577722285.990151,40.000000,0.000000,4225.641113,4265.641113,4163.077148,4168.205078,4227.179688,0.000000,4.000000,,,,0.000000,4.000000,4.000000,4.000000,4.000000,4.000000,,,,,,,,,,,,,,,,,,,,,,,,,
1577722285.997947,41.000000,0.000000,4211.282227,4279.487305,4157.948730,4160.000000,4217.948730,0.000000,4.000000,,,,0.000000,4.000000,4.000000,4.000000,4.000000,4.000000,,,,,,,,,,,,,,,,,,,,,,,,,
1577722286.005842,42.000000,0.000000,4195.384766,4263.077148,4142.051270,4141.538574,4203.077148,0.000000,4.000000,,,,0.000000,4.000000,4.000000,4.000000,4.000000,4.000000,,,,,,,,,,,,,,,,,,,,,,,,,
1577722286.013638,43.000000,0.000000,4199.487305,4247.179688,4147.692383,4146.153809,4211.794922,0.000000,4.000000,,,,0.000000,4.000000,4.000000,4.000000,4.000000,4.000000,,,,,,,,,,,,,,,,,,,,,,,,,
1577722286.021534,44.000000,0.000000,4218.461426,4258.461426,4159.487305,4173.846191,4220.512695,0.000000,4.000000,,,,0.000000,4.000000,4.000000,4.000000,4.000000,4.000000,,,,,,,,,,,,,,,,,,,,,,,,,
1577722286.029330,45.000000,0.000000,4225.641113,4272.307617,4159.487305,4185.641113,4220.512695,0.000000,4.000000,,,,0.000000,4.000000,4.000000,4.000000,4.000000,4.000000,,,,,,,,,,,,,,,,,,,,,,,,,
1577722286.037225,46.000000,0.000000,4223.589844,4278.974121,4173.846191,4180.512695,4227.179688,0.000000,4.000000,,,,0.000000,4.000000,4.000000,4.000000,4.000000,4.000000,,,,,,,,,,,,,,,,,,,,,,,,,
1577722286.045021,47.000000,0.000000,4211.794922,4264.102539,4160.000000,4159.487305,4215.897461,0.000000,4.000000,,,,0.000000,4.000000,4.000000,4.000000,4.000000,4.000000,,,,,,,,,,,,,,,,,,,,,,,,,
1577722286.052917,48.000000,0.000000,4208.717773,4250.769043,4147.179688,4156.410156,4203.589844,0.000000,4.000000,,,,0.000000,4.000000,4.000000,4.000000,4.000000,4.000000,,,,,,,,,,,,,,,,,,,,,,,,,
1577722286.060713,49.000000,0.000000,4214.358887,4264.615234,4155.897461,4164.615234,4205.641113,0.000000,4.000000,,,,0.000000,4.000000,4.000000,4.000000,4.000000,4.000000,,,,,,,,,,,,,,,,,,,,,,,,,
1577722286.068608,50.000000,0.000000,4208.205078,4271.794922,4148.205078,4151.794922,4205.641113,0.000000,4.000000,,,,0.000000,4.000000,4.000000,4.000000,4.000000,4.000000,,,,,,,,,,,,,,,,,,,,,,,,,
1577722286.076404,51.000000,0.000000,4217.436035,4272.307617,4162.051270,4167.692383,4210.769043,0.000000,4.000000,,,,0.000000,4.000000,4.000000,4.000000,4.000000,4.000000,5.786218,1.906763,0.604731,3.689717,1.865653,1.008034,0.615717,0.620212,2.833858,2.058165,0.848443,0.556689,0.352911,2.561849,1.380289,4.218800,1.208355,0.540311,4.058148,2.105031,2.709099,1.445258,0.348450,3.518723,1.915273
1577722286.084300,52.000000,0.000000,4214.871582,4269.743652,4163.077148,4189.743652,4202.051270,0.000000,4.000000,,,,0.000000,4.000000,4.000000,4.000000,4.000000,4.000000,,,,,,,,,,,,,,,,,,,,,,,,,
1577722286.092196,53.000000,0.000000,4186.666504,4251.282227,4141.538574,4167.179688,4185.641113,0.000000,4.000000,,,,0.000000,4.000000,4.000000,4.000000,4.000000,4.000000,,,,,,,,,,,,,,,,,,,,,,,,,
1577722286.099992,54.000000,0.000000,4184.102539,4248.205078,4136.410156,4142.051270,4180.000000,0.000000,4.000000,,,,0.000000,4.000000,4.000000,4.000000,4.000000,4.000000,,,,,,,,,,,,,,,,,,,,,,,,,
1577722286.107888,55.000000,0.000000,4205.128418,4270.256348,4143.589844,4150.256348,4191.282227,0.000000,4.000000,,,,0.000000,4.000000,4.000000,4.000000,4.000000,4.000000,,,,,,,,,,,,,,,,,,,,,,,,,
1577722286.115684,56.000000,0.000000,4221.538574,4286.153809,4171.794922,4171.282227,4210.769043,0.000000,4.000000,,,,0.000000,4.000000,4.000000,4.000000,4.000000,4.000000,,,,,,,,,,,,,,,,,,,,,,,,,
1577722286.123580,57.000000,0.000000,4224.102539,4287.692383,4177.436035,4177.948730,4217.436035,0.000000,4.000000,,,,0.000000,4.000000,4.000000,4.000000,4.000000,4.000000,,,,,,,,,,,,,,,,,,,,,,,,,
1577722286.131376,58.000000,0.000000,4212.307617,4284.615234,4155.897461,4169.743652,4208.717773,0.000000,4.000000,,,,0.000000,4.000000,4.000000,4.000000,4.000000,4.000000,,,,,,,,,,,,,,,,,,,,,,,,,
1577722286.139272,59.000000,0.000000,4192.820313,4272.820313,4153.846191,4153.846191,4188.717773,0.000000,4.000000,,,,0.000000,4.000000,4.000000,4.000000,4.000000,4.000000,,,,,,,,,,,,,,,,,,,,,,,,,
1577722286.147068,60.000000,0.000000,4194.358887,4259.487305,4161.025879,4153.846191,4189.743652,0.000000,4.000000,,,,0.000000,4.000000,4.000000,4.000000,4.000000,4.000000,,,,,,,,,,,,,,,,,,,,,,,,,
1577722286.154964,61.000000,0.000000,4216.922852,4265.641113,4172.820313,4166.666504,4209.743652,0.000000,4.000000,,,,0.000000,4.000000,4.000000,4.000000,4.000000,4.000000,,,,,,,,,,,,,,,,,,,,,,,,,
1577722286.162760,62.000000,0.000000,4226.666504,4275.384766,4178.974121,4164.102539,4214.358887,0.000000,4.000000,,,,0.000000,4.000000,4.000000,4.000000,4.000000,4.000000,,,,,,,,,,,,,,,,,,,,,,,,,
1577722286.170656,63.000000,0.000000,4217.948730,4261.025879,4169.230957,4154.358887,4210.256348,0.000000,4.000000,,,,0.000000,4.000000,4.000000,4.000000,4.000000,4.000000,,,,,,,,,,,,,,,,,,,,,,,,,
1577722286.178552,64.000000,0.000000,4193.333496,4246.153809,4157.436035,4149.743652,4195.384766,450.000000,4.000000,,,,0.000000,4.000000,4.000000,4.000000,4.000000,4.000000,,,,,,,,,,,,,,,,,,,,,,,,,
1577722286.186348,65.000000,0.000000,4177.436035,4252.820313,4143.589844,4148.205078,4175.384766,450.000000,4.000000,,,,0.000000,4.000000,4.000000,4.000000,4.000000,4.000000,,,,,,,,,,,,,,,,,,,,,,,,,
1577722286.194144,66.000000,0.000000,4186.153809,4265.641113,4148.717773,4144.102539,4175.897461,16204.000000,4.000000,,,,0.000000,4.000000,4.000000,4.000000,4.000000,4.000000,,,,,,,,,,,,,,,,,,,,,,,,,
1577722286.202040,67.000000,0.000000,4195.897461,4266.153809,4160.000000,4143.077148,4180.000000,450.000000,4.000000,,,,0.000000,4.000000,4.000000,4.000000,4.000000,4.000000,7.077256,1.834736,0.653859,3.608871,1.926921,0.925227,0.695424,0.710237,2.836537,2.098973,0.899855,0.588385,0.438300,2.600078,1.378938,4.566122,1.105488,0.556886,3.936517,2.147399,2.919585,1.255178,0.399787,3.474024,1.970551
1577722286.209835,68.000000,0.000000,4201.538574,4266.153809,4151.282227,4157.436035,4186.153809,16231.000000,4.000000,,,,0.000000,4.000000,4.000000,4.000000,4.000000,4.000000,,,,,,,,,,,,,,,,,,,,,,,,,
1577722286.217731,69.000000,0.000000,4208.717773,4277.436035,4161.025879,4166.666504,4204.102539,450.000000,4.000000,,,,0.000000,4.000000,4.000000,4.000000,4.000000,4.000000,,,,,,,,,,,,,,,,,,,,,,,,,
1577722286.225527,70.000000,0.000000,4187.179688,4260.000000,4153.846191,4137.948730,4192.307617,16133.000000,4.000000,,,,0.000000,4.000000,4.000000,4.000000,4.000000,4.000000,,,,,,,,,,,,,,,,,,,,,,,,,
1577722286.233423,71.000000,0.000000,4175.384766,4237.436035,4137.436035,4129.230957,4173.333496,450.000000,4.000000,,,,0.000000,4.000000,4.000000,4.000000,4.000000,4.000000,,,,,,,,,,,,,,,,,,,,,,,,,
1577722286.241218,72.000000,0.000000,4197.948730,4253.333496,4146.153809,4165.641113,4186.666504,450.000000,4.000000,,,,0.000000,4.000000,4.000000,4.000000,4.000000,4.000000,,,,,,,,,,,,,,,,,,,,,,,,,
1577722286.249114,73.000000,0.000000,4196.410156,4270.256348,4144.615234,4168.717773,4194.871582,16160.000000,4.000000,,,,0.000000,4.000000,4.000000,4.000000,4.000000,4.000000,,,,,,,,,,,,,,,,,,,,,,,,,
1577722286.257010,74.000000,0.000000,4194.871582,4272.307617,4157.948730,4162.051270,4197.948730,450.000000,4.000000,,,,0.000000,4.000000,4.000000,4.000000,4.000000,4.000000,,,,,,,,,,,,,,,,,,,,,,,,,
1577722286.264806,75.000000,0.000000,4204.102539,4265.641113,4160.512695,4170.769043,4201.025879,16219.000000,4.000000,,,,0.000000,4.000000,4.000000,4.000000,4.000000,4.000000,,,,,,,,,,,,,,,,,,,,,,,,,
1577722286.272602,76.000000,0.000000,4192.307617,4256.922852,4139.487305,4146.666504,4187.179688,450.000000,4.000000,,,,0.000000,4.000000,4.000000,4.000000,4.000000,4.000000,,,,,,,,,,,,,,,,,,,,,,,,,
1577722286.280498,77.000000,0.000000,4177.948730,4252.307617,4137.948730,4120.512695,4171.282227,450.000000,4.000000,,,,0.000000,4.000000,4.000000,4.000000,4.000000,4.000000,,,,,,,,,,,,,,,,,,,,,,,,,
1577722286.288294,78.000000,0.000000,4188.205078,4250.256348,4143.077148,4138.461426,4184.102539,450.000000,4.000000,,,,0.000000,4.000000,4.000000,4.000000,4.000000,4.000000,,,,,,,,,,,,,,,,,,,,,,,,,
1577722286.295990,79.000000,0.000000,4207.692383,4252.307617,4153.846191,4166.666504,4204.102539,16219.000000,4.000000,,,,0.000000,4.000000,4.000000,4.000000,4.000000,4.000000,,,,,,,,,,,,,,,,,,,,,,,,,
1577722286.303886,80.000000,0.000000,4204.615234,4253.846191,4152.307617,4161.538574,4200.512695,450.000000,4.000000,,,,0.000000,4.000000,4.000000,4.000000,4.000000,4.000000,,,,,,,,,,,,,,,,,,,,,,,,,
1577722286.311682,81.000000,0.000000,4187.179688,4260.000000,4142.051270,4146.153809,4186.153809,450.000000,4.000000,,,,0.000000,4.000000,4.000000,4.000000,4.000000,4.000000,,,,,,,,,,,,,,,,,,,,,,,,,
1577722286.319578,82.000000,0.000000,4174.871582,4261.538574,4136.410156,4138.461426,4172.820313,450.000000,4.000000,,,,0.000000,4.000000,4.000000,4.000000,4.000000,4.000000,,,,,,,,,,,,,,,,,,,,,,,,,
1577722286.327374,83.000000,0.000000,4183.077148,4250.256348,4123.589844,4134.871582,4174.871582,16219.000000,4.000000,,,,0.000000,4.000000,4.000000,4.000000,4.000000,4.000000,7.872654,1.675186,0.720937,3.763099,1.942761,0.820222,0.732875,0.819522,2.944465,2.019257,0.933814,0.660554,0.505915,2.841091,1.344961,4.481950,0.983063,0.554039,4.044561,2.129027,3.255587,1.075858,0.494162,3.596243,1.949847
1577722286.335170,84.000000,0.000000,4194.358887,4247.179688,4132.307617,4137.436035,4181.025879,450.000000,4.000000,,,,0.000000,4.000000,4.000000,4.000000,4.000000,4.000000,,,,,,,,,,,,,,,,,,,,,,,,,
1577722286.342866,85.000000,0.000000,4197.436035,4265.128418,4148.717773,4141.025879,4185.128418,450.000000,4.000000,,,,0.000000,4.000000,4.000000,4.000000,4.000000,4.000000,,,,,,,,,,,,,,,,,,,,,,,,,
1577722286.350761,86.000000,0.000000,4204.615234,4280.000000,4151.282227,4156.410156,4199.487305,450.000000,4.000000,,,,0.000000,4.000000,4.000000,4.000000,4.000000,4.000000,,,,,,,,,,,,,,,,,,,,,,,,,
1577722286.358558,87.000000,0.000000,4201.538574,4266.666504,4154.358887,4169.230957,4197.436035,16219.000000,4.000000,,,,0.000000,4.000000,4.000000,4.000000,4.000000,4.000000,,,,,,,,,,,,,,,,,,,,,,,,,
1577722286.366453,88.000000,0.000000,4184.615234,4250.769043,4138.974121,4148.205078,4177.436035,450.000000,4.000000,,,,0.000000,4.000000,4.000000,4.000000,4.000000,4.000000,,,,,,,,,,,,,,,,,,,,,,,,,
1577722286.374250,89.000000,0.000000,4178.461426,4261.538574,4134.358887,4127.179688,4172.820313,450.000000,4.000000,,,,0.000000,4.000000,4.000000,4.000000,4.000000,4.000000,,,,,,,,,,,,,,,,,,,,,,,,,
1577722286.382145,90.000000,0.000000,4195.897461,4270.769043,4148.205078,4147.692383,4188.205078,450.000000,4.000000,,,,0.000000,4.000000,4.000000,4.000000,4.000000,4.000000,,,,,,,,,,,,,,,,,,,,,,,,,
1577722286.389941,91.000000,0.000000,4214.871582,4263.077148,4145.128418,4168.205078,4200.000000,16219.000000,4.000000,,,,0.000000,4.000000,4.000000,4.000000,4.000000,4.000000,,,,,,,,,,,,,,,,,,,,,,,,,
1577722286.397837,92.000000,0.000000,4216.410156,4270.769043,4155.384766,4154.358887,4202.563965,450.000000,4.000000,,,,0.000000,4.000000,4.000000,4.000000,4.000000,4.000000,,,,,,,,,,,,,,,,,,,,,,,,,
1577722286.405633,93.000000,0.000000,4199.487305,4272.307617,4147.179688,4126.666504,4191.282227,450.000000,4.000000,,,,0.000000,4.000000,4.000000,4.000000,4.000000,4.000000,,,,,,,,,,,,,,,,,,,,,,,,,
1577722286.413528,94.000000,0.000000,4193.333496,4254.871582,4131.794922,4120.000000,4180.512695,450.000000,4.000000,,,,0.000000,4.000000,4.000000,4.000000,4.000000,4.000000,,,,,,,,,,,,,,,,,,,,,,,,,
1577722286.421324,95.000000,0.000000,4204.615234,4249.743652,4143.589844,4126.666504,4183.589844,16219.000000,4.000000,,,,0.000000,4.000000,4.000000,4.000000,4.000000,4.000000,,,,,,,,,,,,,,,,,,,,,,,,,
1577722286.429220,96.000000,0.000000,4193.846191,4248.205078,4136.922852,4115.897461,4181.538574,450.000000,4.000000,,,,0.000000,4.000000,4.000000,4.000000,4.000000,4.000000,,,,,,,,,,,,,,,,,,,,,,,,,
1577722286.437016,97.000000,0.000000,4192.307617,4258.461426,4144.102539,4132.820313,4191.282227,450.000000,4.000000,,,,0.000000,4.000000,4.000000,4.000000,4.000000,4.000000,,,,,,,,,,,,,,,,,,,,,,,,,
1577722286.444911,98.000000,0.000000,4195.897461,4264.615234,4149.743652,4153.846191,4195.384766,450.000000,4.000000,,,,0.000000,4.000000,4.000000,4.000000,4.000000,4.000000,,,,,,,,,,,,,,,,,,,,,,,,,
1577722286.452707,99.000000,0.000000,4171.282227,4246.153809,4129.230957,4131.282227,4171.794922,16219.000000,4.000000,,,,0.000000,4.000000,4.000000,4.000000,4.000000,4.000000,7.916841,1.502692,0.776855,4.085736,1.902679,0.692732,0.724350,0.922498,3.081087,1.827875,0.973326,0.771784,0.537609,3.203405,1.275560,4.010255,0.859857,0.522923,4.292900,2.049614,3.591531,0.945909,0.608350,3.847281,1.858600
1577722286.460603,100.000000,0.000000,4158.461426,4240.000000,4124.102539,4114.871582,4154.358887,450.000000,4.000000,,,,0.000000,4.000000,4.000000,4.000000,4.000000,4.000000,,,,,,,,,,,,,,,,,,,,,,,,,
1577722286.468399,101.000000,0.000000,4169.743652,4249.743652,4127.179688,4127.179688,4165.128418,450.000000,4.000000,,,,0.000000,4.000000,4.000000,4.000000,4.000000,4.000000,,,,,,,,,,,,,,,,,,,,,,,,,
1577722286.476095,102.000000,0.000000,4191.794922,4263.589844,4154.871582,4156.410156,4190.769043,450.000000,4.000000,,,,0.000000,4.000000,4.000000,4.000000,4.000000,4.000000,,,,,,,,,,,,,,,,,,,,,,,,,
1577722286.483890,103.000000,0.000000,4203.077148,4273.846191,4173.333496,4165.641113,4202.563965,16219.000000,4.000000,,,,0.000000,4.000000,4.000000,4.000000,4.000000,4.000000,,,,,,,,,,,,,,,,,,,,,,,,,
1577722286.491586,104.000000,0.000000,4194.358887,4272.307617,4148.205078,4141.025879,4194.871582,450.000000,4.000000,,,,0.000000,4.000000,4.000000,4.000000,4.000000,4.000000,,,,,,,,,,,,,,,,,,,,,,,,,
1577722286.499482,105.000000,0.000000,4180.000000,4264.102539,4126.666504,4117.436035,4175.384766,450.000000,4.000000,,,,0.000000,4.000000,4.000000,4.000000,4.000000,4.000000,,,,,,,,,,,,,,,,,,,,,,,,,
1577722286.507278,106.000000,0.000000,4175.384766,4260.512695,4124.615234,4122.051270,4171.794922,450.000000,4.000000,,,,0.000000,4.000000,4.000000,4.000000,4.000000,4.000000,,,,,,,,,,,,,,,,,,,,,,,,,
1577722286.515174,107.000000,0.000000,4188.205078,4268.717773,4142.051270,4151.794922,4197.436035,16219.000000,4.000000,,,,0.000000,4.000000,4.000000,4.000000,4.000000,4.000000,,,,,,,,,,,,,,,,,,,,,,,,,
1577722286.522970,108.000000,0.000000,4199.487305,4272.820313,4144.102539,4149.230957,4202.563965,450.000000,4.000000,,,,0.000000,4.000000,4.000000,4.000000,4.000000,4.000000,,,,,,,,,,,,,,,,,,,,,,,,,
1577722286.530866,109.000000,0.000000,4188.205078,4256.922852,4117.948730,4110.256348,4183.589844,450.000000,4.000000,,,,0.000000,4.000000,4.000000,4.000000,4.000000,4.000000,,,,,,,,,,,,,,,,,,,,,,,,,
1577722286.538662,110.000000,0.000000,4169.230957,4236.922852,4113.846191,4095.897461,4169.230957,450.000000,4.000000,,,,0.000000,4.000000,4.000000,4.000000,4.000000,4.000000,,,,,,,,,,,,,,,,,,,,,,,,,
1577722286.546558,111.000000,0.000000,4166.666504,4237.948730,4113.846191,4111.282227,4158.974121,16219.000000,4.000000,,,,0.000000,4.000000,4.000000,4.000000,4.000000,4.000000,,,,,,,,,,,,,,,,,,,,,,,,,
1577722286.554354,112.000000,0.000000,4186.153809,4263.077148,4121.538574,4135.384766,4170.769043,450.000000,4.000000,,,,0.000000,4.000000,4.000000,4.000000,4.000000,4.000000,,,,,,,,,,,,,,,,,,,,,,,,,
1577722286.562250,113.000000,0.000000,4206.666504,4286.666504,4135.384766,4144.102539,4192.820313,450.000000,4.000000,,,,0.000000,4.000000,4.000000,4.000000,4.000000,4.000000,,,,,,,,,,,,,,,,,,,,,,,,,
1577722286.570046,114.000000,0.000000,4192.820313,4275.384766,4114.358887,4130.256348,4183.589844,450.000000,4.000000,,,,0.000000,4.000000,4.000000,4.000000,4.000000,4.000000,,,,,,,,,,,,,,,,,,,,,,,,,
1577722286.577942,115.000000,0.000000,4166.666504,4250.769043,4104.102539,4116.922852,4161.025879,16219.000000,4.000000,,,,0.000000,4.000000,4.000000,4.000000,4.000000,4.000000,7.217968,1.373011,0.784253,4.445544,1.790326,0.560174,0.682166,1.001085,3.159547,1.560459,1.022993,0.900495,0.526190,3.549268,1.163971,3.288325,0.759471,0.465957,4.520911,1.910021,3.834915,0.884067,0.702457,4.116773,1.697955
1577722286.585738,116.000000,0.000000,4176.410156,4248.717773,4118.974121,4122.563965,4168.717773,450.000000,4.000000,,,,0.000000,4.000000,4.000000,4.000000,4.000000,4.000000,,,,,,,,,,,,,,,,,,,,,,,,,
1577722286.593633,117.000000,0.000000,4199.487305,4255.384766,4133.333496,4130.769043,4189.743652,450.000000,4.000000,,,,0.000000,4.000000,4.000000,4.000000,4.000000,4.000000,,,,,,,,,,,,,,,,,,,,,,,,,
1577722286.601429,118.000000,0.000000,4202.563965,4268.205078,4145.128418,4132.820313,4184.102539,450.000000,4.000000,,,,0.000000,4.000000,4.000000,4.000000,4.000000,4.000000,,,,,,,,,,,,,,,,,,,,,,,,,
1577722286.609325,119.000000,0.000000,4210.256348,4278.461426,4144.615234,4150.769043,4190.256348,16219.000000,4.000000,,,,0.000000,4.000000,4.000000,4.000000,4.000000,4.000000,,,,,,,,,,,,,,,,,,,,,,,,,
1577722286.617121,120.000000,0.000000,4209.743652,4257.948730,4138.974121,4154.358887,4201.025879,450.000000,4.000000,,,,0.000000,4.000000,4.000000,4.000000,4.000000,4.000000,,,,,,,,,,,,,,,,,,,,,,,,,
1577722286.625016,121.000000,0.000000,4186.666504,4243.077148,4123.589844,4122.051270,4177.948730,450.000000,4.000000,,,,0.000000,4.000000,4.000000,4.000000,4.000000,4.000000,,,,,,,,,,,,,,,,,,,,,,,,,
1577722286.632912,122.000000,0.000000,4182.051270,4256.410156,4114.358887,4110.769043,4173.846191,450.000000,4.000000,,,,0.000000,4.000000,4.000000,4.000000,4.000000,4.000000,,,,,,,,,,,,,,,,,,,,,,,,,
1577722286.640708,123.000000,0.000000,4199.487305,4268.205078,4137.436035,4132.307617,4192.307617,16219.000000,4.000000,,,,0.000000,4.000000,4.000000,4.000000,4.000000,4.000000,,,,,,,,,,,,,,,,,,,,,,,,,
1577722286.648505,124.000000,0.000000,4207.692383,4272.820313,4147.692383,4140.512695,4195.384766,450.000000,4.000000,,,,0.000000,4.000000,4.000000,4.000000,4.000000,4.000000,,,,,,,,,,,,,,,,,,,,,,,,,
1577722286.656200,125.000000,0.000000,4200.512695,4277.948730,4143.077148,4140.000000,4191.282227,450.000000,4.000000,,,,0.000000,4.000000,4.000000,4.000000,4.000000,4.000000,,,,,,,,,,,,,,,,,,,,,,,,,
1577722286.664096,126.000000,0.000000,4185.641113,4267.692383,4135.384766,4147.692383,4184.615234,450.000000,4.000000,,,,0.000000,4.000000,4.000000,4.000000,4.000000,4.000000,,,,,,,,,,,,,,,,,,,,,,,,,
1577722286.671892,127.000000,0.000000,4178.461426,4248.717773,4116.410156,4143.077148,4181.025879,239.000000,4.000000,,,,0.000000,4.000000,4.000000,4.000000,4.000000,4.000000,,,,,,,,,,,,,,,,,,,,,,,,,
1577722286.679788,0.000000,0.000000,4193.333496,4257.436035,4125.641113,4136.410156,4186.666504,450.000000,4.000000,,,,0.000000,4.000000,4.000000,4.000000,4.000000,4.000000,,,,,,,,,,,,,,,,,,,,,,,,,
1577722286.687584,1.000000,0.000000,4200.512695,4271.282227,4133.846191,4144.102539,4183.589844,450.000000,4.000000,,,,0.000000,4.000000,4.000000,4.000000,4.000000,4.000000,,,,,,,,,,,,,,,,,,,,,,,,,
1577722286.695480,2.000000,0.000000,4195.897461,4272.307617,4131.282227,4146.666504,4184.615234,16213.000000,4.000000,,,,0.000000,4.000000,4.000000,4.000000,4.000000,4.000000,,,,,,,,,,,,,,,,,,,,,,,,,
1577722286.703276,3.000000,0.000000,4187.179688,4265.641113,4133.333496,4134.358887,4188.205078,450.000000,4.000000,,,,0.000000,4.000000,4.000000,4.000000,4.000000,4.000000,5.953916,1.326493,0.732270,4.696205,1.596599,0.458343,0.635605,1.047448,3.125134,1.265970,1.065454,1.021410,0.479562,3.749413,1.010130,2.492815,0.720885,0.392851,4.600801,1.723384,3.792987,0.908730,0.743972,4.288060,1.475077
1577722286.711072,4.000000,0.000000,4170.256348,4250.769043,4115.384766,4120.512695,4175.897461,16242.000000,4.000000,,,,0.000000,4.000000,4.000000,4.000000,4.000000,4.000000,,,,,,,,,,,,,,,,,,,,,,,,,
1577722286.718768,5.000000,0.000000,4182.563965,4257.436035,4115.384766,4130.256348,4173.846191,450.000000,4.000000,,,,0.000000,4.000000,4.000000,4.000000,4.000000,4.000000,,,,,,,,,,,,,,,,,,,,,,,,,
1577722286.726564,6.000000,0.000000,4201.025879,4269.743652,4120.000000,4142.563965,4180.512695,16143.000000,4.000000,,,,0.000000,4.000000,4.000000,4.000000,4.000000,4.000000,,,,,,,,,,,,,,,,,,,,,,,,,
1577722286.734260,7.000000,0.000000,4205.641113,4275.897461,4133.333496,4149.743652,4191.282227,450.000000,4.000000,,,,0.000000,4.000000,4.000000,4.000000,4.000000,4.000000,,,,,,,,,,,,,,,,,,,,,,,,,
1577722286.742156,8.000000,0.000000,4215.897461,4283.077148,4160.000000,4164.615234,4206.153809,450.000000,4.000000,,,,0.000000,4.000000,4.000000,4.000000,4.000000,4.000000,,,,,,,,,,,,,,,,,,,,,,,,,
1577722286.749952,9.000000,0.000000,4210.256348,4273.846191,4142.051270,4152.820313,4197.436035,16175.000000,4.000000,,,,0.000000,4.000000,4.000000,4.000000,4.000000,4.000000,,,,,,,,,,,,,,,,,,,,,,,,,
1577722286.757848,10.000000,0.000000,4197.436035,4262.051270,4123.589844,4123.077148,4183.077148,450.000000,4.000000,,,,0.000000,4.000000,4.000000,4.000000,4.000000,4.000000,,,,,,,,,,,,,,,,,,,,,,,,,
1577722286.765644,11.000000,0.000000,4195.384766,4255.384766,4123.589844,4112.307617,4181.025879,16220.000000,4.000000,,,,0.000000,4.000000,4.000000,4.000000,4.000000,4.000000,,,,,,,,,,,,,,,,,,,,,,,,,
1577722286.773540,12.000000,0.000000,4206.153809,4258.974121,4129.230957,4130.256348,4190.769043,450.000000,4.000000,,,,0.000000,4.000000,4.000000,4.000000,4.000000,4.000000,,,,,,,,,,,,,,,,,,,,,,,,,
1577722286.781336,13.000000,0.000000,4217.948730,4272.307617,4146.666504,4162.563965,4206.153809,450.000000,4.000000,,,,0.000000,4.000000,4.000000,4.000000,4.000000,4.000000,,,,,,,,,,,,,,,,,,,,,,,,,
1577722286.789232,14.000000,0.000000,4210.256348,4270.256348,4132.307617,4155.384766,4199.487305,450.000000,4.000000,,,,0.000000,4.000000,4.000000,4.000000,4.000000,4.000000,,,,,,,,,,,,,,,,,,,,,,,,,
1577722286.797028,15.000000,0.000000,4192.307617,4253.846191,4116.410156,4119.487305,4170.769043,16220.000000,4.000000,,,,0.000000,4.000000,4.000000,4.000000,4.000000,4.000000,,,,,,,,,,,,,,,,,,,,,,,,,
1577722286.804923,16.000000,0.000000,4175.897461,4247.179688,4115.897461,4110.769043,4151.282227,0.000000,4.000000,,,,0.000000,4.000000,4.000000,4.000000,4.000000,4.000000,,,,,,,,,,,,,,,,,,,,,,,,,
1577722286.812819,17.000000,0.000000,4186.666504,4264.615234,4121.538574,4129.230957,4163.589844,0.000000,4.000000,,,,0.000000,4.000000,4.000000,4.000000,4.000000,4.000000,,,,,,,,,,,,,,,,,,,,,,,,,
1577722286.820615,18.000000,0.000000,4220.512695,4287.692383,4140.000000,4140.000000,4185.641113,0.000000,4.000000,,,,0.000000,4.000000,4.000000,4.000000,4.000000,4.000000,,,,,,,,,,,,,,,,,,,,,,,,,
1577722286.828411,19.000000,0.000000,4220.000000,4283.077148,4133.846191,4135.384766,4190.256348,0.000000,4.000000,,,,0.000000,4.000000,4.000000,4.000000,4.000000,4.000000,4.445331,1.369603,0.640175,4.760351,1.342138,0.424764,0.624353,1.056467,2.991904,0.998157,1.089309,1.123800,0.415565,3.759343,0.835286,1.804507,0.782177,0.319027,4.527698,1.528953,3.428559,1.021521,0.716043,4.312830,1.219703
1577722286.836207,20.000000,0.000000,4181.025879,4257.948730,4116.922852,4128.717773,4170.769043,0.000000,4.000000,,,,0.000000,4.000000,4.000000,4.000000,4.000000,4.000000,,,,,,,,,,,,,,,,,,,,,,,,,
1577722286.844003,21.000000,0.000000,4163.589844,4250.256348,4110.769043,4115.384766,4152.820313,0.000000,4.000000,,,,0.000000,4.000000,4.000000,4.000000,4.000000,4.000000,,,,,,,,,,,,,,,,,,,,,,,,,
1577722286.851899,22.000000,0.000000,4185.641113,4267.179688,4118.974121,4116.410156,4167.179688,0.000000,4.000000,,,,0.000000,4.000000,4.000000,4.000000,4.000000,4.000000,,,,,,,,,,,,,,,,,,,,,,,,,
1577722286.859695,23.000000,0.000000,4199.487305,4270.769043,4142.051270,4130.769043,4178.974121,0.000000,4.000000,,,,0.000000,4.000000,4.000000,4.000000,4.000000,4.000000,,,,,,,,,,,,,,,,,,,,,,,,,
1577722286.867390,24.000000,0.000000,4202.563965,4263.589844,4145.641113,4126.666504,4180.512695,0.000000,4.000000,,,,0.000000,4.000000,4.000000,4.000000,4.000000,4.000000,,,,,,,,,,,,,,,,,,,,,,,,,
1577722286.875186,25.000000,0.000000,4210.256348,4272.820313,4142.563965,4124.102539,4189.230957,0.000000,4.000000,,,,0.000000,4.000000,4.000000,4.000000,4.000000,4.000000,,,,,,,,,,,,,,,,,,,,,,,,,
1577722286.882882,26.000000,0.000000,4197.948730,4276.922852,4134.358887,4125.128418,4177.948730,0.000000,4.000000,,,,0.000000,4.000000,4.000000,4.000000,4.000000,4.000000,,,,,,,,,,,,,,,,,,,,,,,,,
1577722286.890678,27.000000,0.000000,4176.410156,4255.384766,4104.102539,4110.256348,4155.384766,0.000000,4.000000,,,,0.000000,4.000000,4.000000,4.000000,4.000000,4.000000,,,,,,,,,,,,,,,,,,,,,,,,,
1577722286.898374,28.000000,0.000000,4183.589844,4249.230957,4106.666504,4106.153809,4160.512695,0.000000,4.000000,,,,0.000000,4.000000,4.000000,4.000000,4.000000,4.000000,,,,,,,,,,,,,,,,,,,,,,,,,
1577722286.906170,29.000000,0.000000,4209.743652,4270.256348,4130.256348,4121.025879,4185.128418,0.000000,4.000000,,,,0.000000,4.000000,4.000000,4.000000,4.000000,4.000000,,,,,,,,,,,,,,,,,,,,,,,,,
1577722286.913866,30.000000,0.000000,4215.384766,4278.974121,4142.051270,4137.948730,4196.922852,0.000000,4.000000,,,,0.000000,4.000000,4.000000,4.000000,4.000000,4.000000,,,,,,,,,,,,,,,,,,,,,,,,,
1577722286.921762,31.000000,0.000000,4205.128418,4272.307617,4152.820313,4141.025879,4195.897461,0.000000,4.000000,,,,0.000000,4.000000,4.000000,4.000000,4.000000,4.000000,,,,,,,,,,,,,,,,,,,,,,,,,
1577722286.929558,32.000000,0.000000,4191.794922,4264.615234,4136.922852,4111.794922,4187.179688,0.000000,4.000000,,,,0.000000,4.000000,4.000000,4.000000,4.000000,4.000000,,,,,,,,,,,,,,,,,,,,,,,,,
1577722286.937454,33.000000,0.000000,4186.153809,4265.641113,4130.256348,4093.846191,4178.974121,0.000000,4.000000,,,,0.000000,4.000000,4.000000,4.000000,4.000000,4.000000,,,,,,,,,,,,,,,,,,,,,,,,,
1577722286.945250,34.000000,0.000000,4190.256348,4263.077148,4134.358887,4113.846191,4174.871582,0.000000,4.000000,,,,0.000000,4.000000,4.000000,4.000000,4.000000,4.000000,,,,,,,,,,,,,,,,,,,,,,,,,
1577722286.953146,35.000000,0.000000,4193.333496,4258.974121,4132.307617,4134.871582,4177.436035,0.000000,4.000000,,,,0.000000,4.000000,4.000000,4.000000,4.000000,4.000000,3.062152,1.482817,0.548890,4.655491,1.074779,0.466829,0.674227,1.035039,2.835502,0.794145,1.103121,1.208343,0.359057,3.622008,0.670448,1.321740,0.957836,0.258405,4.395667,1.370484,2.815004,1.211353,0.630601,4.210067,0.973419
1577722286.960942,36.000000,0.000000,4204.615234,4274.871582,4152.307617,4145.128418,4189.743652,0.000000,4.000000,,,,0.000000,4.000000,4.000000,4.000000,4.000000,4.000000,,,,,,,,,,,,,,,,,,,,,,,,,
1577722286.968837,37.000000,0.000000,4202.563965,4278.461426,4146.666504,4135.897461,4183.077148,0.000000,4.000000,,,,0.000000,4.000000,4.000000,4.000000,4.000000,4.000000,,,,,,,,,,,,,,,,,,,,,,,,,
1577722286.976633,38.000000,0.000000,4187.179688,4260.000000,4130.256348,4110.769043,4168.205078,0.000000,4.000000,,,,0.000000,4.000000,4.000000,4.000000,4.000000,4.000000,,,,,,,,,,,,,,,,,,,,,,,,,
1577722286.984529,39.000000,0.000000,4186.153809,4250.256348,4132.307617,4096.410156,4168.205078,0.000000,4.000000,,,,0.000000,4.000000,4.000000,4.000000,4.000000,4.000000,,,,,,,,,,,,,,,,,,,,,,,,,
1577722286.992325,40.000000,0.000000,4195.384766,4256.410156,4136.410156,4112.307617,4175.897461,0.000000,4.000000,,,,0.000000,4.000000,4.000000,4.000000,4.000000,4.000000,,,,,,,,,,,,,,,,,,,,,,,,,
1577722287.000220,41.000000,0.000000,4208.717773,4273.846191,4154.358887,4132.820313,4183.077148,0.000000,4.000000,,,,0.000000,4.000000,4.000000,4.000000,4.000000,4.000000,,,,,,,,,,,,,,,,,,,,,,,,,
1577722287.008016,42.000000,0.000000,4206.666504,4282.563965,4150.769043,4128.205078,4180.000000,0.000000,4.000000,,,,0.000000,4.000000,4.000000,4.000000,4.000000,4.000000,,,,,,,,,,,,,,,,,,,,,,,,,
1577722287.015912,43.000000,0.000000,4177.948730,4265.128418,4134.358887,4122.051270,4168.717773,0.000000,4.000000,,,,0.000000,4.000000,4.000000,4.000000,4.000000,4.000000,,,,,,,,,,,,,,,,,,,,,,,,,
1577722287.023708,44.000000,0.000000,4155.384766,4239.487305,4128.205078,4105.641113,4149.230957,0.000000,4.000000,,,,0.000000,4.000000,4.000000,4.000000,4.000000,4.000000,,,,,,,,,,,,,,,,,,,,,,,,,
1577722287.031404,45.000000,0.000000,4166.666504,4241.025879,4122.563965,4091.281982,4153.333496,0.000000,4.000000,,,,0.000000,4.000000,4.000000,4.000000,4.000000,4.000000,,,,,,,,,,,,,,,,,,,,,,,,,
1577722287.039199,46.000000,0.000000,4185.128418,4265.128418,4132.820313,4116.922852,4174.358887,0.000000,4.000000,,,,0.000000,4.000000,4.000000,4.000000,4.000000,4.000000,,,,,,,,,,,,,,,,,,,,,,,,,
1577722287.046895,47.000000,0.000000,4190.769043,4276.410156,4136.922852,4138.974121,4181.538574,0.000000,4.000000,,,,0.000000,4.000000,4.000000,4.000000,4.000000,4.000000,,,,,,,,,,,,,,,,,,,,,,,,,
1577722287.054791,48.000000,0.000000,4191.794922,4266.153809,4136.922852,4124.615234,4185.128418,0.000000,4.000000,,,,0.000000,4.000000,4.000000,4.000000,4.000000,4.000000,,,,,,,,,,,,,,,,,,,,,,,,,
1577722287.062587,49.000000,0.000000,4191.282227,4262.563965,4146.153809,4112.820313,4183.077148,0.000000,4.000000,,,,0.000000,4.000000,4.000000,4.000000,4.000000,4.000000,,,,,,,,,,,,,,,,,,,,,,,,,
1577722287.070483,50.000000,0.000000,4183.589844,4265.641113,4135.384766,4111.282227,4177.436035,0.000000,4.000000,,,,0.000000,4.000000,4.000000,4.000000,4.000000,4.000000,,,,,,,,,,,,,,,,,,,,,,,,,
1577722287.078279,51.000000,0.000000,4173.846191,4256.410156,4132.307617,4109.743652,4176.410156,0.000000,4.000000,,,,0.000000,4.000000,4.000000,4.000000,4.000000,4.000000,2.073182,1.609990,0.499931,4.459444,0.838294,0.558231,0.778786,0.997374,2.733822,0.656268,1.131006,1.277288,0.336298,3.429630,0.534455,1.060895,1.213006,0.229193,4.317215,1.263243,2.166958,1.428394,0.516791,4.034950,0.766904
1577722287.086175,52.000000,0.000000,4183.589844,4255.897461,4142.563965,4126.666504,4180.512695,0.000000,4.000000,,,,0.000000,4.000000,4.000000,4.000000,4.000000,4.000000,,,,,,,,,,,,,,,,,,,,,,,,,
1577722287.093971,53.000000,0.000000,4204.102539,4269.743652,4142.051270,4147.179688,4194.358887,0.000000,4.000000,,,,0.000000,4.000000,4.000000,4.000000,4.000000,4.000000,,,,,,,,,,,,,,,,,,,,,,,,,
1577722287.101867,54.000000,0.000000,4205.128418,4267.692383,4141.538574,4138.974121,4191.794922,0.000000,4.000000,,,,0.000000,4.000000,4.000000,4.000000,4.000000,4.000000,,,,,,,,,,,,,,,,,,,,,,,,,
1577722287.109663,55.000000,0.000000,4190.769043,4244.102539,4124.102539,4115.897461,4166.666504,0.000000,4.000000,,,,0.000000,4.000000,4.000000,4.000000,4.000000,4.000000,,,,,,,,,,,,,,,,,,,,,,,,,
1577722287.117559,56.000000,0.000000,4189.743652,4241.025879,4113.846191,4109.743652,4160.000000,0.000000,4.000000,,,,0.000000,4.000000,4.000000,4.000000,4.000000,4.000000,,,,,,,,,,,,,,,,,,,,,,,,,
1577722287.125355,57.000000,0.000000,4206.153809,4265.641113,4124.615234,4113.333496,4174.871582,0.000000,4.000000,,,,0.000000,4.000000,4.000000,4.000000,4.000000,4.000000,,,,,,,,,,,,,,,,,,,,,,,,,
1577722287.133251,58.000000,0.000000,4220.000000,4273.333496,4132.820313,4125.641113,4193.333496,0.000000,4.000000,,,,0.000000,4.000000,4.000000,4.000000,4.000000,4.000000,,,,,,,,,,,,,,,,,,,,,,,,,
1577722287.141047,59.000000,0.000000,4222.563965,4270.769043,4152.307617,4152.307617,4206.153809,0.000000,4.000000,,,,0.000000,4.000000,4.000000,4.000000,4.000000,4.000000,,,,,,,,,,,,,,,,,,,,,,,,,
1577722287.148943,60.000000,0.000000,4200.000000,4265.128418,4141.538574,4138.461426,4188.717773,0.000000,4.000000,,,,0.000000,4.000000,4.000000,4.000000,4.000000,4.000000,,,,,,,,,,,,,,,,,,,,,,,,,
1577722287.156739,61.000000,0.000000,4183.589844,4251.282227,4118.461426,4098.461426,4166.666504,0.000000,4.000000,,,,0.000000,4.000000,4.000000,4.000000,4.000000,4.000000,,,,,,,,,,,,,,,,,,,,,,,,,
1577722287.164635,62.000000,0.000000,4193.846191,4253.333496,4121.538574,4098.974121,4163.077148,0.000000,4.000000,,,,0.000000,4.000000,4.000000,4.000000,4.000000,4.000000,,,,,,,,,,,,,,,,,,,,,,,,,
1577722287.172431,63.000000,0.000000,4205.641113,4270.769043,4123.589844,4115.897461,4176.410156,0.000000,4.000000,,,,0.000000,4.000000,4.000000,4.000000,4.000000,4.000000,,,,,,,,,,,,,,,,,,,,,,,,,
1577722287.180327,64.000000,0.000000,4227.179688,4289.230957,4142.051270,4122.563965,4205.641113,450.000000,4.000000,,,,0.000000,4.000000,4.000000,4.000000,4.000000,4.000000,,,,,,,,,,,,,,,,,,,,,,,,,
1577722287.188123,65.000000,0.000000,4231.794922,4287.179688,4141.025879,4125.128418,4208.205078,450.000000,4.000000,,,,0.000000,4.000000,4.000000,4.000000,4.000000,4.000000,,,,,,,,,,,,,,,,,,,,,,,,,
1577722287.196019,66.000000,0.000000,4208.205078,4262.051270,4116.922852,4121.025879,4179.487305,16197.000000,4.000000,,,,0.000000,4.000000,4.000000,4.000000,4.000000,4.000000,,,,,,,,,,,,,,,,,,,,,,,,,
1577722287.203814,67.000000,0.000000,4210.769043,4251.794922,4128.205078,4123.589844,4177.436035,450.000000,4.000000,,,,0.000000,4.000000,4.000000,4.000000,4.000000,4.000000,1.543709,1.688063,0.517235,4.274149,0.663535,0.642453,0.899053,0.955646,2.724083,0.571365,1.186855,1.327510,0.365474,3.282637,0.437992,0.925494,1.470071,0.236052,4.371663,1.201128,1.643440,1.602335,0.416334,3.852323,0.620725
1577722287.211510,68.000000,0.000000,4241.025879,4271.794922,4145.128418,4132.820313,4211.794922,16241.000000,4.000000,,,,0.000000,4.000000,4.000000,4.000000,4.000000,4.000000,,,,,,,,,,,,,,,,,,,,,,,,,
1577722287.219306,69.000000,0.000000,4244.102539,4286.153809,4142.051270,4129.230957,4220.512695,450.000000,4.000000,,,,0.000000,4.000000,4.000000,4.000000,4.000000,4.000000,,,,,,,,,,,,,,,,,,,,,,,,,
1577722287.227002,70.000000,0.000000,4216.922852,4265.641113,4124.102539,4112.820313,4194.358887,16129.000000,4.000000,,,,0.000000,4.000000,4.000000,4.000000,4.000000,4.000000,,,,,,,,,,,,,,,,,,,,,,,,,
1577722287.234798,71.000000,0.000000,4207.179688,4245.641113,4115.897461,4099.487305,4184.615234,450.000000,4.000000,,,,0.000000,4.000000,4.000000,4.000000,4.000000,4.000000,,,,,,,,,,,,,,,,,,,,,,,,,
1577722287.242494,72.000000,0.000000,4220.000000,4255.384766,4130.256348,4105.128418,4191.794922,450.000000,4.000000,,,,0.000000,4.000000,4.000000,4.000000,4.000000,4.000000,,,,,,,,,,,,,,,,,,,,,,,,,
1577722287.250390,73.000000,0.000000,4241.538574,4280.512695,4137.436035,4135.897461,4205.128418,16172.000000,4.000000,,,,0.000000,4.000000,4.000000,4.000000,4.000000,4.000000,,,,,,,,,,,,,,,,,,,,,,,,,
1577722287.258186,74.000000,0.000000,4250.769043,4285.641113,4144.102539,4152.307617,4213.846191,450.000000,4.000000,,,,0.000000,4.000000,4.000000,4.000000,4.000000,4.000000,,,,,,,,,,,,,,,,,,,,,,,,,
1577722287.265982,75.000000,0.000000,4223.589844,4256.410156,4135.384766,4122.563965,4192.307617,16196.000000,4.000000,,,,0.000000,4.000000,4.000000,4.000000,4.000000,4.000000,,,,,,,,,,,,,,,,,,,,,,,,,
1577722287.273678,76.000000,0.000000,4203.077148,4243.077148,4112.820313,4097.436035,4170.256348,450.000000,4.000000,,,,0.000000,4.000000,4.000000,4.000000,4.000000,4.000000,,,,,,,,,,,,,,,,,,,,,,,,,
1577722287.281473,77.000000,0.000000,4221.538574,4266.153809,4124.615234,4110.256348,4176.922852,450.000000,4.000000,,,,0.000000,4.000000,4.000000,4.000000,4.000000,4.000000,,,,,,,,,,,,,,,,,,,,,,,,,
1577722287.289169,78.000000,0.000000,4235.384766,4274.358887,4132.820313,4118.974121,4187.692383,450.000000,4.000000,,,,0.000000,4.000000,4.000000,4.000000,4.000000,4.000000,,,,,,,,,,,,,,,,,,,,,,,,,
1577722287.296965,79.000000,0.000000,4239.487305,4274.358887,4143.077148,4129.743652,4200.512695,16196.000000,4.000000,,,,0.000000,4.000000,4.000000,4.000000,4.000000,4.000000,,,,,,,,,,,,,,,,,,,,,,,,,
1577722287.304661,80.000000,0.000000,4237.948730,4270.769043,4148.717773,4142.563965,4207.179688,450.000000,4.000000,,,,0.000000,4.000000,4.000000,4.000000,4.000000,4.000000,,,,,,,,,,,,,,,,,,,,,,,,,
1577722287.312557,81.000000,0.000000,4215.384766,4245.641113,4118.974121,4116.922852,4189.230957,450.000000,4.000000,,,,0.000000,4.000000,4.000000,4.000000,4.000000,4.000000,,,,,,,,,,,,,,,,,,,,,,,,,
1577722287.320353,82.000000,0.000000,4212.820313,4247.692383,4113.846191,4102.051270,4179.487305,450.000000,4.000000,,,,0.000000,4.000000,4.000000,4.000000,4.000000,4.000000,,,,,,,,,,,,,,,,,,,,,,,,,
1577722287.328149,83.000000,0.000000,4225.641113,4265.128418,4117.948730,4116.922852,4185.128418,16196.000000,4.000000,,,,0.000000,4.000000,4.000000,4.000000,4.000000,4.000000,1.378373,1.672503,0.599788,4.172546,0.566175,0.669175,0.983767,0.916129,2.793716,0.528061,1.258245,1.346282,0.455486,3.233797,0.382793,0.860048,1.638174,0.269151,4.568779,1.166552,1.357803,1.662629,0.363320,3.698806,0.542033
1577722287.335845,84.000000,0.000000,4229.230957,4260.512695,4122.563965,4129.743652,4194.358887,450.000000,4.000000,,,,0.000000,4.000000,4.000000,4.000000,4.000000,4.000000,,,,,,,,,,,,,,,,,,,,,,,,,
1577722287.343741,85.000000,0.000000,4231.282227,4258.974121,4135.897461,4126.153809,4198.974121,450.000000,4.000000,,,,0.000000,4.000000,4.000000,4.000000,4.000000,4.000000,,,,,,,,,,,,,,,,,,,,,,,,,
1577722287.351537,86.000000,0.000000,4227.692383,4263.077148,4120.512695,4110.256348,4191.282227,450.000000,4.000000,,,,0.000000,4.000000,4.000000,4.000000,4.000000,4.000000,,,,,,,,,,,,,,,,,,,,,,,,,
1577722287.359433,87.000000,0.000000,4227.179688,4264.102539,4113.846191,4112.820313,4184.615234,16196.000000,4.000000,,,,0.000000,4.000000,4.000000,4.000000,4.000000,4.000000,,,,,,,,,,,,,,,,,,,,,,,,,
1577722287.367229,88.000000,0.000000,4224.615234,4256.410156,4114.871582,4118.461426,4184.102539,450.000000,4.000000,,,,0.000000,4.000000,4.000000,4.000000,4.000000,4.000000,,,,,,,,,,,,,,,,,,,,,,,,,
1577722287.375125,89.000000,0.000000,4222.563965,4261.538574,4117.948730,4117.948730,4188.205078,450.000000,4.000000,,,,0.000000,4.000000,4.000000,4.000000,4.000000,4.000000,,,,,,,,,,,,,,,,,,,,,,,,,
1577722287.382921,90.000000,0.000000,4237.436035,4284.102539,4134.358887,4130.256348,4202.051270,450.000000,4.000000,,,,0.000000,4.000000,4.000000,4.000000,4.000000,4.000000,,,,,,,,,,,,,,,,,,,,,,,,,
1577722287.390816,91.000000,0.000000,4243.589844,4277.948730,4123.077148,4131.282227,4208.205078,16196.000000,4.000000,,,,0.000000,4.000000,4.000000,4.000000,4.000000,4.000000,,,,,,,,,,,,,,,,,,,,,,,,,
1577722287.398612,92.000000,0.000000,4234.358887,4261.025879,4110.769043,4113.333496,4195.897461,450.000000,4.000000,,,,0.000000,4.000000,4.000000,4.000000,4.000000,4.000000,,,,,,,,,,,,,,,,,,,,,,,,,
1577722287.406508,93.000000,0.000000,4220.512695,4268.205078,4108.717773,4097.436035,4184.102539,450.000000,4.000000,,,,0.000000,4.000000,4.000000,4.000000,4.000000,4.000000,,,,,,,,,,,,,,,,,,,,,,,,,
1577722287.414304,94.000000,0.000000,4220.512695,4282.563965,4110.769043,4111.282227,4190.256348,450.000000,4.000000,,,,0.000000,4.000000,4.000000,4.000000,4.000000,4.000000,,,,,,,,,,,,,,,,,,,,,,,,,
1577722287.422000,95.000000,0.000000,4240.512695,4288.717773,4128.205078,4144.102539,4209.230957,16196.000000,4.000000,,,,0.000000,4.000000,4.000000,4.000000,4.000000,4.000000,,,,,,,,,,,,,,,,,,,,,,,,,
1577722287.429795,96.000000,0.000000,4254.871582,4288.717773,4126.666504,4146.153809,4222.563965,450.000000,4.000000,,,,0.000000,4.000000,4.000000,4.000000,4.000000,4.000000,,,,,,,,,,,,,,,,,,,,,,,,,
1577722287.437491,97.000000,0.000000,4254.871582,4285.128418,4118.974121,4117.948730,4220.000000,450.000000,4.000000,,,,0.000000,4.000000,4.000000,4.000000,4.000000,4.000000,,,,,,,,,,,,,,,,,,,,,,,,,
1577722287.445287,98.000000,0.000000,4254.871582,4274.358887,4114.358887,4100.000000,4209.743652,450.000000,4.000000,,,,0.000000,4.000000,4.000000,4.000000,4.000000,4.000000,,,,,,,,,,,,,,,,,,,,,,,,,
1577722287.452983,99.000000,0.000000,4270.769043,4271.282227,4114.871582,4109.743652,4221.538574,16196.000000,4.000000,,,,0.000000,4.000000,4.000000,4.000000,4.000000,4.000000,1.420849,1.564435,0.735035,4.174225,0.537686,0.617454,0.998298,0.874892,2.908574,0.517367,1.300525,1.313858,0.601066,3.272939,0.357232,0.809813,1.637401,0.311767,4.863503,1.129512,1.290378,1.569858,0.383506,3.594123,0.517521
1577722287.460779,100.000000,0.000000,4298.974121,4281.538574,4134.871582,4115.384766,4239.487305,450.000000,4.000000,,,,0.000000,4.000000,4.000000,4.000000,4.000000,4.000000,,,,,,,,,,,,,,,,,,,,,,,,,
1577722287.468475,101.000000,0.000000,4310.769043,4288.717773,4131.794922,4099.487305,4241.538574,450.000000,4.000000,,,,0.000000,4.000000,4.000000,4.000000,4.000000,4.000000,,,,,,,,,,,,,,,,,,,,,,,,,
1577722287.476270,102.000000,0.000000,4290.256348,4280.512695,4121.025879,4089.230713,4228.205078,450.000000,4.000000,,,,0.000000,4.000000,4.000000,4.000000,4.000000,4.000000,,,,,,,,,,,,,,,,,,,,,,,,,
1577722287.483966,103.000000,0.000000,4269.743652,4257.948730,4122.051270,4085.128174,4201.025879,16196.000000,4.000000,,,,0.000000,4.000000,4.000000,4.000000,4.000000,4.000000,,,,,,,,,,,,,,,,,,,,,,,,,
1577722287.491762,104.000000,0.000000,4273.846191,4249.743652,4116.922852,4088.205078,4195.897461,450.000000,4.000000,,,,0.000000,4.000000,4.000000,4.000000,4.000000,4.000000,,,,,,,,,,,,,,,,,,,,,,,,,
1577722287.499458,105.000000,0.000000,4273.846191,4263.077148,4127.692383,4103.077148,4206.666504,450.000000,4.000000,,,,0.000000,4.000000,4.000000,4.000000,4.000000,4.000000,,,,,,,,,,,,,,,,,,,,,,,,,
1577722287.507354,106.000000,0.000000,4279.487305,4280.000000,4141.538574,4112.820313,4214.871582,450.000000,4.000000,,,,0.000000,4.000000,4.000000,4.000000,4.000000,4.000000,,,,,,,,,,,,,,,,,,,,,,,,,
1577722287.515150,107.000000,0.000000,4291.794922,4283.077148,4147.692383,4119.487305,4226.666504,16196.000000,4.000000,,,,0.000000,4.000000,4.000000,4.000000,4.000000,4.000000,,,,,,,,,,,,,,,,,,,,,,,,,
1577722287.523046,108.000000,0.000000,4273.333496,4268.205078,4146.153809,4116.922852,4214.358887,450.000000,4.000000,,,,0.000000,4.000000,4.000000,4.000000,4.000000,4.000000,,,,,,,,,,,,,,,,,,,,,,,,,
1577722287.530842,109.000000,0.000000,4246.666504,4254.358887,4125.641113,4101.538574,4188.205078,450.000000,4.000000,,,,0.000000,4.000000,4.000000,4.000000,4.000000,4.000000,,,,,,,,,,,,,,,,,,,,,,,,,
1577722287.538738,110.000000,0.000000,4249.743652,4259.487305,4128.205078,4090.769287,4185.128418,450.000000,4.000000,,,,0.000000,4.000000,4.000000,4.000000,4.000000,4.000000,,,,,,,,,,,,,,,,,,,,,,,,,
1577722287.546534,111.000000,0.000000,4273.333496,4276.922852,4142.563965,4100.512695,4203.077148,16196.000000,4.000000,,,,0.000000,4.000000,4.000000,4.000000,4.000000,4.000000,,,,,,,,,,,,,,,,,,,,,,,,,
1577722287.554430,112.000000,0.000000,4290.256348,4284.615234,4145.641113,4126.666504,4225.641113,450.000000,4.000000,,,,0.000000,4.000000,4.000000,4.000000,4.000000,4.000000,,,,,,,,,,,,,,,,,,,,,,,,,
1577722287.562226,113.000000,0.000000,4277.948730,4275.897461,4151.794922,4122.051270,4215.897461,450.000000,4.000000,,,,0.000000,4.000000,4.000000,4.000000,4.000000,4.000000,,,,,,,,,,,,,,,,,,,,,,,,,
1577722287.570122,114.000000,0.000000,4244.615234,4256.410156,4131.282227,4075.384521,4178.461426,450.000000,4.000000,,,,0.000000,4.000000,4.000000,4.000000,4.000000,4.000000,,,,,,,,,,,,,,,,,,,,,,,,,
1577722287.577918,115.000000,0.000000,4250.769043,4251.794922,4131.794922,4084.102539,4185.641113,16196.000000,4.000000,,,,0.000000,4.000000,4.000000,4.000000,4.000000,4.000000,1.518821,1.380036,0.892152,4.243403,0.556466,0.514763,0.933723,0.820772,3.029772,0.540714,1.264156,1.213581,0.768923,3.342168,0.346989,0.750867,1.454203,0.344896,5.192125,1.063876,1.387131,1.334992,0.472574,3.549653,0.527222
1577722287.585814,116.000000,0.000000,4281.025879,4265.128418,4158.974121,4136.410156,4215.384766,450.000000,4.000000,,,,0.000000,4.000000,4.000000,4.000000,4.000000,4.000000,,,,,,,,,,,,,,,,,,,,,,,,,
1577722287.593610,117.000000,0.000000,4261.025879,4269.743652,4149.743652,4123.589844,4208.717773,450.000000,4.000000,,,,0.000000,4.000000,4.000000,4.000000,4.000000,4.000000,,,,,,,,,,,,,,,,,,,,,,,,,
1577722287.601505,118.000000,0.000000,4242.051270,4278.461426,4143.589844,4097.436035,4200.512695,450.000000,4.000000,,,,0.000000,4.000000,4.000000,4.000000,4.000000,4.000000,,,,,,,,,,,,,,,,,,,,,,,,,
1577722287.609301,119.000000,0.000000,4256.410156,4281.025879,4145.641113,4118.461426,4208.717773,16196.000000,4.000000,,,,0.000000,4.000000,4.000000,4.000000,4.000000,4.000000,,,,,,,,,,,,,,,,,,,,,,,,,
1577722287.616997,120.000000,0.000000,4269.743652,4274.871582,4157.436035,4133.846191,4225.641113,450.000000,4.000000,,,,0.000000,4.000000,4.000000,4.000000,4.000000,4.000000,,,,,,,,,,,,,,,,,,,,,,,,,
1577722287.624793,121.000000,0.000000,4270.769043,4287.692383,4175.384766,4121.025879,4233.846191,450.000000,4.000000,,,,0.000000,4.000000,4.000000,4.000000,4.000000,4.000000,,,,,,,,,,,,,,,,,,,,,,,,,
1577722287.632489,122.000000,0.000000,4244.615234,4281.538574,4152.307617,4105.641113,4208.205078,450.000000,4.000000,,,,0.000000,4.000000,4.000000,4.000000,4.000000,4.000000,,,,,,,,,,,,,,,,,,,,,,,,,
1577722287.640385,123.000000,0.000000,4222.051270,4251.794922,4139.487305,4107.179688,4182.051270,16196.000000,4.000000,,,,0.000000,4.000000,4.000000,4.000000,4.000000,4.000000,,,,,,,,,,,,,,,,,,,,,,,,,
1577722287.648181,124.000000,0.000000,4228.205078,4246.666504,4148.717773,4112.307617,4180.000000,450.000000,4.000000,,,,0.000000,4.000000,4.000000,4.000000,4.000000,4.000000,,,,,,,,,,,,,,,,,,,,,,,,,
1577722287.655977,125.000000,0.000000,4251.282227,4272.307617,4158.461426,4113.333496,4197.948730,450.000000,4.000000,,,,0.000000,4.000000,4.000000,4.000000,4.000000,4.000000,,,,,,,,,,,,,,,,,,,,,,,,,
1577722287.663673,126.000000,0.000000,4263.077148,4291.794922,4168.717773,4121.025879,4211.794922,450.000000,4.000000,,,,0.000000,4.000000,4.000000,4.000000,4.000000,4.000000,,,,,,,,,,,,,,,,,,,,,,,,,
1577722287.671569,127.000000,0.000000,4250.256348,4274.871582,4150.769043,4112.307617,4203.589844,239.000000,4.000000,,,,0.000000,4.000000,4.000000,4.000000,4.000000,4.000000,,,,,,,,,,,,,,,,,,,,,,,,,
1577722287.679365,0.000000,0.000000,4236.922852,4252.820313,4135.897461,4093.846191,4189.743652,450.000000,4.000000,,,,0.000000,4.000000,4.000000,4.000000,4.000000,4.000000,,,,,,,,,,,,,,,,,,,,,,,,,
1577722287.687261,1.000000,0.000000,4230.256348,4250.256348,4135.384766,4093.333252,4176.922852,450.000000,4.000000,,,,0.000000,4.000000,4.000000,4.000000,4.000000,4.000000,,,,,,,,,,,,,,,,,,,,,,,,,
1577722287.695057,2.000000,0.000000,4240.512695,4257.948730,4146.666504,4109.230957,4188.717773,16206.000000,4.000000,,,,0.000000,4.000000,4.000000,4.000000,4.000000,4.000000,,,,,,,,,,,,,,,,,,,,,,,,,
1577722287.702853,3.000000,0.000000,4260.512695,4269.230957,4172.820313,4127.692383,4215.384766,450.000000,4.000000,,,,0.000000,4.000000,4.000000,4.000000,4.000000,4.000000,1.573213,1.174643,1.043032,4.324217,0.598779,0.431442,0.811827,0.746433,3.128010,0.594460,1.111190,1.050740,0.911308,3.380580,0.341520,0.682786,1.149559,0.358298,5.505549,0.969319,1.582162,1.028142,0.605871,3.579529,0.550909
1577722287.710549,4.000000,0.000000,4251.282227,4267.692383,4155.897461,4125.641113,4207.179688,16248.000000,4.000000,,,,0.000000,4.000000,4.000000,4.000000,4.000000,4.000000,,,,,,,,,,,,,,,,,,,,,,,,,
1577722287.718344,5.000000,0.000000,4221.025879,4258.461426,4126.666504,4102.563965,4175.897461,450.000000,4.000000,,,,0.000000,4.000000,4.000000,4.000000,4.000000,4.000000,,,,,,,,,,,,,,,,,,,,,,,,,
1577722287.726040,6.000000,0.000000,4230.769043,4262.563965,4143.589844,4100.512695,4185.641113,16130.000000,4.000000,,,,0.000000,4.000000,4.000000,4.000000,4.000000,4.000000,,,,,,,,,,,,,,,,,,,,,,,,,
1577722287.733936,7.000000,0.000000,4267.692383,4276.410156,4173.846191,4128.205078,4224.615234,450.000000,4.000000,,,,0.000000,4.000000,4.000000,4.000000,4.000000,4.000000,,,,,,,,,,,,,,,,,,,,,,,,,
1577722287.741732,8.000000,0.000000,4249.230957,4276.922852,4167.179688,4129.230957,4208.717773,450.000000,4.000000,,,,0.000000,4.000000,4.000000,4.000000,4.000000,4.000000,,,,,,,,,,,,,,,,,,,,,,,,,
1577722287.749628,9.000000,0.000000,4215.384766,4258.461426,4138.461426,4100.512695,4175.897461,16176.000000,4.000000,,,,0.000000,4.000000,4.000000,4.000000,4.000000,4.000000,,,,,,,,,,,,,,,,,,,,,,,,,
1577722287.757424,10.000000,0.000000,4229.230957,4249.743652,4142.051270,4094.871826,4184.102539,450.000000,4.000000,,,,0.000000,4.000000,4.000000,4.000000,4.000000,4.000000,,,,,,,,,,,,,,,,,,,,,,,,,
1577722287.765320,11.000000,0.000000,4246.153809,4262.563965,4157.436035,4104.615234,4193.333496,16191.000000,4.000000,,,,0.000000,4.000000,4.000000,4.000000,4.000000,4.000000,,,,,,,,,,,,,,,,,,,,,,,,,
1577722287.773116,12.000000,0.000000,4248.717773,4274.871582,4160.000000,4109.743652,4194.871582,450.000000,4.000000,,,,0.000000,4.000000,4.000000,4.000000,4.000000,4.000000,,,,,,,,,,,,,,,,,,,,,,,,,
1577722287.781012,13.000000,0.000000,4248.205078,4268.717773,4160.512695,4115.384766,4193.333496,450.000000,4.000000,,,,0.000000,4.000000,4.000000,4.000000,4.000000,4.000000,,,,,,,,,,,,,,,,,,,,,,,,,
1577722287.788808,14.000000,0.000000,4232.820313,4257.436035,4133.333496,4110.769043,4181.025879,450.000000,4.000000,,,,0.000000,4.000000,4.000000,4.000000,4.000000,4.000000,,,,,,,,,,,,,,,,,,,,,,,,,
1577722287.796504,15.000000,0.000000,4224.102539,4255.384766,4119.487305,4106.666504,4179.487305,16191.000000,4.000000,,,,0.000000,4.000000,4.000000,4.000000,4.000000,4.000000,,,,,,,,,,,,,,,,,,,,,,,,,
1577722287.804400,16.000000,0.000000,4240.000000,4259.487305,4146.153809,4120.000000,4199.487305,0.000000,4.000000,,,,0.000000,4.000000,4.000000,4.000000,4.000000,4.000000,,,,,,,,,,,,,,,,,,,,,,,,,
1577722287.812196,17.000000,0.000000,4255.384766,4270.769043,4155.384766,4127.692383,4215.384766,0.000000,4.000000,,,,0.000000,4.000000,4.000000,4.000000,4.000000,4.000000,,,,,,,,,,,,,,,,,,,,,,,,,
1577722287.819992,18.000000,0.000000,4245.128418,4276.922852,4150.256348,4110.769043,4203.589844,0.000000,4.000000,,,,0.000000,4.000000,4.000000,4.000000,4.000000,4.000000,,,,,,,,,,,,,,,,,,,,,,,,,
1577722287.827688,19.000000,0.000000,4215.897461,4260.000000,4128.205078,4083.589844,4179.487305,0.000000,4.000000,,,,0.000000,4.000000,4.000000,4.000000,4.000000,4.000000,1.651558,1.034187,1.165765,4.363956,0.657306,0.445469,0.675297,0.646068,3.185045,0.666300,0.881821,0.849910,0.988699,3.346661,0.341091,0.635240,0.842197,0.365221,5.752851,0.879797,1.862909,0.745353,0.751354,3.686294,0.583607
1577722287.835484,20.000000,0.000000,4212.307617,4242.051270,4116.410156,4085.641113,4175.897461,0.000000,4.000000,,,,0.000000,4.000000,4.000000,4.000000,4.000000,4.000000,,,,,,,,,,,,,,,,,,,,,,,,,
1577722287.843180,21.000000,0.000000,4234.871582,4247.692383,4140.000000,4111.282227,4190.256348,0.000000,4.000000,,,,0.000000,4.000000,4.000000,4.000000,4.000000,4.000000,,,,,,,,,,,,,,,,,,,,,,,,,
1577722287.850975,22.000000,0.000000,4243.077148,4266.153809,4149.230957,4120.000000,4201.025879,0.000000,4.000000,,,,0.000000,4.000000,4.000000,4.000000,4.000000,4.000000,,,,,,,,,,,,,,,,,,,,,,,,,
1577722287.858671,23.000000,0.000000,4250.256348,4273.333496,4156.410156,4128.205078,4209.230957,0.000000,4.000000,,,,0.000000,4.000000,4.000000,4.000000,4.000000,4.000000,,,,,,,,,,,,,,,,,,,,,,,,,
1577722287.866467,24.000000,0.000000,4252.820313,4252.307617,4150.256348,4116.922852,4204.102539,0.000000,4.000000,,,,0.000000,4.000000,4.000000,4.000000,4.000000,4.000000,,,,,,,,,,,,,,,,,,,,,,,,,
1577722287.874163,25.000000,0.000000,4251.794922,4247.692383,4135.897461,4099.487305,4201.538574,0.000000,4.000000,,,,0.000000,4.000000,4.000000,4.000000,4.000000,4.000000,,,,,,,,,,,,,,,,,,,,,,,,,
1577722287.882059,26.000000,0.000000,4273.846191,4273.333496,4158.461426,4134.358887,4226.666504,0.000000,4.000000,,,,0.000000,4.000000,4.000000,4.000000,4.000000,4.000000,,,,,,,,,,,,,,,,,,,,,,,,,
1577722287.889855,27.000000,0.000000,4264.615234,4266.666504,4149.230957,4145.128418,4224.102539,0.000000,4.000000,,,,0.000000,4.000000,4.000000,4.000000,4.000000,4.000000,,,,,,,,,,,,,,,,,,,,,,,,,
1577722287.897651,28.000000,0.000000,4226.153809,4249.230957,4120.512695,4097.948730,4189.230957,0.000000,4.000000,,,,0.000000,4.000000,4.000000,4.000000,4.000000,4.000000,,,,,,,,,,,,,,,,,,,,,,,,,
1577722287.905347,29.000000,0.000000,4223.589844,4251.794922,4115.897461,4084.102539,4176.410156,0.000000,4.000000,,,,0.000000,4.000000,4.000000,4.000000,4.000000,4.000000,,,,,,,,,,,,,,,,,,,,,,,,,
1577722287.913143,30.000000,0.000000,4238.974121,4245.128418,4117.436035,4112.820313,4187.179688,0.000000,4.000000,,,,0.000000,4.000000,4.000000,4.000000,4.000000,4.000000,,,,,,,,,,,,,,,,,,,,,,,,,
1577722287.920839,31.000000,0.000000,4243.589844,4250.256348,4134.358887,4121.025879,4197.948730,0.000000,4.000000,,,,0.000000,4.000000,4.000000,4.000000,4.000000,4.000000,,,,,,,,,,,,,,,,,,,,,,,,,
1577722287.928735,32.000000,0.000000,4238.974121,4265.128418,4133.846191,4106.153809,4197.436035,0.000000,4.000000,,,,0.000000,4.000000,4.000000,4.000000,4.000000,4.000000,,,,,,,,,,,,,,,,,,,,,,,,,
1577722287.936531,33.000000,0.000000,4225.128418,4259.487305,4124.102539,4103.077148,4185.641113,0.000000,4.000000,,,,0.000000,4.000000,4.000000,4.000000,4.000000,4.000000,,,,,,,,,,,,,,,,,,,,,,,,,
1577722287.944328,34.000000,0.000000,4230.256348,4255.384766,4133.333496,4108.205078,4186.666504,0.000000,4.000000,,,,0.000000,4.000000,4.000000,4.000000,4.000000,4.000000,,,,,,,,,,,,,,,,,,,,,,,,,
1577722287.952124,35.000000,0.000000,4255.384766,4265.128418,4146.153809,4123.077148,4212.820313,0.000000,4.000000,,,,0.000000,4.000000,4.000000,4.000000,4.000000,4.000000,1.869074,1.023440,1.243570,4.317348,0.751650,0.591505,0.565096,0.534138,3.192947,0.747589,0.630768,0.646045,0.979718,3.218073,0.367691,0.632025,0.650871,0.382320,5.855510,0.850703,2.198778,0.561784,0.881764,3.833936,0.647475
1577722287.960020,36.000000,0.000000,4251.282227,4269.230957,4154.358887,4128.205078,4212.307617,0.000000,4.000000,,,,0.000000,4.000000,4.000000,4.000000,4.000000,4.000000,,,,,,,,,,,,,,,,,,,,,,,,,
1577722287.967815,37.000000,0.000000,4214.871582,4261.025879,4130.256348,4095.897461,4175.384766,0.000000,4.000000,,,,0.000000,4.000000,4.000000,4.000000,4.000000,4.000000,,,,,,,,,,,,,,,,,,,,,,,,,
1577722287.975711,38.000000,0.000000,4203.589844,4251.282227,4111.794922,4084.615479,4166.666504,0.000000,4.000000,,,,0.000000,4.000000,4.000000,4.000000,4.000000,4.000000,,,,,,,,,,,,,,,,,,,,,,,,,
1577722287.983507,39.000000,0.000000,4223.077148,4255.384766,4132.820313,4115.384766,4181.538574,0.000000,4.000000,,,,0.000000,4.000000,4.000000,4.000000,4.000000,4.000000,,,,,,,,,,,,,,,,,,,,,,,,,
1577722287.991203,40.000000,0.000000,4238.461426,4265.641113,4145.128418,4132.307617,4195.384766,0.000000,4.000000,,,,0.000000,4.000000,4.000000,4.000000,4.000000,4.000000,,,,,,,,,,,,,,,,,,,,,,,,,
1577722287.998999,41.000000,0.000000,4243.077148,4272.820313,4149.743652,4131.794922,4207.692383,0.000000,4.000000,,,,0.000000,4.000000,4.000000,4.000000,4.000000,4.000000,,,,,,,,,,,,,,,,,,,,,,,,,
1577722288.006695,42.000000,0.000000,4232.307617,4269.230957,4141.025879,4114.871582,4195.897461,0.000000,4.000000,,,,0.000000,4.000000,4.000000,4.000000,4.000000,4.000000,,,,,,,,,,,,,,,,,,,,,,,,,
1577722288.014490,43.000000,0.000000,4227.692383,4263.589844,4134.871582,4103.589844,4186.153809,0.000000,4.000000,,,,0.000000,4.000000,4.000000,4.000000,4.000000,4.000000,,,,,,,,,,,,,,,,,,,,,,,,,
1577722288.022186,44.000000,0.000000,4256.410156,4278.974121,4165.128418,4136.922852,4213.333496,0.000000,4.000000,,,,0.000000,4.000000,4.000000,4.000000,4.000000,4.000000,,,,,,,,,,,,,,,,,,,,,,,,,
1577722288.029982,45.000000,0.000000,4254.871582,4292.820313,4169.743652,4150.769043,4215.897461,0.000000,4.000000,,,,0.000000,4.000000,4.000000,4.000000,4.000000,4.000000,,,,,,,,,,,,,,,,,,,,,,,,,
1577722288.037678,46.000000,0.000000,4212.820313,4283.077148,4161.025879,4118.974121,4180.512695,0.000000,4.000000,,,,0.000000,4.000000,4.000000,4.000000,4.000000,4.000000,,,,,,,,,,,,,,,,,,,,,,,,,
1577722288.045474,47.000000,0.000000,4202.051270,4258.974121,4148.717773,4100.000000,4164.102539,0.000000,4.000000,,,,0.000000,4.000000,4.000000,4.000000,4.000000,4.000000,,,,,,,,,,,,,,,,,,,,,,,,,
1577722288.053170,48.000000,0.000000,4219.487305,4255.897461,4131.282227,4113.333496,4182.563965,0.000000,4.000000,,,,0.000000,4.000000,4.000000,4.000000,4.000000,4.000000,,,,,,,,,,,,,,,,,,,,,,,,,
1577722288.061066,49.000000,0.000000,4228.205078,4288.205078,4160.000000,4133.846191,4201.538574,0.000000,4.000000,,,,0.000000,4.000000,4.000000,4.000000,4.000000,4.000000,,,,,,,,,,,,,,,,,,,,,,,,,
1577722288.068862,50.000000,0.000000,4203.589844,4285.641113,4159.487305,4113.846191,4179.487305,0.000000,4.000000,,,,0.000000,4.000000,4.000000,4.000000,4.000000,4.000000,,,,,,,,,,,,,,,,,,,,,,,,,
1577722288.076758,51.000000,0.000000,4167.692383,4248.717773,4118.974121,4082.051270,4146.666504,0.000000,4.000000,,,,0.000000,4.000000,4.000000,4.000000,4.000000,4.000000,2.256155,1.154049,1.281204,4.151588,0.905004,0.833825,0.501009,0.436921,3.146582,0.831838,0.421511,0.479954,0.890658,2.996859,0.448914,0.674569,0.651078,0.427969,5.721590,0.923179,2.539811,0.500252,0.992691,3.942862,0.769820
1577722288.084554,52.000000,0.000000,4166.153809,4252.820313,4119.487305,4097.948730,4140.000000,0.000000,4.000000,,,,0.000000,4.000000,4.000000,4.000000,4.000000,4.000000,,,,,,,,,,,,,,,,,,,,,,,,,
1577722288.092450,53.000000,0.000000,4184.615234,4277.436035,4133.333496,4128.205078,4152.820313,0.000000,4.000000,,,,0.000000,4.000000,4.000000,4.000000,4.000000,4.000000,,,,,,,,,,,,,,,,,,,,,,,,,
1577722288.100246,54.000000,0.000000,4185.128418,4275.897461,4135.897461,4127.692383,4161.025879,0.000000,4.000000,,,,0.000000,4.000000,4.000000,4.000000,4.000000,4.000000,,,,,,,,,,,,,,,,,,,,,,,,,
1577722288.108142,55.000000,0.000000,4165.128418,4254.358887,4121.025879,4118.461426,4144.615234,0.000000,4.000000,,,,0.000000,4.000000,4.000000,4.000000,4.000000,4.000000,,,,,,,,,,,,,,,,,,,,,,,,,
1577722288.115938,56.000000,0.000000,4148.205078,4238.461426,4107.179688,4106.666504,4126.153809,0.000000,4.000000,,,,0.000000,4.000000,4.000000,4.000000,4.000000,4.000000,,,,,,,,,,,,,,,,,,,,,,,,,
1577722288.123834,57.000000,0.000000,4151.282227,4252.307617,4114.358887,4096.410156,4117.436035,0.000000,4.000000,,,,0.000000,4.000000,4.000000,4.000000,4.000000,4.000000,,,,,,,,,,,,,,,,,,,,,,,,,
1577722288.131630,58.000000,0.000000,4171.282227,4277.948730,4118.974121,4114.358887,4132.820313,0.000000,4.000000,,,,0.000000,4.000000,4.000000,4.000000,4.000000,4.000000,,,,,,,,,,,,,,,,,,,,,,,,,
1577722288.139526,59.000000,0.000000,4177.436035,4278.461426,4123.077148,4126.153809,4152.307617,0.000000,4.000000,,,,0.000000,4.000000,4.000000,4.000000,4.000000,4.000000,,,,,,,,,,,,,,,,,,,,,,,,,
1577722288.147422,60.000000,0.000000,4160.000000,4258.974121,4114.358887,4111.794922,4141.025879,0.000000,4.000000,,,,0.000000,4.000000,4.000000,4.000000,4.000000,4.000000,,,,,,,,,,,,,,,,,,,,,,,,,
1577722288.155318,61.000000,0.000000,4157.948730,4253.846191,4105.128418,4106.153809,4129.743652,0.000000,4.000000,,,,0.000000,4.000000,4.000000,4.000000,4.000000,4.000000,,,,,,,,,,,,,,,,,,,,,,,,,
1577722288.163114,62.000000,0.000000,4173.846191,4267.179688,4125.128418,4107.179688,4136.922852,0.000000,4.000000,,,,0.000000,4.000000,4.000000,4.000000,4.000000,4.000000,,,,,,,,,,,,,,,,,,,,,,,,,
1577722288.171010,63.000000,0.000000,4178.974121,4272.820313,4137.948730,4105.128418,4148.205078,0.000000,4.000000,,,,0.000000,4.000000,4.000000,4.000000,4.000000,4.000000,,,,,,,,,,,,,,,,,,,,,,,,,
1577722288.178806,64.000000,0.000000,4185.128418,4277.948730,4144.102539,4125.641113,4162.051270,450.000000,4.000000,,,,0.000000,4.000000,4.000000,4.000000,4.000000,4.000000,,,,,,,,,,,,,,,,,,,,,,,,,
1577722288.186702,65.000000,0.000000,4183.077148,4284.102539,4140.512695,4133.846191,4157.436035,450.000000,4.000000,,,,0.000000,4.000000,4.000000,4.000000,4.000000,4.000000,,,,,,,,,,,,,,,,,,,,,,,,,
1577722288.194498,66.000000,0.000000,4165.641113,4264.102539,4118.461426,4103.077148,4138.461426,16205.000000,4.000000,,,,0.000000,4.000000,4.000000,4.000000,4.000000,4.000000,,,,,,,,,,,,,,,,,,,,,,,,,
1577722288.202394,67.000000,0.000000,4158.461426,4242.563965,4114.358887,4100.000000,4129.230957,450.000000,4.000000,,,,0.000000,4.000000,4.000000,4.000000,4.000000,4.000000,2.765933,1.359569,1.310842,3.849496,1.133157,1.079036,0.481246,0.382473,3.027205,0.915707,0.307798,0.391076,0.763944,2.698699,0.604363,0.761360,0.827536,0.533868,5.291674,1.112056,2.832501,0.534943,1.116685,3.915791,0.971582
1577722288.210190,68.000000,0.000000,4155.897461,4243.077148,4109.230957,4111.794922,4129.743652,16241.000000,4.000000,,,,0.000000,4.000000,4.000000,4.000000,4.000000,4.000000,,,,,,,,,,,,,,,,,,,,,,,,,
1577722288.218086,69.000000,0.000000,4171.282227,4255.897461,4126.153809,4112.307617,4149.230957,450.000000,4.000000,,,,0.000000,4.000000,4.000000,4.000000,4.000000,4.000000,,,,,,,,,,,,,,,,,,,,,,,,,
1577722288.225982,70.000000,0.000000,4190.769043,4268.717773,4148.717773,4127.692383,4168.717773,16139.000000,4.000000,,,,0.000000,4.000000,4.000000,4.000000,4.000000,4.000000,,,,,,,,,,,,,,,,,,,,,,,,,
1577722288.233778,71.000000,0.000000,4176.922852,4265.641113,4126.153809,4127.692383,4158.974121,450.000000,4.000000,,,,0.000000,4.000000,4.000000,4.000000,4.000000,4.000000,,,,,,,,,,,,,,,,,,,,,,,,,
1577722288.241574,72.000000,0.000000,4152.820313,4241.025879,4109.230957,4098.974121,4140.000000,450.000000,4.000000,,,,0.000000,4.000000,4.000000,4.000000,4.000000,4.000000,,,,,,,,,,,,,,,,,,,,,,,,,
1577722288.249470,73.000000,0.000000,4150.256348,4230.769043,4112.307617,4096.410156,4138.974121,16173.000000,4.000000,,,,0.000000,4.000000,4.000000,4.000000,4.000000,4.000000,,,,,,,,,,,,,,,,,,,,,,,,,
1577722288.257366,74.000000,0.000000,4169.743652,4253.333496,4120.000000,4126.153809,4153.846191,450.000000,4.000000,,,,0.000000,4.000000,4.000000,4.000000,4.000000,4.000000,,,,,,,,,,,,,,,,,,,,,,,,,
1577722288.265163,75.000000,0.000000,4188.717773,4272.307617,4132.307617,4136.922852,4169.743652,16181.000000,4.000000,,,,0.000000,4.000000,4.000000,4.000000,4.000000,4.000000,,,,,,,,,,,,,,,,,,,,,,,,,
1577722288.272959,76.000000,0.000000,4202.051270,4276.410156,4138.461426,4142.051270,4191.282227,450.000000,4.000000,,,,0.000000,4.000000,4.000000,4.000000,4.000000,4.000000,,,,,,,,,,,,,,,,,,,,,,,,,
1577722288.280855,77.000000,0.000000,4198.461426,4270.769043,4135.384766,4148.205078,4192.820313,450.000000,4.000000,,,,0.000000,4.000000,4.000000,4.000000,4.000000,4.000000,,,,,,,,,,,,,,,,,,,,,,,,,
1577722288.288751,78.000000,0.000000,4181.025879,4257.948730,4113.333496,4134.871582,4171.282227,450.000000,4.000000,,,,0.000000,4.000000,4.000000,4.000000,4.000000,4.000000,,,,,,,,,,,,,,,,,,,,,,,,,
1577722288.296547,79.000000,0.000000,4180.512695,4252.820313,4107.179688,4126.153809,4170.769043,16181.000000,4.000000,,,,0.000000,4.000000,4.000000,4.000000,4.000000,4.000000,,,,,,,,,,,,,,,,,,,,,,,,,
1577722288.304444,80.000000,0.000000,4198.461426,4257.436035,4125.128418,4127.179688,4189.230957,450.000000,4.000000,,,,0.000000,4.000000,4.000000,4.000000,4.000000,4.000000,,,,,,,,,,,,,,,,,,,,,,,,,
1577722288.312240,81.000000,0.000000,4207.692383,4268.717773,4125.128418,4129.230957,4193.333496,450.000000,4.000000,,,,0.000000,4.000000,4.000000,4.000000,4.000000,4.000000,,,,,,,,,,,,,,,,,,,,,,,,,
1577722288.320036,82.000000,0.000000,4198.974121,4277.436035,4128.717773,4140.000000,4181.025879,450.000000,4.000000,,,,0.000000,4.000000,4.000000,4.000000,4.000000,4.000000,,,,,,,,,,,,,,,,,,,,,,,,,
1577722288.327932,83.000000,0.000000,4183.077148,4262.563965,4117.948730,4135.897461,4169.230957,16181.000000,4.000000,,,,0.000000,4.000000,4.000000,4.000000,4.000000,4.000000,3.288999,1.528202,1.375367,3.432344,1.439011,1.248399,0.485486,0.395856,2.815851,1.006346,0.372937,0.397547,0.666249,2.354825,0.839732,0.859879,1.090235,0.719587,4.585127,1.411434,3.056012,0.609378,1.293784,3.696230,1.259736
1577722288.335828,84.000000,0.000000,4168.717773,4241.538574,4097.436035,4112.820313,4155.897461,450.000000,4.000000,,,,0.000000,4.000000,4.000000,4.000000,4.000000,4.000000,,,,,,,,,,,,,,,,,,,,,,,,,
1577722288.343625,85.000000,0.000000,4160.000000,4247.692383,4112.820313,4109.230957,4142.563965,450.000000,4.000000,,,,0.000000,4.000000,4.000000,4.000000,4.000000,4.000000,,,,,,,,,,,,,,,,,,,,,,,,,
1577722288.351521,86.000000,0.000000,4164.102539,4256.410156,4116.922852,4121.538574,4144.615234,450.000000,4.000000,,,,0.000000,4.000000,4.000000,4.000000,4.000000,4.000000,,,,,,,,,,,,,,,,,,,,,,,,,
1577722288.359317,87.000000,0.000000,4175.384766,4258.974121,4110.769043,4118.461426,4154.871582,16181.000000,4.000000,,,,0.000000,4.000000,4.000000,4.000000,4.000000,4.000000,,,,,,,,,,,,,,,,,,,,,,,,,
1577722288.367213,88.000000,0.000000,4170.769043,4258.461426,4107.179688,4094.358887,4151.794922,450.000000,4.000000,,,,0.000000,4.000000,4.000000,4.000000,4.000000,4.000000,,,,,,,,,,,,,,,,,,,,,,,,,
1577722288.375009,89.000000,0.000000,4159.487305,4246.666504,4092.307617,4088.718018,4145.128418,450.000000,4.000000,,,,0.000000,4.000000,4.000000,4.000000,4.000000,4.000000,,,,,,,,,,,,,,,,,,,,,,,,,
1577722288.382905,90.000000,0.000000,4184.102539,4248.205078,4114.358887,4129.230957,4160.512695,450.000000,4.000000,,,,0.000000,4.000000,4.000000,4.000000,4.000000,4.000000,,,,,,,,,,,,,,,,,,,,,,,,,
1577722288.390701,91.000000,0.000000,4203.589844,4260.512695,4133.333496,4146.153809,4174.358887,16181.000000,4.000000,,,,0.000000,4.000000,4.000000,4.000000,4.000000,4.000000,,,,,,,,,,,,,,,,,,,,,,,,,
1577722288.398597,92.000000,0.000000,4197.436035,4274.871582,4131.282227,4135.897461,4178.974121,450.000000,4.000000,,,,0.000000,4.000000,4.000000,4.000000,4.000000,4.000000,,,,,,,,,,,,,,,,,,,,,,,,,
1577722288.406393,93.000000,0.000000,4200.512695,4284.102539,4134.358887,4134.358887,4183.589844,450.000000,4.000000,,,,0.000000,4.000000,4.000000,4.000000,4.000000,4.000000,,,,,,,,,,,,,,,,,,,,,,,,,
1577722288.414289,94.000000,0.000000,4192.820313,4273.846191,4119.487305,4122.051270,4173.333496,450.000000,4.000000,,,,0.000000,4.000000,4.000000,4.000000,4.000000,4.000000,,,,,,,,,,,,,,,,,,,,,,,,,
1577722288.422085,95.000000,0.000000,4176.922852,4263.589844,4117.436035,4115.384766,4159.487305,16181.000000,4.000000,,,,0.000000,4.000000,4.000000,4.000000,4.000000,4.000000,,,,,,,,,,,,,,,,,,,,,,,,,
1577722288.429981,96.000000,0.000000,4173.846191,4252.307617,4112.307617,4115.384766,4156.410156,450.000000,4.000000,,,,0.000000,4.000000,4.000000,4.000000,4.000000,4.000000,,,,,,,,,,,,,,,,,,,,,,,,,
1577722288.437777,97.000000,0.000000,4188.205078,4255.384766,4112.820313,4122.051270,4173.333496,450.000000,4.000000,,,,0.000000,4.000000,4.000000,4.000000,4.000000,4.000000,,,,,,,,,,,,,,,,,,,,,,,,,
1577722288.445673,98.000000,0.000000,4216.410156,4280.512695,4136.410156,4146.153809,4194.871582,450.000000,4.000000,,,,0.000000,4.000000,4.000000,4.000000,4.000000,4.000000,,,,,,,,,,,,,,,,,,,,,,,,,
