title:clench_1_off_3sec, start timestamp:2019-12-30T23:12:47.285944+03:00, stop timestamp:2019-12-30T23:13:25.623139+03:00, headset type:INSIGHT, headset serial:A2D200FB, headset firmware:930, subject name:Qasim, channels:44, sampling rate:eeg_128;pow_8, samples:4922      , version:2.0
Timestamp,EEG.Counter,EEG.Interpolated,EEG.AF3,EEG.T7,EEG.Pz,EEG.T8,EEG.AF4,EEG.RawCq,EEG.Battery,MarkerIndex,MarkerType,MarkerValueInt,EEG.MarkerHardware,CQ.AF3,CQ.T7,CQ.Pz,CQ.T8,CQ.AF4,POW.AF3.Theta,POW.AF3.Alpha,POW.AF3.BetaL,POW.AF3.BetaH,POW.AF3.Gamma,POW.T7.Theta,POW.T7.Alpha,POW.T7.BetaL,POW.T7.BetaH,POW.T7.Gamma,POW.Pz.Theta,POW.Pz.Alpha,POW.Pz.BetaL,POW.Pz.BetaH,POW.Pz.Gamma,POW.T8.Theta,POW.T8.Alpha,POW.T8.BetaL,POW.T8.BetaH,POW.T8.Gamma,POW.AF4.Theta,POW.AF4.Alpha,POW.AF4.BetaL,POW.AF4.BetaH,POW.AF4.Gamma
1577736767.285944,79.000000,0.000000,4194.358887,4417.948730,4146.666504,4153.846191,4183.589844,16213.000000,4.000000,,,,0.000000,4.000000,4.000000,4.000000,4.000000,4.000000,,,,,,,,,,,,,,,,,,,,,,,,,
1577736767.293664,80.000000,0.000000,4209.743652,4405.641113,4165.128418,4171.794922,4190.256348,450.000000,4.000000,,,,0.000000,4.000000,4.000000,4.000000,4.000000,4.000000,,,,,,,,,,,,,,,,,,,,,,,,,
1577736767.301484,81.000000,0.000000,4212.307617,4372.307617,4149.230957,4162.051270,4189.230957,450.000000,4.000000,,,,0.000000,4.000000,4.000000,4.000000,4.000000,4.000000,,,,,,,,,,,,,,,,,,,,,,,,,
1577736767.309205,82.000000,0.000000,4188.717773,4374.871582,4162.051270,4150.769043,4169.230957,450.000000,4.000000,,,,0.000000,4.000000,4.000000,4.000000,4.000000,4.000000,,,,,,,,,,,,,,,,,,,,,,,,,
1577736767.316930,83.000000,0.000000,4184.615234,4398.461426,4131.282227,4150.256348,4154.871582,16213.000000,4.000000,,,,0.000000,4.000000,4.000000,4.000000,4.000000,4.000000,,,,,,,,,,,,,,,,,,,,,,,,,
1577736767.324755,84.000000,0.000000,4178.974121,4395.384766,4088.205078,4135.897461,4136.922852,450.000000,4.000000,,,,0.000000,4.000000,4.000000,4.000000,4.000000,4.000000,,,,,,,,,,,,,,,,,,,,,,,,,
1577736767.332497,85.000000,0.000000,4191.282227,4404.102539,4155.384766,4160.512695,4146.153809,450.000000,4.000000,,,,0.000000,4.000000,4.000000,4.000000,4.000000,4.000000,,,,,,,,,,,,,,,,,,,,,,,,,
1577736767.340444,86.000000,0.000000,4211.282227,4417.436035,4150.256348,4162.051270,4161.025879,450.000000,4.000000,,,,0.000000,4.000000,4.000000,4.000000,4.000000,4.000000,8.954623,4.352243,2.572730,0.976173,1.092666,1.528295,1.768599,1.315166,0.604924,1.604275,8.313067,4.610953,2.185566,1.525558,1.856655,3.763452,2.169682,1.004952,0.907171,2.030215,6.939257,3.267349,2.275268,0.701570,0.994234
1577736767.348290,87.000000,0.000000,4209.743652,4420.000000,4117.948730,4144.102539,4153.846191,16213.000000,4.000000,,,,0.000000,4.000000,4.000000,4.000000,4.000000,4.000000,,,,,,,,,,,,,,,,,,,,,,,,,
1577736767.356137,88.000000,0.000000,4218.461426,4423.077148,4135.897461,4165.128418,4156.922852,450.000000,4.000000,,,,0.000000,4.000000,4.000000,4.000000,4.000000,4.000000,,,,,,,,,,,,,,,,,,,,,,,,,
1577736767.363984,89.000000,0.000000,4200.512695,4391.794922,4098.461426,4153.333496,4134.358887,450.000000,4.000000,,,,0.000000,4.000000,4.000000,4.000000,4.000000,4.000000,,,,,,,,,,,,,,,,,,,,,,,,,
1577736767.371721,90.000000,0.000000,4178.461426,4365.128418,4092.307617,4140.512695,4107.179688,450.000000,4.000000,,,,0.000000,4.000000,4.000000,4.000000,4.000000,4.000000,,,,,,,,,,,,,,,,,,,,,,,,,
1577736767.379558,91.000000,0.000000,4205.641113,4401.538574,4111.794922,4158.974121,4127.692383,16213.000000,4.000000,,,,0.000000,4.000000,4.000000,4.000000,4.000000,4.000000,,,,,,,,,,,,,,,,,,,,,,,,,
1577736767.387295,92.000000,0.000000,4226.666504,4424.102539,4126.666504,4161.538574,4145.128418,450.000000,4.000000,,,,0.000000,4.000000,4.000000,4.000000,4.000000,4.000000,,,,,,,,,,,,,,,,,,,,,,,,,
1577736767.395132,93.000000,0.000000,4220.512695,4409.230957,4122.051270,4150.256348,4136.922852,450.000000,4.000000,,,,0.000000,4.000000,4.000000,4.000000,4.000000,4.000000,,,,,,,,,,,,,,,,,,,,,,,,,
1577736767.402868,94.000000,0.000000,4208.717773,4395.897461,4097.436035,4130.769043,4128.717773,450.000000,4.000000,,,,0.000000,4.000000,4.000000,4.000000,4.000000,4.000000,,,,,,,,,,,,,,,,,,,,,,,,,
1577736767.410703,95.000000,0.000000,4213.333496,4405.128418,4113.846191,4126.153809,4135.897461,16213.000000,4.000000,,,,0.000000,4.000000,4.000000,4.000000,4.000000,4.000000,,,,,,,,,,,,,,,,,,,,,,,,,
1577736767.418439,96.000000,0.000000,4234.871582,4416.410156,4121.025879,4148.205078,4153.846191,450.000000,4.000000,,,,0.000000,4.000000,4.000000,4.000000,4.000000,4.000000,,,,,,,,,,,,,,,,,,,,,,,,,
1577736767.426274,97.000000,0.000000,4254.358887,4411.794922,4136.922852,4189.743652,4175.897461,450.000000,4.000000,,,,0.000000,4.000000,4.000000,4.000000,4.000000,4.000000,,,,,,,,,,,,,,,,,,,,,,,,,
1577736767.434009,98.000000,0.000000,4263.589844,4412.820313,4165.128418,4203.589844,4202.563965,450.000000,4.000000,,,,0.000000,4.000000,4.000000,4.000000,4.000000,4.000000,,,,,,,,,,,,,,,,,,,,,,,,,
1577736767.441748,99.000000,0.000000,4246.153809,4419.487305,4151.794922,4168.205078,4200.512695,16213.000000,4.000000,,,,0.000000,4.000000,4.000000,4.000000,4.000000,4.000000,,,,,,,,,,,,,,,,,,,,,,,,,
1577736767.449588,100.000000,0.000000,4214.358887,4434.358887,4145.128418,4150.769043,4179.487305,450.000000,4.000000,,,,0.000000,4.000000,4.000000,4.000000,4.000000,4.000000,,,,,,,,,,,,,,,,,,,,,,,,,
1577736767.457428,101.000000,0.000000,4201.025879,4427.179688,4143.077148,4160.000000,4187.692383,450.000000,4.000000,,,,0.000000,4.000000,4.000000,4.000000,4.000000,4.000000,,,,,,,,,,,,,,,,,,,,,,,,,
1577736767.465162,102.000000,0.000000,4173.846191,4377.436035,4121.025879,4144.102539,4168.205078,450.000000,4.000000,,,,0.000000,4.000000,4.000000,4.000000,4.000000,4.000000,8.681314,4.116495,2.322022,1.235924,1.165269,1.545011,1.625291,1.150733,0.755402,1.662330,9.793717,5.009449,2.123201,1.586954,2.053429,4.178052,2.500978,0.979639,1.056627,2.198471,7.139867,3.369165,1.727831,0.800155,1.090520
1577736767.472996,103.000000,0.000000,4128.205078,4360.512695,4099.487305,4120.000000,4105.641113,16213.000000,4.000000,,,,0.000000,4.000000,4.000000,4.000000,4.000000,4.000000,,,,,,,,,,,,,,,,,,,,,,,,,
1577736767.480748,104.000000,1.000000,4124.900391,4364.387695,4097.321777,4120.512695,4101.025879,14461.555664,4.000000,,,,0.000000,4.000000,4.000000,4.000000,4.000000,4.000000,,,,,,,,,,,,,,,,,,,,,,,,,
1577736767.488600,105.000000,1.000000,4121.595215,4368.262207,4095.156738,4121.025879,4096.410156,12710.111328,4.000000,,,,0.000000,4.000000,4.000000,4.000000,4.000000,4.000000,,,,,,,,,,,,,,,,,,,,,,,,,
1577736767.496452,106.000000,1.000000,4118.290527,4372.136719,4092.991455,4121.538574,4091.794922,10958.666992,4.000000,,,,0.000000,4.000000,4.000000,4.000000,4.000000,4.000000,,,,,,,,,,,,,,,,,,,,,,,,,
1577736767.504304,107.000000,1.000000,4114.985840,4376.011230,4090.826172,4122.051270,4087.179443,9207.222656,4.000000,,,,0.000000,4.000000,4.000000,4.000000,4.000000,4.000000,,,,,,,,,,,,,,,,,,,,,,,,,
1577736767.512156,108.000000,1.000000,4111.681152,4379.886230,4088.660889,4122.563965,4082.564209,7455.777832,4.000000,,,,0.000000,4.000000,4.000000,4.000000,4.000000,4.000000,,,,,,,,,,,,,,,,,,,,,,,,,
1577736767.520007,109.000000,1.000000,4108.375977,4383.760742,4086.495605,4123.077148,4077.948730,5704.333496,4.000000,,,,0.000000,4.000000,4.000000,4.000000,4.000000,4.000000,,,,,,,,,,,,,,,,,,,,,,,,,
1577736767.527859,110.000000,1.000000,4105.071289,4387.635254,4084.330566,4123.589844,4073.333252,3952.888916,4.000000,,,,0.000000,4.000000,4.000000,4.000000,4.000000,4.000000,,,,,,,,,,,,,,,,,,,,,,,,,
1577736767.535711,111.000000,1.000000,4101.766602,4391.509766,4082.165283,4124.102539,4068.718018,2201.444336,4.000000,,,,0.000000,4.000000,4.000000,4.000000,4.000000,4.000000,,,,,,,,,,,,,,,,,,,,,,,,,
1577736767.543563,112.000000,0.000000,4098.461426,4395.384766,4080.000000,4124.615234,4064.102539,450.000000,4.000000,,,,0.000000,4.000000,4.000000,4.000000,4.000000,4.000000,,,,,,,,,,,,,,,,,,,,,,,,,
1577736767.551282,113.000000,0.000000,4088.718018,4402.051270,4080.000000,4111.794922,4044.102539,450.000000,4.000000,,,,0.000000,4.000000,4.000000,4.000000,4.000000,4.000000,,,,,,,,,,,,,,,,,,,,,,,,,
1577736767.559101,114.000000,0.000000,4105.128418,4401.538574,4101.025879,4135.897461,4065.128174,450.000000,4.000000,,,,0.000000,4.000000,4.000000,4.000000,4.000000,4.000000,,,,,,,,,,,,,,,,,,,,,,,,,
1577736767.566921,115.000000,0.000000,4105.128418,4378.974121,4100.000000,4141.025879,4067.179443,16213.000000,4.000000,,,,0.000000,4.000000,4.000000,4.000000,4.000000,4.000000,,,,,,,,,,,,,,,,,,,,,,,,,
1577736767.574740,116.000000,0.000000,4084.102539,4377.948730,4071.794922,4110.769043,4029.230713,450.000000,4.000000,,,,0.000000,4.000000,4.000000,4.000000,4.000000,4.000000,,,,,,,,,,,,,,,,,,,,,,,,,
1577736767.582449,117.000000,0.000000,4115.897461,4407.179688,4096.410156,4120.000000,4048.205078,450.000000,4.000000,,,,0.000000,4.000000,4.000000,4.000000,4.000000,4.000000,,,,,,,,,,,,,,,,,,,,,,,,,
1577736767.590172,118.000000,0.000000,4161.538574,4422.051270,4140.512695,4158.461426,4105.641113,450.000000,4.000000,,,,0.000000,4.000000,4.000000,4.000000,4.000000,4.000000,8.654416,3.956625,2.004684,1.546804,1.211915,1.401154,1.384361,0.990283,0.941750,1.805265,10.501367,4.948864,1.913657,1.561875,2.086016,4.266599,2.561748,0.950828,1.193625,2.228935,7.777420,3.301906,1.255160,0.973671,1.156854
1577736767.597900,119.000000,0.000000,4121.538574,4407.692383,4098.974121,4136.922852,4080.512939,16213.000000,4.000000,,,,0.000000,4.000000,4.000000,4.000000,4.000000,4.000000,,,,,,,,,,,,,,,,,,,,,,,,,
1577736767.605729,120.000000,0.000000,4058.974365,4394.358887,4056.923096,4097.436035,4021.025635,450.000000,4.000000,,,,0.000000,4.000000,4.000000,4.000000,4.000000,4.000000,,,,,,,,,,,,,,,,,,,,,,,,,
1577736767.613463,121.000000,0.000000,4089.743652,4411.282227,4082.564209,4117.948730,4043.589844,450.000000,4.000000,,,,0.000000,4.000000,4.000000,4.000000,4.000000,4.000000,,,,,,,,,,,,,,,,,,,,,,,,,
1577736767.621203,122.000000,0.000000,4140.000000,4413.333496,4101.025879,4138.461426,4076.923096,450.000000,4.000000,,,,0.000000,4.000000,4.000000,4.000000,4.000000,4.000000,,,,,,,,,,,,,,,,,,,,,,,,,
1577736767.629041,123.000000,0.000000,4145.128418,4401.025879,4094.358887,4130.769043,4067.179443,16213.000000,4.000000,,,,0.000000,4.000000,4.000000,4.000000,4.000000,4.000000,,,,,,,,,,,,,,,,,,,,,,,,,
1577736767.636789,124.000000,0.000000,4165.128418,4411.282227,4105.128418,4145.641113,4086.153809,450.000000,4.000000,,,,0.000000,4.000000,4.000000,4.000000,4.000000,4.000000,,,,,,,,,,,,,,,,,,,,,,,,,
1577736767.644740,125.000000,0.000000,4185.641113,4404.102539,4126.153809,4157.436035,4109.230957,450.000000,4.000000,,,,0.000000,4.000000,4.000000,4.000000,4.000000,4.000000,,,,,,,,,,,,,,,,,,,,,,,,,
1577736767.652592,126.000000,0.000000,4188.717773,4381.538574,4115.897461,4145.128418,4103.077148,450.000000,4.000000,,,,0.000000,4.000000,4.000000,4.000000,4.000000,4.000000,,,,,,,,,,,,,,,,,,,,,,,,,
1577736767.660444,127.000000,0.000000,4222.051270,4405.128418,4099.487305,4152.820313,4115.897461,238.000000,4.000000,,,,0.000000,4.000000,4.000000,4.000000,4.000000,4.000000,,,,,,,,,,,,,,,,,,,,,,,,,
1577736767.668295,0.000000,0.000000,4267.179688,4430.769043,4114.358887,4160.512695,4139.487305,450.000000,4.000000,,,,0.000000,4.000000,4.000000,4.000000,4.000000,4.000000,,,,,,,,,,,,,,,,,,,,,,,,,
1577736767.676038,1.000000,0.000000,4290.256348,4395.384766,4125.641113,4146.153809,4149.230957,450.000000,4.000000,,,,0.000000,4.000000,4.000000,4.000000,4.000000,4.000000,,,,,,,,,,,,,,,,,,,,,,,,,
1577736767.683880,2.000000,0.000000,4307.692383,4377.436035,4126.153809,4146.153809,4158.461426,16203.000000,4.000000,,,,0.000000,4.000000,4.000000,4.000000,4.000000,4.000000,,,,,,,,,,,,,,,,,,,,,,,,,
1577736767.691723,3.000000,0.000000,4326.153809,4413.846191,4125.128418,4150.769043,4170.256348,450.000000,4.000000,,,,0.000000,4.000000,4.000000,4.000000,4.000000,4.000000,,,,,,,,,,,,,,,,,,,,,,,,,
1577736767.699461,4.000000,0.000000,4331.794922,4419.487305,4127.179688,4148.205078,4185.128418,16208.000000,4.000000,,,,0.000000,4.000000,4.000000,4.000000,4.000000,4.000000,,,,,,,,,,,,,,,,,,,,,,,,,
1577736767.707202,5.000000,0.000000,4326.153809,4393.333496,4138.974121,4148.717773,4189.230957,450.000000,4.000000,,,,0.000000,4.000000,4.000000,4.000000,4.000000,4.000000,,,,,,,,,,,,,,,,,,,,,,,,,
1577736767.715044,6.000000,0.000000,4318.974121,4392.307617,4130.769043,4148.717773,4173.846191,16128.000000,4.000000,,,,0.000000,4.000000,4.000000,4.000000,4.000000,4.000000,8.697338,3.843447,1.696686,1.827019,1.224427,1.187838,1.128334,0.906710,1.150969,1.950542,10.441072,4.467109,1.617502,1.496598,1.961287,4.061467,2.392224,0.954314,1.295412,2.103992,8.741980,3.110620,0.956032,1.196280,1.183783
1577736767.722794,7.000000,1.000000,4313.162598,4395.213867,4133.333496,4149.458496,4174.017090,450.000000,4.000000,,,,0.000000,4.000000,4.000000,4.000000,4.000000,4.000000,,,,,,,,,,,,,,,,,,,,,,,,,
1577736767.730644,8.000000,1.000000,4307.350586,4398.119629,4135.897461,4150.199219,4174.187988,450.000000,4.000000,,,,0.000000,4.000000,4.000000,4.000000,4.000000,4.000000,,,,,,,,,,,,,,,,,,,,,,,,,
1577736767.738494,9.000000,1.000000,4301.538574,4401.025879,4138.461426,4150.939941,4174.358887,16119.000000,4.000000,,,,0.000000,4.000000,4.000000,4.000000,4.000000,4.000000,,,,,,,,,,,,,,,,,,,,,,,,,
1577736767.746344,10.000000,1.000000,4295.726563,4403.931641,4141.025879,4151.681152,4174.529785,450.000000,4.000000,,,,0.000000,4.000000,4.000000,4.000000,4.000000,4.000000,,,,,,,,,,,,,,,,,,,,,,,,,
1577736767.754194,11.000000,1.000000,4289.914551,4406.837402,4143.589844,4152.421875,4174.700684,16213.000000,4.000000,,,,0.000000,4.000000,4.000000,4.000000,4.000000,4.000000,,,,,,,,,,,,,,,,,,,,,,,,,
1577736767.762044,12.000000,1.000000,4284.102539,4409.743652,4146.153809,4153.162598,4174.871582,450.000000,4.000000,,,,0.000000,4.000000,4.000000,4.000000,4.000000,4.000000,,,,,,,,,,,,,,,,,,,,,,,,,
1577736767.769894,13.000000,1.000000,4278.290527,4412.649414,4148.717773,4153.903320,4175.042969,450.000000,4.000000,,,,0.000000,4.000000,4.000000,4.000000,4.000000,4.000000,,,,,,,,,,,,,,,,,,,,,,,,,
1577736767.777744,14.000000,1.000000,4272.478516,4415.555664,4151.282227,4154.644043,4175.213867,450.000000,4.000000,,,,0.000000,4.000000,4.000000,4.000000,4.000000,4.000000,,,,,,,,,,,,,,,,,,,,,,,,,
1577736767.785594,15.000000,0.000000,4266.666504,4418.461426,4153.846191,4155.384766,4175.384766,16196.000000,4.000000,,,,0.000000,4.000000,4.000000,4.000000,4.000000,4.000000,,,,,,,,,,,,,,,,,,,,,,,,,
1577736767.793312,16.000000,0.000000,4268.205078,4421.025879,4162.051270,4153.846191,4171.282227,0.000000,4.000000,,,,0.000000,4.000000,4.000000,4.000000,4.000000,4.000000,,,,,,,,,,,,,,,,,,,,,,,,,
1577736767.801129,17.000000,0.000000,4255.897461,4392.820313,4158.461426,4138.974121,4164.615234,0.000000,4.000000,,,,0.000000,4.000000,4.000000,4.000000,4.000000,4.000000,,,,,,,,,,,,,,,,,,,,,,,,,
1577736767.808947,18.000000,0.000000,4254.358887,4385.641113,4154.871582,4137.436035,4158.461426,0.000000,4.000000,,,,0.000000,4.000000,4.000000,4.000000,4.000000,4.000000,,,,,,,,,,,,,,,,,,,,,,,,,
1577736767.816765,19.000000,0.000000,4250.769043,4396.922852,4138.974121,4148.205078,4150.256348,0.000000,4.000000,,,,0.000000,4.000000,4.000000,4.000000,4.000000,4.000000,,,,,,,,,,,,,,,,,,,,,,,,,
1577736767.824482,20.000000,0.000000,4235.384766,4402.563965,4131.282227,4147.692383,4137.436035,0.000000,4.000000,,,,0.000000,4.000000,4.000000,4.000000,4.000000,4.000000,,,,,,,,,,,,,,,,,,,,,,,,,
1577736767.832203,21.000000,0.000000,4234.871582,4418.461426,4137.436035,4142.051270,4142.051270,0.000000,4.000000,,,,0.000000,4.000000,4.000000,4.000000,4.000000,4.000000,,,,,,,,,,,,,,,,,,,,,,,,,
1577736767.840024,22.000000,0.000000,4234.871582,4416.922852,4130.256348,4138.974121,4151.794922,0.000000,4.000000,,,,0.000000,4.000000,4.000000,4.000000,4.000000,4.000000,9.167490,3.946396,1.513467,2.023818,1.211373,1.106392,1.022302,0.956983,1.362588,2.033478,9.752663,3.752720,1.335210,1.468963,1.742508,3.682130,2.134926,1.036833,1.358488,1.863923,10.230380,3.033087,0.906955,1.430974,1.184149
1577736767.847745,23.000000,0.000000,4241.025879,4383.077148,4137.436035,4157.436035,4168.717773,0.000000,4.000000,,,,0.000000,4.000000,4.000000,4.000000,4.000000,4.000000,,,,,,,,,,,,,,,,,,,,,,,,,
1577736767.855469,24.000000,0.000000,4270.256348,4386.153809,4147.179688,4165.641113,4191.794922,0.000000,4.000000,,,,0.000000,4.000000,4.000000,4.000000,4.000000,4.000000,,,,,,,,,,,,,,,,,,,,,,,,,
1577736767.863294,25.000000,0.000000,4279.487305,4416.922852,4150.256348,4150.769043,4191.794922,0.000000,4.000000,,,,0.000000,4.000000,4.000000,4.000000,4.000000,4.000000,,,,,,,,,,,,,,,,,,,,,,,,,
1577736767.871119,26.000000,0.000000,4255.384766,4402.051270,4137.436035,4142.563965,4174.358887,0.000000,4.000000,,,,0.000000,4.000000,4.000000,4.000000,4.000000,4.000000,,,,,,,,,,,,,,,,,,,,,,,,,
1577736767.878839,27.000000,0.000000,4260.512695,4400.512695,4133.846191,4158.974121,4184.615234,0.000000,4.000000,,,,0.000000,4.000000,4.000000,4.000000,4.000000,4.000000,,,,,,,,,,,,,,,,,,,,,,,,,
1577736767.886659,28.000000,0.000000,4296.410156,4427.692383,4166.153809,4175.384766,4208.717773,0.000000,4.000000,,,,0.000000,4.000000,4.000000,4.000000,4.000000,4.000000,,,,,,,,,,,,,,,,,,,,,,,,,
1577736767.894378,29.000000,0.000000,4291.794922,4420.000000,4158.974121,4164.615234,4200.512695,0.000000,4.000000,,,,0.000000,4.000000,4.000000,4.000000,4.000000,4.000000,,,,,,,,,,,,,,,,,,,,,,,,,
1577736767.902111,30.000000,0.000000,4271.794922,4405.641113,4142.563965,4162.563965,4188.205078,0.000000,4.000000,,,,0.000000,4.000000,4.000000,4.000000,4.000000,4.000000,,,,,,,,,,,,,,,,,,,,,,,,,
1577736767.909847,31.000000,0.000000,4282.563965,4414.358887,4166.666504,4161.538574,4205.641113,0.000000,4.000000,,,,0.000000,4.000000,4.000000,4.000000,4.000000,4.000000,,,,,,,,,,,,,,,,,,,,,,,,,
1577736767.917683,32.000000,0.000000,4287.179688,4423.589844,4166.153809,4147.179688,4218.974121,0.000000,4.000000,,,,0.000000,4.000000,4.000000,4.000000,4.000000,4.000000,,,,,,,,,,,,,,,,,,,,,,,,,
1577736767.925520,33.000000,0.000000,4269.743652,4423.589844,4157.948730,4157.948730,4207.179688,0.000000,4.000000,,,,0.000000,4.000000,4.000000,4.000000,4.000000,4.000000,,,,,,,,,,,,,,,,,,,,,,,,,
1577736767.933356,34.000000,0.000000,4261.025879,4406.666504,4160.000000,4174.871582,4198.461426,0.000000,4.000000,,,,0.000000,4.000000,4.000000,4.000000,4.000000,4.000000,,,,,,,,,,,,,,,,,,,,,,,,,
1577736767.941100,35.000000,0.000000,4252.820313,4396.410156,4154.358887,4161.025879,4193.333496,0.000000,4.000000,,,,0.000000,4.000000,4.000000,4.000000,4.000000,4.000000,,,,,,,,,,,,,,,,,,,,,,,,,
1577736767.949049,36.000000,0.000000,4236.410156,4409.230957,4143.077148,4141.538574,4175.384766,0.000000,4.000000,,,,0.000000,4.000000,4.000000,4.000000,4.000000,4.000000,,,,,,,,,,,,,,,,,,,,,,,,,
1577736767.956897,37.000000,0.000000,4236.922852,4400.000000,4131.794922,4143.589844,4169.230957,0.000000,4.000000,,,,0.000000,4.000000,4.000000,4.000000,4.000000,4.000000,,,,,,,,,,,,,,,,,,,,,,,,,
1577736767.964854,38.000000,1.000000,4238.461426,4397.150879,4131.794922,4143.988770,4169.344727,0.000000,4.000000,,,,0.000000,4.000000,4.000000,4.000000,4.000000,4.000000,10.977806,4.422828,1.556270,2.152634,1.204837,1.331891,1.194788,1.148570,1.555310,2.028475,8.937603,3.066789,1.158665,1.545871,1.523430,3.310324,1.952808,1.236229,1.391177,1.590669,12.669630,3.268451,1.138283,1.648369,1.194750
1577736767.972710,39.000000,1.000000,4240.000000,4394.301758,4131.794922,4144.387695,4169.458496,0.000000,4.000000,,,,0.000000,4.000000,4.000000,4.000000,4.000000,4.000000,,,,,,,,,,,,,,,,,,,,,,,,,
1577736767.980566,40.000000,1.000000,4241.538574,4391.453125,4131.794922,4144.786133,4169.572754,0.000000,4.000000,,,,0.000000,4.000000,4.000000,4.000000,4.000000,4.000000,,,,,,,,,,,,,,,,,,,,,,,,,
1577736767.988423,41.000000,1.000000,4243.077148,4388.604004,4131.794922,4145.185059,4169.686523,0.000000,4.000000,,,,0.000000,4.000000,4.000000,4.000000,4.000000,4.000000,,,,,,,,,,,,,,,,,,,,,,,,,
1577736767.996279,42.000000,1.000000,4244.615234,4385.754883,4131.794922,4145.583984,4169.800781,0.000000,4.000000,,,,0.000000,4.000000,4.000000,4.000000,4.000000,4.000000,,,,,,,,,,,,,,,,,,,,,,,,,
1577736768.004135,43.000000,1.000000,4246.153809,4382.905762,4131.794922,4145.982910,4169.914551,0.000000,4.000000,,,,0.000000,4.000000,4.000000,4.000000,4.000000,4.000000,,,,,,,,,,,,,,,,,,,,,,,,,
1577736768.011992,44.000000,1.000000,4247.692383,4380.057129,4131.794922,4146.381836,4170.028320,0.000000,4.000000,,,,0.000000,4.000000,4.000000,4.000000,4.000000,4.000000,,,,,,,,,,,,,,,,,,,,,,,,,
1577736768.019848,45.000000,1.000000,4249.230957,4377.208008,4131.794922,4146.780762,4170.142578,0.000000,4.000000,,,,0.000000,4.000000,4.000000,4.000000,4.000000,4.000000,,,,,,,,,,,,,,,,,,,,,,,,,
1577736768.027705,46.000000,0.000000,4250.769043,4374.358887,4131.794922,4147.179688,4170.256348,0.000000,4.000000,,,,0.000000,4.000000,4.000000,4.000000,4.000000,4.000000,,,,,,,,,,,,,,,,,,,,,,,,,
1577736768.035429,47.000000,0.000000,4264.615234,4408.717773,4145.641113,4152.820313,4177.948730,0.000000,4.000000,,,,0.000000,4.000000,4.000000,4.000000,4.000000,4.000000,,,,,,,,,,,,,,,,,,,,,,,,,
1577736768.043254,48.000000,0.000000,4265.128418,4426.153809,4139.487305,4163.589844,4173.333496,0.000000,4.000000,,,,0.000000,4.000000,4.000000,4.000000,4.000000,4.000000,,,,,,,,,,,,,,,,,,,,,,,,,
1577736768.051079,49.000000,0.000000,4246.153809,4415.897461,4127.179688,4152.307617,4156.410156,0.000000,4.000000,,,,0.000000,4.000000,4.000000,4.000000,4.000000,4.000000,,,,,,,,,,,,,,,,,,,,,,,,,
1577736768.058903,50.000000,0.000000,4245.128418,4401.025879,4130.769043,4140.512695,4168.717773,0.000000,4.000000,,,,0.000000,4.000000,4.000000,4.000000,4.000000,4.000000,,,,,,,,,,,,,,,,,,,,,,,,,
1577736768.066619,51.000000,0.000000,4255.384766,4396.922852,4148.205078,4152.307617,4182.563965,0.000000,4.000000,,,,0.000000,4.000000,4.000000,4.000000,4.000000,4.000000,,,,,,,,,,,,,,,,,,,,,,,,,
1577736768.074347,52.000000,0.000000,4252.307617,4410.256348,4143.077148,4159.487305,4179.487305,0.000000,4.000000,,,,0.000000,4.000000,4.000000,4.000000,4.000000,4.000000,,,,,,,,,,,,,,,,,,,,,,,,,
1577736768.082079,53.000000,0.000000,4249.743652,4431.794922,4143.077148,4163.589844,4188.717773,0.000000,4.000000,,,,0.000000,4.000000,4.000000,4.000000,4.000000,4.000000,,,,,,,,,,,,,,,,,,,,,,,,,
1577736768.089911,54.000000,0.000000,4251.794922,4424.102539,4158.974121,4163.077148,4196.410156,0.000000,4.000000,,,,0.000000,4.000000,4.000000,4.000000,4.000000,4.000000,15.048104,5.325613,1.833399,2.256351,1.239504,1.900938,1.651036,1.425518,1.711087,1.952151,8.290524,2.654932,1.121269,1.724213,1.378659,3.059851,1.962843,1.537706,1.397631,1.366423,16.290293,3.922644,1.596148,1.817041,1.249979
1577736768.097742,55.000000,0.000000,4243.589844,4399.487305,4149.230957,4148.205078,4185.641113,0.000000,4.000000,,,,0.000000,4.000000,4.000000,4.000000,4.000000,4.000000,,,,,,,,,,,,,,,,,,,,,,,,,
1577736768.105470,56.000000,0.000000,4243.589844,4402.563965,4153.846191,4150.769043,4184.102539,0.000000,4.000000,,,,0.000000,4.000000,4.000000,4.000000,4.000000,4.000000,,,,,,,,,,,,,,,,,,,,,,,,,
1577736768.113298,57.000000,0.000000,4248.717773,4419.487305,4156.410156,4156.410156,4186.153809,0.000000,4.000000,,,,0.000000,4.000000,4.000000,4.000000,4.000000,4.000000,,,,,,,,,,,,,,,,,,,,,,,,,
1577736768.121025,58.000000,0.000000,4242.563965,4401.538574,4140.512695,4151.282227,4174.871582,0.000000,4.000000,,,,0.000000,4.000000,4.000000,4.000000,4.000000,4.000000,,,,,,,,,,,,,,,,,,,,,,,,,
1577736768.128852,59.000000,0.000000,4240.512695,4386.153809,4151.282227,4151.794922,4171.282227,0.000000,4.000000,,,,0.000000,4.000000,4.000000,4.000000,4.000000,4.000000,,,,,,,,,,,,,,,,,,,,,,,,,
1577736768.136578,60.000000,0.000000,4234.358887,4404.615234,4149.743652,4143.589844,4169.230957,0.000000,4.000000,,,,0.000000,4.000000,4.000000,4.000000,4.000000,4.000000,,,,,,,,,,,,,,,,,,,,,,,,,
1577736768.144317,61.000000,0.000000,4219.487305,4409.743652,4130.769043,4132.820313,4155.897461,0.000000,4.000000,,,,0.000000,4.000000,4.000000,4.000000,4.000000,4.000000,,,,,,,,,,,,,,,,,,,,,,,,,
1577736768.152061,62.000000,0.000000,4231.794922,4401.025879,4130.256348,4149.230957,4160.000000,0.000000,4.000000,,,,0.000000,4.000000,4.000000,4.000000,4.000000,4.000000,,,,,,,,,,,,,,,,,,,,,,,,,
1577736768.159904,63.000000,0.000000,4256.922852,4402.051270,4140.000000,4160.000000,4178.974121,0.000000,4.000000,,,,0.000000,4.000000,4.000000,4.000000,4.000000,4.000000,,,,,,,,,,,,,,,,,,,,,,,,,
1577736768.167747,64.000000,0.000000,4263.589844,4412.307617,4152.307617,4148.717773,4181.025879,450.000000,4.000000,,,,0.000000,4.000000,4.000000,4.000000,4.000000,4.000000,,,,,,,,,,,,,,,,,,,,,,,,,
1577736768.175486,65.000000,0.000000,4259.487305,4405.128418,4147.692383,4144.102539,4172.820313,450.000000,4.000000,,,,0.000000,4.000000,4.000000,4.000000,4.000000,4.000000,,,,,,,,,,,,,,,,,,,,,,,,,
1577736768.183324,66.000000,0.000000,4251.282227,4388.717773,4139.487305,4148.717773,4168.717773,16189.000000,4.000000,,,,0.000000,4.000000,4.000000,4.000000,4.000000,4.000000,,,,,,,,,,,,,,,,,,,,,,,,,
1577736768.191062,67.000000,0.000000,4257.948730,4404.615234,4144.615234,4162.563965,4177.436035,450.000000,4.000000,,,,0.000000,4.000000,4.000000,4.000000,4.000000,4.000000,,,,,,,,,,,,,,,,,,,,,,,,,
1577736768.198822,68.000000,1.000000,4256.125488,4404.786133,4145.754883,4162.393066,4178.575684,16208.000000,4.000000,,,,0.000000,4.000000,4.000000,4.000000,4.000000,4.000000,,,,,,,,,,,,,,,,,,,,,,,,,
1577736768.206681,69.000000,1.000000,4254.301758,4404.957031,4146.894531,4162.222168,4179.715332,450.000000,4.000000,,,,0.000000,4.000000,4.000000,4.000000,4.000000,4.000000,,,,,,,,,,,,,,,,,,,,,,,,,
1577736768.214540,70.000000,1.000000,4252.478516,4405.128418,4148.034180,4162.051270,4180.854492,16128.000000,4.000000,,,,0.000000,4.000000,4.000000,4.000000,4.000000,4.000000,21.983030,6.545729,2.241518,2.359109,1.327086,2.721754,2.234162,1.687284,1.815676,1.842619,7.954291,2.580712,1.207346,1.923712,1.326339,2.983087,2.154233,1.865392,1.371345,1.231955,20.947601,4.881489,2.175195,1.903174,1.356010
1577736768.222399,71.000000,1.000000,4250.655273,4405.299316,4149.173828,4161.880371,4181.994141,450.000000,4.000000,,,,0.000000,4.000000,4.000000,4.000000,4.000000,4.000000,,,,,,,,,,,,,,,,,,,,,,,,,
1577736768.230258,72.000000,1.000000,4248.832031,4405.470215,4150.313477,4161.709473,4183.133789,450.000000,4.000000,,,,0.000000,4.000000,4.000000,4.000000,4.000000,4.000000,,,,,,,,,,,,,,,,,,,,,,,,,
1577736768.238117,73.000000,1.000000,4247.008789,4405.641113,4151.453125,4161.538574,4184.273438,16119.000000,4.000000,,,,0.000000,4.000000,4.000000,4.000000,4.000000,4.000000,,,,,,,,,,,,,,,,,,,,,,,,,
1577736768.245976,74.000000,1.000000,4245.185059,4405.812012,4152.592773,4161.367676,4185.413086,450.000000,4.000000,,,,0.000000,4.000000,4.000000,4.000000,4.000000,4.000000,,,,,,,,,,,,,,,,,,,,,,,,,
1577736768.253835,75.000000,1.000000,4243.361816,4405.982910,4153.732422,4161.196777,4186.552734,16213.000000,4.000000,,,,0.000000,4.000000,4.000000,4.000000,4.000000,4.000000,,,,,,,,,,,,,,,,,,,,,,,,,
1577736768.261694,76.000000,0.000000,4241.538574,4406.153809,4154.871582,4161.025879,4187.692383,450.000000,4.000000,,,,0.000000,4.000000,4.000000,4.000000,4.000000,4.000000,,,,,,,,,,,,,,,,,,,,,,,,,
1577736768.269421,77.000000,0.000000,4252.820313,4421.538574,4161.025879,4147.179688,4184.615234,450.000000,4.000000,,,,0.000000,4.000000,4.000000,4.000000,4.000000,4.000000,,,,,,,,,,,,,,,,,,,,,,,,,
1577736768.277249,78.000000,0.000000,4247.692383,4412.820313,4149.230957,4148.717773,4176.410156,450.000000,4.000000,,,,0.000000,4.000000,4.000000,4.000000,4.000000,4.000000,,,,,,,,,,,,,,,,,,,,,,,,,
1577736768.285077,79.000000,0.000000,4238.974121,4398.461426,4155.897461,4150.256348,4184.102539,16202.000000,4.000000,,,,0.000000,4.000000,4.000000,4.000000,4.000000,4.000000,,,,,,,,,,,,,,,,,,,,,,,,,
1577736768.292905,80.000000,0.000000,4236.922852,4398.461426,4165.128418,4141.025879,4185.128418,450.000000,4.000000,,,,0.000000,4.000000,4.000000,4.000000,4.000000,4.000000,,,,,,,,,,,,,,,,,,,,,,,,,
1577736768.300623,81.000000,0.000000,4225.128418,4397.948730,4142.051270,4147.179688,4166.153809,450.000000,4.000000,,,,0.000000,4.000000,4.000000,4.000000,4.000000,4.000000,,,,,,,,,,,,,,,,,,,,,,,,,
1577736768.308346,82.000000,0.000000,4210.769043,4396.922852,4140.000000,4163.077148,4163.077148,450.000000,4.000000,,,,0.000000,4.000000,4.000000,4.000000,4.000000,4.000000,,,,,,,,,,,,,,,,,,,,,,,,,
1577736768.316168,83.000000,0.000000,4212.820313,4409.743652,4146.153809,4144.102539,4174.358887,16202.000000,4.000000,,,,0.000000,4.000000,4.000000,4.000000,4.000000,4.000000,,,,,,,,,,,,,,,,,,,,,,,,,
1577736768.323890,84.000000,0.000000,4216.922852,4417.948730,4144.102539,4131.282227,4168.205078,450.000000,4.000000,,,,0.000000,4.000000,4.000000,4.000000,4.000000,4.000000,,,,,,,,,,,,,,,,,,,,,,,,,
1577736768.331713,85.000000,0.000000,4212.820313,4404.102539,4147.692383,4164.102539,4163.589844,450.000000,4.000000,,,,0.000000,4.000000,4.000000,4.000000,4.000000,4.000000,,,,,,,,,,,,,,,,,,,,,,,,,
1577736768.339434,86.000000,0.000000,4210.256348,4387.179688,4145.128418,4177.948730,4174.871582,450.000000,4.000000,,,,0.000000,4.000000,4.000000,4.000000,4.000000,4.000000,30.960220,7.771116,2.608072,2.436070,1.438742,3.626896,2.711738,1.843840,1.862873,1.734264,7.730314,2.702989,1.346864,2.029664,1.325619,3.008294,2.385203,2.102395,1.297864,1.174995,25.770670,5.788443,2.734363,1.882025,1.478148
1577736768.347256,87.000000,0.000000,4215.384766,4399.487305,4146.666504,4156.410156,4181.025879,16202.000000,4.000000,,,,0.000000,4.000000,4.000000,4.000000,4.000000,4.000000,,,,,,,,,,,,,,,,,,,,,,,,,
1577736768.354978,88.000000,0.000000,4224.615234,4421.025879,4148.205078,4156.410156,4182.563965,450.000000,4.000000,,,,0.000000,4.000000,4.000000,4.000000,4.000000,4.000000,,,,,,,,,,,,,,,,,,,,,,,,,
1577736768.362799,89.000000,0.000000,4238.974121,4410.256348,4161.025879,4170.256348,4192.820313,450.000000,4.000000,,,,0.000000,4.000000,4.000000,4.000000,4.000000,4.000000,,,,,,,,,,,,,,,,,,,,,,,,,
1577736768.370520,90.000000,0.000000,4253.333496,4380.000000,4174.358887,4160.000000,4204.102539,450.000000,4.000000,,,,0.000000,4.000000,4.000000,4.000000,4.000000,4.000000,,,,,,,,,,,,,,,,,,,,,,,,,
1577736768.378342,91.000000,0.000000,4256.410156,4386.666504,4158.461426,4157.436035,4210.769043,16202.000000,4.000000,,,,0.000000,4.000000,4.000000,4.000000,4.000000,4.000000,,,,,,,,,,,,,,,,,,,,,,,,,
1577736768.386163,92.000000,0.000000,4256.922852,4424.102539,4160.000000,4169.743652,4208.717773,450.000000,4.000000,,,,0.000000,4.000000,4.000000,4.000000,4.000000,4.000000,,,,,,,,,,,,,,,,,,,,,,,,,
1577736768.393879,93.000000,0.000000,4249.743652,4414.871582,4165.128418,4162.563965,4191.794922,450.000000,4.000000,,,,0.000000,4.000000,4.000000,4.000000,4.000000,4.000000,,,,,,,,,,,,,,,,,,,,,,,,,
1577736768.401600,94.000000,0.000000,4233.333496,4392.307617,4155.384766,4155.384766,4184.102539,450.000000,4.000000,,,,0.000000,4.000000,4.000000,4.000000,4.000000,4.000000,,,,,,,,,,,,,,,,,,,,,,,,,
1577736768.409421,95.000000,0.000000,4226.153809,4401.025879,4159.487305,4166.153809,4193.333496,16202.000000,4.000000,,,,0.000000,4.000000,4.000000,4.000000,4.000000,4.000000,,,,,,,,,,,,,,,,,,,,,,,,,
1577736768.417242,96.000000,0.000000,4223.589844,4402.051270,4153.333496,4160.000000,4188.717773,450.000000,4.000000,,,,0.000000,4.000000,4.000000,4.000000,4.000000,4.000000,,,,,,,,,,,,,,,,,,,,,,,,,
1577736768.424958,97.000000,0.000000,4218.461426,4396.410156,4143.589844,4135.384766,4170.256348,450.000000,4.000000,,,,0.000000,4.000000,4.000000,4.000000,4.000000,4.000000,,,,,,,,,,,,,,,,,,,,,,,,,
1577736768.432678,98.000000,0.000000,4223.589844,4388.205078,4129.743652,4133.846191,4160.512695,450.000000,4.000000,,,,0.000000,4.000000,4.000000,4.000000,4.000000,4.000000,,,,,,,,,,,,,,,,,,,,,,,,,
1577736768.440498,99.000000,0.000000,4242.563965,4387.179688,4134.871582,4156.922852,4173.333496,16202.000000,4.000000,,,,0.000000,4.000000,4.000000,4.000000,4.000000,4.000000,,,,,,,,,,,,,,,,,,,,,,,,,
1577736768.448218,100.000000,0.000000,4248.205078,4404.615234,4169.230957,4165.641113,4186.666504,450.000000,4.000000,,,,0.000000,4.000000,4.000000,4.000000,4.000000,4.000000,,,,,,,,,,,,,,,,,,,,,,,,,
1577736768.455941,101.000000,0.000000,4222.051270,4400.512695,4155.384766,4148.717773,4173.846191,450.000000,4.000000,,,,0.000000,4.000000,4.000000,4.000000,4.000000,4.000000,,,,,,,,,,,,,,,,,,,,,,,,,
1577736768.463765,102.000000,0.000000,4196.922852,4388.717773,4127.692383,4134.871582,4158.974121,450.000000,4.000000,,,,0.000000,4.000000,4.000000,4.000000,4.000000,4.000000,39.673458,8.604381,2.759514,2.428829,1.515478,4.432168,2.894003,1.843807,1.855896,1.637013,7.359688,2.807230,1.450015,1.957113,1.308782,3.052984,2.474650,2.136996,1.166873,1.148412,29.353340,6.254333,3.126889,1.746548,1.553202
1577736768.471488,103.000000,0.000000,4192.307617,4417.948730,4142.051270,4142.051270,4160.512695,16202.000000,4.000000,,,,0.000000,4.000000,4.000000,4.000000,4.000000,4.000000,,,,,,,,,,,,,,,,,,,,,,,,,
1577736768.479214,104.000000,0.000000,4180.000000,4433.333496,4151.794922,4154.358887,4150.256348,450.000000,4.000000,,,,0.000000,4.000000,4.000000,4.000000,4.000000,4.000000,,,,,,,,,,,,,,,,,,,,,,,,,
1577736768.487041,105.000000,0.000000,4160.000000,4390.769043,4141.538574,4147.179688,4132.307617,450.000000,4.000000,,,,0.000000,4.000000,4.000000,4.000000,4.000000,4.000000,,,,,,,,,,,,,,,,,,,,,,,,,
1577736768.494868,106.000000,0.000000,4156.922852,4366.666504,4129.743652,4136.922852,4142.051270,450.000000,4.000000,,,,0.000000,4.000000,4.000000,4.000000,4.000000,4.000000,,,,,,,,,,,,,,,,,,,,,,,,,
1577736768.502590,107.000000,0.000000,4166.666504,4385.641113,4136.922852,4156.922852,4167.179688,16202.000000,4.000000,,,,0.000000,4.000000,4.000000,4.000000,4.000000,4.000000,,,,,,,,,,,,,,,,,,,,,,,,,
1577736768.510412,108.000000,0.000000,4175.897461,4408.717773,4153.846191,4174.358887,4176.922852,450.000000,4.000000,,,,0.000000,4.000000,4.000000,4.000000,4.000000,4.000000,,,,,,,,,,,,,,,,,,,,,,,,,
1577736768.518134,109.000000,0.000000,4189.743652,4410.256348,4159.487305,4158.974121,4178.461426,450.000000,4.000000,,,,0.000000,4.000000,4.000000,4.000000,4.000000,4.000000,,,,,,,,,,,,,,,,,,,,,,,,,
1577736768.525956,110.000000,0.000000,4204.615234,4395.384766,4161.538574,4144.615234,4183.589844,450.000000,4.000000,,,,0.000000,4.000000,4.000000,4.000000,4.000000,4.000000,,,,,,,,,,,,,,,,,,,,,,,,,
1577736768.533678,111.000000,0.000000,4201.538574,4384.615234,4149.743652,4144.102539,4185.641113,16202.000000,4.000000,,,,0.000000,4.000000,4.000000,4.000000,4.000000,4.000000,,,,,,,,,,,,,,,,,,,,,,,,,
1577736768.541403,112.000000,0.000000,4191.282227,4394.871582,4140.512695,4151.282227,4182.051270,450.000000,4.000000,,,,0.000000,4.000000,4.000000,4.000000,4.000000,4.000000,,,,,,,,,,,,,,,,,,,,,,,,,
1577736768.549228,113.000000,0.000000,4198.461426,4415.384766,4146.666504,4163.077148,4181.538574,450.000000,4.000000,,,,0.000000,4.000000,4.000000,4.000000,4.000000,4.000000,,,,,,,,,,,,,,,,,,,,,,,,,
1577736768.557054,114.000000,0.000000,4210.256348,4404.102539,4144.615234,4164.102539,4188.205078,450.000000,4.000000,,,,0.000000,4.000000,4.000000,4.000000,4.000000,4.000000,,,,,,,,,,,,,,,,,,,,,,,,,
1577736768.564775,115.000000,0.000000,4208.717773,4389.743652,4146.153809,4156.922852,4192.820313,16202.000000,4.000000,,,,0.000000,4.000000,4.000000,4.000000,4.000000,4.000000,,,,,,,,,,,,,,,,,,,,,,,,,
1577736768.572500,116.000000,0.000000,4199.487305,4411.794922,4142.563965,4151.282227,4184.615234,450.000000,4.000000,,,,0.000000,4.000000,4.000000,4.000000,4.000000,4.000000,,,,,,,,,,,,,,,,,,,,,,,,,
1577736768.580324,117.000000,0.000000,4192.820313,4413.333496,4141.538574,4144.102539,4172.820313,450.000000,4.000000,,,,0.000000,4.000000,4.000000,4.000000,4.000000,4.000000,,,,,,,,,,,,,,,,,,,,,,,,,
1577736768.588049,118.000000,0.000000,4187.692383,4389.230957,4152.820313,4131.282227,4170.256348,450.000000,4.000000,,,,0.000000,4.000000,4.000000,4.000000,4.000000,4.000000,45.727268,8.779803,2.596350,2.283082,1.500584,4.976259,2.708065,1.691239,1.800290,1.540493,6.674593,2.754489,1.433351,1.697885,1.227494,3.041879,2.308482,1.923904,0.988376,1.103932,30.464062,6.073567,3.229342,1.514405,1.523513
1577736768.595780,119.000000,0.000000,4182.051270,4403.077148,4143.077148,4130.256348,4171.794922,16202.000000,4.000000,,,,0.000000,4.000000,4.000000,4.000000,4.000000,4.000000,,,,,,,,,,,,,,,,,,,,,,,,,
1577736768.603612,120.000000,0.000000,4173.333496,4416.410156,4140.000000,4147.179688,4167.692383,450.000000,4.000000,,,,0.000000,4.000000,4.000000,4.000000,4.000000,4.000000,,,,,,,,,,,,,,,,,,,,,,,,,
1577736768.611444,121.000000,0.000000,4171.282227,4384.615234,4145.641113,4152.820313,4168.205078,450.000000,4.000000,,,,0.000000,4.000000,4.000000,4.000000,4.000000,4.000000,,,,,,,,,,,,,,,,,,,,,,,,,
1577736768.619168,122.000000,0.000000,4180.512695,4385.641113,4139.487305,4151.794922,4177.948730,450.000000,4.000000,,,,0.000000,4.000000,4.000000,4.000000,4.000000,4.000000,,,,,,,,,,,,,,,,,,,,,,,,,
1577736768.626895,123.000000,0.000000,4170.769043,4410.256348,4135.384766,4145.128418,4172.820313,16202.000000,4.000000,,,,0.000000,4.000000,4.000000,4.000000,4.000000,4.000000,,,,,,,,,,,,,,,,,,,,,,,,,
1577736768.634626,124.000000,0.000000,4144.102539,4389.743652,4116.410156,4130.256348,4157.436035,450.000000,4.000000,,,,0.000000,4.000000,4.000000,4.000000,4.000000,4.000000,,,,,,,,,,,,,,,,,,,,,,,,,
1577736768.642457,125.000000,0.000000,4147.692383,4386.153809,4115.384766,4129.230957,4156.922852,450.000000,4.000000,,,,0.000000,4.000000,4.000000,4.000000,4.000000,4.000000,,,,,,,,,,,,,,,,,,,,,,,,,
1577736768.650188,126.000000,0.000000,4169.743652,4401.025879,4135.384766,4130.769043,4169.230957,450.000000,4.000000,,,,0.000000,4.000000,4.000000,4.000000,4.000000,4.000000,,,,,,,,,,,,,,,,,,,,,,,,,
1577736768.658019,127.000000,0.000000,4166.153809,4390.256348,4129.230957,4131.794922,4166.153809,238.000000,4.000000,,,,0.000000,4.000000,4.000000,4.000000,4.000000,4.000000,,,,,,,,,,,,,,,,,,,,,,,,,
1577736768.665750,0.000000,0.000000,4156.410156,4401.025879,4126.153809,4149.230957,4153.846191,450.000000,4.000000,,,,0.000000,4.000000,4.000000,4.000000,4.000000,4.000000,,,,,,,,,,,,,,,,,,,,,,,,,
1577736768.673581,1.000000,0.000000,4155.384766,4415.384766,4128.717773,4156.410156,4158.461426,450.000000,4.000000,,,,0.000000,4.000000,4.000000,4.000000,4.000000,4.000000,,,,,,,,,,,,,,,,,,,,,,,,,
1577736768.681312,2.000000,0.000000,4146.153809,4388.717773,4131.282227,4140.000000,4167.692383,16202.000000,4.000000,,,,0.000000,4.000000,4.000000,4.000000,4.000000,4.000000,,,,,,,,,,,,,,,,,,,,,,,,,
1577736768.689143,3.000000,0.000000,4141.025879,4370.256348,4137.948730,4138.461426,4173.333496,450.000000,4.000000,,,,0.000000,4.000000,4.000000,4.000000,4.000000,4.000000,,,,,,,,,,,,,,,,,,,,,,,,,
1577736768.696873,4.000000,0.000000,4145.128418,4395.897461,4130.256348,4153.333496,4178.974121,16209.000000,4.000000,,,,0.000000,4.000000,4.000000,4.000000,4.000000,4.000000,,,,,,,,,,,,,,,,,,,,,,,,,
1577736768.704607,5.000000,0.000000,4146.666504,4406.153809,4139.487305,4147.692383,4184.615234,450.000000,4.000000,,,,0.000000,4.000000,4.000000,4.000000,4.000000,4.000000,,,,,,,,,,,,,,,,,,,,,,,,,
1577736768.712344,6.000000,1.000000,4146.025879,4405.577148,4138.910156,4148.012695,4183.077148,16128.000000,4.000000,,,,0.000000,4.000000,4.000000,4.000000,4.000000,4.000000,47.230640,8.336312,2.203563,1.992653,1.372262,5.172427,2.222815,1.439034,1.706492,1.441612,5.712811,2.514793,1.278626,1.324677,1.079851,2.964414,1.902786,1.513914,0.800691,1.024068,28.595819,5.337690,3.024781,1.230338,1.371443
1577736768.720182,7.000000,1.000000,4145.384766,4405.000000,4138.333496,4148.333496,4181.538574,450.000000,4.000000,,,,0.000000,4.000000,4.000000,4.000000,4.000000,4.000000,,,,,,,,,,,,,,,,,,,,,,,,,
1577736768.728020,8.000000,1.000000,4144.743652,4404.422852,4137.756348,4148.653809,4180.000000,450.000000,4.000000,,,,0.000000,4.000000,4.000000,4.000000,4.000000,4.000000,,,,,,,,,,,,,,,,,,,,,,,,,
1577736768.735857,9.000000,1.000000,4144.102539,4403.846191,4137.179688,4148.974121,4178.461426,16119.000000,4.000000,,,,0.000000,4.000000,4.000000,4.000000,4.000000,4.000000,,,,,,,,,,,,,,,,,,,,,,,,,
1577736768.743695,10.000000,1.000000,4143.461426,4403.269043,4136.602539,4149.294922,4176.922852,450.000000,4.000000,,,,0.000000,4.000000,4.000000,4.000000,4.000000,4.000000,,,,,,,,,,,,,,,,,,,,,,,,,
1577736768.751532,11.000000,1.000000,4142.820313,4402.692383,4136.025879,4149.615234,4175.384766,16213.000000,4.000000,,,,0.000000,4.000000,4.000000,4.000000,4.000000,4.000000,,,,,,,,,,,,,,,,,,,,,,,,,
1577736768.759370,12.000000,1.000000,4142.179688,4402.115234,4135.448730,4149.936035,4173.846191,450.000000,4.000000,,,,0.000000,4.000000,4.000000,4.000000,4.000000,4.000000,,,,,,,,,,,,,,,,,,,,,,,,,
1577736768.767207,13.000000,0.000000,4141.538574,4401.538574,4134.871582,4150.256348,4172.307617,450.000000,4.000000,,,,0.000000,4.000000,4.000000,4.000000,4.000000,4.000000,,,,,,,,,,,,,,,,,,,,,,,,,
1577736768.775045,14.000000,0.000000,4135.897461,4374.358887,4138.461426,4137.436035,4175.897461,450.000000,4.000000,,,,0.000000,4.000000,4.000000,4.000000,4.000000,4.000000,,,,,,,,,,,,,,,,,,,,,,,,,
1577736768.782753,15.000000,0.000000,4147.692383,4401.025879,4153.333496,4143.589844,4186.153809,16209.000000,4.000000,,,,0.000000,4.000000,4.000000,4.000000,4.000000,4.000000,,,,,,,,,,,,,,,,,,,,,,,,,
1577736768.790560,16.000000,0.000000,4144.615234,4420.512695,4143.077148,4142.051270,4176.410156,0.000000,4.000000,,,,0.000000,4.000000,4.000000,4.000000,4.000000,4.000000,,,,,,,,,,,,,,,,,,,,,,,,,
1577736768.798268,17.000000,0.000000,4120.000000,4396.410156,4113.333496,4117.436035,4153.846191,0.000000,4.000000,,,,0.000000,4.000000,4.000000,4.000000,4.000000,4.000000,,,,,,,,,,,,,,,,,,,,,,,,,
1577736768.806075,18.000000,0.000000,4118.461426,4396.922852,4125.641113,4114.871582,4146.153809,0.000000,4.000000,,,,0.000000,4.000000,4.000000,4.000000,4.000000,4.000000,,,,,,,,,,,,,,,,,,,,,,,,,
1577736768.813783,19.000000,0.000000,4134.358887,4410.769043,4131.282227,4127.179688,4153.846191,0.000000,4.000000,,,,0.000000,4.000000,4.000000,4.000000,4.000000,4.000000,,,,,,,,,,,,,,,,,,,,,,,,,
1577736768.821590,20.000000,0.000000,4132.820313,4408.205078,4117.948730,4132.307617,4156.410156,0.000000,4.000000,,,,0.000000,4.000000,4.000000,4.000000,4.000000,4.000000,,,,,,,,,,,,,,,,,,,,,,,,,
1577736768.829397,21.000000,0.000000,4129.230957,4403.589844,4125.641113,4131.794922,4156.922852,0.000000,4.000000,,,,0.000000,4.000000,4.000000,4.000000,4.000000,4.000000,,,,,,,,,,,,,,,,,,,,,,,,,
1577736768.837099,22.000000,0.000000,4131.794922,4395.384766,4136.410156,4136.922852,4166.666504,0.000000,4.000000,,,,0.000000,4.000000,4.000000,4.000000,4.000000,4.000000,43.568024,7.442818,1.786955,1.619301,1.152217,4.985177,1.604757,1.170286,1.595329,1.364546,4.671233,2.149435,1.038773,0.945965,0.901387,2.829795,1.377656,1.026756,0.655064,0.927181,24.376431,4.305143,2.596074,0.956162,1.130525
1577736768.844806,23.000000,0.000000,4130.256348,4405.128418,4143.077148,4145.128418,4171.282227,0.000000,4.000000,,,,0.000000,4.000000,4.000000,4.000000,4.000000,4.000000,,,,,,,,,,,,,,,,,,,,,,,,,
1577736768.852516,24.000000,0.000000,4121.538574,4422.563965,4132.307617,4132.307617,4160.000000,0.000000,4.000000,,,,0.000000,4.000000,4.000000,4.000000,4.000000,4.000000,,,,,,,,,,,,,,,,,,,,,,,,,
1577736768.860326,25.000000,0.000000,4107.692383,4395.897461,4116.922852,4120.000000,4148.205078,0.000000,4.000000,,,,0.000000,4.000000,4.000000,4.000000,4.000000,4.000000,,,,,,,,,,,,,,,,,,,,,,,,,
1577736768.868037,26.000000,0.000000,4109.230957,4384.102539,4121.538574,4135.897461,4153.846191,0.000000,4.000000,,,,0.000000,4.000000,4.000000,4.000000,4.000000,4.000000,,,,,,,,,,,,,,,,,,,,,,,,,
1577736768.875751,27.000000,0.000000,4108.205078,4414.358887,4117.948730,4134.358887,4149.230957,0.000000,4.000000,,,,0.000000,4.000000,4.000000,4.000000,4.000000,4.000000,,,,,,,,,,,,,,,,,,,,,,,,,
1577736768.883565,28.000000,0.000000,4093.846191,4409.230957,4117.436035,4107.692383,4139.487305,0.000000,4.000000,,,,0.000000,4.000000,4.000000,4.000000,4.000000,4.000000,,,,,,,,,,,,,,,,,,,,,,,,,
1577736768.891278,29.000000,0.000000,4104.102539,4397.436035,4117.948730,4116.922852,4159.487305,0.000000,4.000000,,,,0.000000,4.000000,4.000000,4.000000,4.000000,4.000000,,,,,,,,,,,,,,,,,,,,,,,,,
1577736768.898995,30.000000,0.000000,4130.769043,4417.948730,4116.922852,4156.922852,4185.641113,0.000000,4.000000,,,,0.000000,4.000000,4.000000,4.000000,4.000000,4.000000,,,,,,,,,,,,,,,,,,,,,,,,,
1577736768.906813,31.000000,0.000000,4148.205078,4433.333496,4128.717773,4165.128418,4202.563965,0.000000,4.000000,,,,0.000000,4.000000,4.000000,4.000000,4.000000,4.000000,,,,,,,,,,,,,,,,,,,,,,,,,
1577736768.914538,32.000000,0.000000,4153.846191,4413.846191,4119.487305,4136.922852,4216.410156,0.000000,4.000000,,,,0.000000,4.000000,4.000000,4.000000,4.000000,4.000000,,,,,,,,,,,,,,,,,,,,,,,,,
1577736768.922267,33.000000,0.000000,4156.922852,4393.333496,4115.384766,4134.871582,4210.769043,0.000000,4.000000,,,,0.000000,4.000000,4.000000,4.000000,4.000000,4.000000,,,,,,,,,,,,,,,,,,,,,,,,,
1577736768.930097,34.000000,0.000000,4180.512695,4402.051270,4130.256348,4160.512695,4215.384766,0.000000,4.000000,,,,0.000000,4.000000,4.000000,4.000000,4.000000,4.000000,,,,,,,,,,,,,,,,,,,,,,,,,
1577736768.937926,35.000000,0.000000,4209.743652,4400.000000,4134.871582,4162.563965,4247.179688,0.000000,4.000000,,,,0.000000,4.000000,4.000000,4.000000,4.000000,4.000000,,,,,,,,,,,,,,,,,,,,,,,,,
1577736768.945755,36.000000,0.000000,4202.051270,4396.410156,4139.487305,4148.717773,4242.051270,0.000000,4.000000,,,,0.000000,4.000000,4.000000,4.000000,4.000000,4.000000,,,,,,,,,,,,,,,,,,,,,,,,,
1577736768.953476,37.000000,0.000000,4178.461426,4408.205078,4137.436035,4152.820313,4211.282227,0.000000,4.000000,,,,0.000000,4.000000,4.000000,4.000000,4.000000,4.000000,,,,,,,,,,,,,,,,,,,,,,,,,
1577736768.961200,38.000000,0.000000,4178.974121,4421.025879,4149.743652,4160.512695,4223.077148,0.000000,4.000000,,,,0.000000,4.000000,4.000000,4.000000,4.000000,4.000000,36.137074,6.375552,1.568936,1.254837,0.896686,4.456338,1.044237,0.961123,1.485605,1.347483,3.769727,1.749220,0.807354,0.650790,0.740939,2.694417,0.874203,0.599073,0.591737,0.846022,19.278938,3.279991,2.095176,0.744574,0.867466
1577736768.969024,39.000000,0.000000,4173.333496,4406.666504,4157.948730,4146.666504,4234.358887,0.000000,4.000000,,,,0.000000,4.000000,4.000000,4.000000,4.000000,4.000000,,,,,,,,,,,,,,,,,,,,,,,,,
1577736768.976848,40.000000,0.000000,4149.230957,4387.692383,4141.538574,4149.230957,4215.897461,0.000000,4.000000,,,,0.000000,4.000000,4.000000,4.000000,4.000000,4.000000,,,,,,,,,,,,,,,,,,,,,,,,,
1577736768.984568,41.000000,0.000000,4155.897461,4414.358887,4150.256348,4163.077148,4221.538574,0.000000,4.000000,,,,0.000000,4.000000,4.000000,4.000000,4.000000,4.000000,,,,,,,,,,,,,,,,,,,,,,,,,
1577736768.992292,42.000000,0.000000,4182.051270,4424.102539,4152.820313,4148.205078,4235.897461,0.000000,4.000000,,,,0.000000,4.000000,4.000000,4.000000,4.000000,4.000000,,,,,,,,,,,,,,,,,,,,,,,,,
1577736769.000115,43.000000,0.000000,4186.153809,4386.153809,4142.563965,4146.666504,4226.666504,0.000000,4.000000,,,,0.000000,4.000000,4.000000,4.000000,4.000000,4.000000,,,,,,,,,,,,,,,,,,,,,,,,,
1577736769.007839,44.000000,0.000000,4181.538574,4383.077148,4148.717773,4159.487305,4227.692383,0.000000,4.000000,,,,0.000000,4.000000,4.000000,4.000000,4.000000,4.000000,,,,,,,,,,,,,,,,,,,,,,,,,
1577736769.015662,45.000000,0.000000,4180.512695,4413.333496,4143.589844,4144.102539,4237.436035,0.000000,4.000000,,,,0.000000,4.000000,4.000000,4.000000,4.000000,4.000000,,,,,,,,,,,,,,,,,,,,,,,,,
1577736769.023385,46.000000,0.000000,4174.871582,4409.230957,4143.589844,4141.025879,4229.743652,0.000000,4.000000,,,,0.000000,4.000000,4.000000,4.000000,4.000000,4.000000,,,,,,,,,,,,,,,,,,,,,,,,,
1577736769.031208,47.000000,0.000000,4166.666504,4391.282227,4147.692383,4163.589844,4218.974121,0.000000,4.000000,,,,0.000000,4.000000,4.000000,4.000000,4.000000,4.000000,,,,,,,,,,,,,,,,,,,,,,,,,
1577736769.038930,48.000000,0.000000,4156.922852,4407.692383,4145.641113,4165.128418,4222.563965,0.000000,4.000000,,,,0.000000,4.000000,4.000000,4.000000,4.000000,4.000000,,,,,,,,,,,,,,,,,,,,,,,,,
1577736769.046753,49.000000,0.000000,4145.641113,4414.871582,4143.589844,4153.846191,4226.153809,0.000000,4.000000,,,,0.000000,4.000000,4.000000,4.000000,4.000000,4.000000,,,,,,,,,,,,,,,,,,,,,,,,,
1577736769.054475,50.000000,0.000000,4151.282227,4395.384766,4136.922852,4165.641113,4229.743652,0.000000,4.000000,,,,0.000000,4.000000,4.000000,4.000000,4.000000,4.000000,,,,,,,,,,,,,,,,,,,,,,,,,
1577736769.062298,51.000000,0.000000,4171.282227,4388.717773,4146.153809,4167.692383,4238.974121,0.000000,4.000000,,,,0.000000,4.000000,4.000000,4.000000,4.000000,4.000000,,,,,,,,,,,,,,,,,,,,,,,,,
1577736769.070019,52.000000,0.000000,4165.641113,4409.743652,4145.641113,4142.563965,4231.794922,0.000000,4.000000,,,,0.000000,4.000000,4.000000,4.000000,4.000000,4.000000,,,,,,,,,,,,,,,,,,,,,,,,,
1577736769.077841,53.000000,0.000000,4147.179688,4426.666504,4135.384766,4146.666504,4222.563965,0.000000,4.000000,,,,0.000000,4.000000,4.000000,4.000000,4.000000,4.000000,,,,,,,,,,,,,,,,,,,,,,,,,
1577736769.085562,54.000000,0.000000,4158.974121,4409.230957,4154.871582,4160.000000,4234.358887,0.000000,4.000000,,,,0.000000,4.000000,4.000000,4.000000,4.000000,4.000000,27.727623,5.426693,1.666829,0.977899,0.666889,3.694587,0.678020,0.858319,1.389122,1.412999,3.119247,1.405757,0.669200,0.477606,0.632649,2.614405,0.503031,0.329342,0.619961,0.802489,14.776250,2.492630,1.700026,0.619342,0.645373
1577736769.093383,55.000000,0.000000,4168.205078,4389.743652,4157.948730,4146.153809,4235.897461,0.000000,4.000000,,,,0.000000,4.000000,4.000000,4.000000,4.000000,4.000000,,,,,,,,,,,,,,,,,,,,,,,,,
1577736769.101104,56.000000,0.000000,4153.846191,4412.820313,4142.563965,4152.307617,4224.102539,0.000000,4.000000,,,,0.000000,4.000000,4.000000,4.000000,4.000000,4.000000,,,,,,,,,,,,,,,,,,,,,,,,,
1577736769.108925,57.000000,0.000000,4158.974121,4439.487305,4143.589844,4169.230957,4229.743652,0.000000,4.000000,,,,0.000000,4.000000,4.000000,4.000000,4.000000,4.000000,,,,,,,,,,,,,,,,,,,,,,,,,
1577736769.116646,58.000000,0.000000,4172.307617,4405.641113,4149.230957,4156.410156,4243.077148,0.000000,4.000000,,,,0.000000,4.000000,4.000000,4.000000,4.000000,4.000000,,,,,,,,,,,,,,,,,,,,,,,,,
1577736769.124370,59.000000,0.000000,4172.820313,4384.615234,4163.077148,4156.410156,4244.615234,0.000000,4.000000,,,,0.000000,4.000000,4.000000,4.000000,4.000000,4.000000,,,,,,,,,,,,,,,,,,,,,,,,,
1577736769.132195,60.000000,0.000000,4177.948730,4430.256348,4161.025879,4170.256348,4242.563965,0.000000,4.000000,,,,0.000000,4.000000,4.000000,4.000000,4.000000,4.000000,,,,,,,,,,,,,,,,,,,,,,,,,
1577736769.139919,61.000000,0.000000,4175.384766,4430.256348,4157.436035,4163.589844,4242.051270,0.000000,4.000000,,,,0.000000,4.000000,4.000000,4.000000,4.000000,4.000000,,,,,,,,,,,,,,,,,,,,,,,,,
1577736769.147743,62.000000,0.000000,4157.948730,4376.410156,4164.102539,4157.436035,4235.384766,0.000000,4.000000,,,,0.000000,4.000000,4.000000,4.000000,4.000000,4.000000,,,,,,,,,,,,,,,,,,,,,,,,,
1577736769.155467,63.000000,0.000000,4147.179688,4389.743652,4149.230957,4159.487305,4222.051270,0.000000,4.000000,,,,0.000000,4.000000,4.000000,4.000000,4.000000,4.000000,,,,,,,,,,,,,,,,,,,,,,,,,
1577736769.163291,64.000000,0.000000,4143.589844,4438.974121,4145.128418,4169.743652,4215.384766,450.000000,4.000000,,,,0.000000,4.000000,4.000000,4.000000,4.000000,4.000000,,,,,,,,,,,,,,,,,,,,,,,,,
1577736769.171014,65.000000,0.000000,4140.512695,4413.846191,4149.743652,4174.358887,4222.051270,450.000000,4.000000,,,,0.000000,4.000000,4.000000,4.000000,4.000000,4.000000,,,,,,,,,,,,,,,,,,,,,,,,,
1577736769.178837,66.000000,0.000000,4146.666504,4382.051270,4146.666504,4158.461426,4228.205078,16212.000000,4.000000,,,,0.000000,4.000000,4.000000,4.000000,4.000000,4.000000,,,,,,,,,,,,,,,,,,,,,,,,,
1577736769.186560,67.000000,0.000000,4153.333496,4410.256348,4149.743652,4151.282227,4223.077148,450.000000,4.000000,,,,0.000000,4.000000,4.000000,4.000000,4.000000,4.000000,,,,,,,,,,,,,,,,,,,,,,,,,
1577736769.194383,68.000000,0.000000,4141.025879,4421.538574,4143.077148,4160.000000,4211.282227,16211.000000,4.000000,,,,0.000000,4.000000,4.000000,4.000000,4.000000,4.000000,,,,,,,,,,,,,,,,,,,,,,,,,
1577736769.202106,69.000000,0.000000,4135.384766,4394.358887,4138.461426,4153.333496,4204.615234,450.000000,4.000000,,,,0.000000,4.000000,4.000000,4.000000,4.000000,4.000000,,,,,,,,,,,,,,,,,,,,,,,,,
1577736769.209928,70.000000,0.000000,4144.615234,4381.025879,4136.410156,4141.025879,4205.128418,16137.000000,4.000000,,,,0.000000,4.000000,4.000000,4.000000,4.000000,4.000000,20.627245,4.747013,2.029810,0.823737,0.504734,2.827279,0.530589,0.866370,1.310515,1.548409,2.718556,1.161759,0.655217,0.412057,0.581643,2.598263,0.302490,0.247264,0.715759,0.801600,11.709278,1.991205,1.531676,0.574239,0.500906
1577736769.217651,71.000000,0.000000,4152.307617,4395.897461,4146.153809,4166.666504,4217.436035,450.000000,4.000000,,,,0.000000,4.000000,4.000000,4.000000,4.000000,4.000000,,,,,,,,,,,,,,,,,,,,,,,,,
1577736769.225473,72.000000,0.000000,4154.871582,4410.769043,4159.487305,4181.025879,4224.102539,450.000000,4.000000,,,,0.000000,4.000000,4.000000,4.000000,4.000000,4.000000,,,,,,,,,,,,,,,,,,,,,,,,,
1577736769.233195,73.000000,0.000000,4143.589844,4406.153809,4136.922852,4142.051270,4206.153809,16128.000000,4.000000,,,,0.000000,4.000000,4.000000,4.000000,4.000000,4.000000,,,,,,,,,,,,,,,,,,,,,,,,,
1577736769.241017,74.000000,0.000000,4131.794922,4405.128418,4130.769043,4123.077148,4193.333496,450.000000,4.000000,,,,0.000000,4.000000,4.000000,4.000000,4.000000,4.000000,,,,,,,,,,,,,,,,,,,,,,,,,
1577736769.248739,75.000000,0.000000,4139.487305,4417.436035,4147.179688,4140.000000,4204.615234,16209.000000,4.000000,,,,0.000000,4.000000,4.000000,4.000000,4.000000,4.000000,,,,,,,,,,,,,,,,,,,,,,,,,
1577736769.256465,76.000000,0.000000,4147.692383,4421.538574,4143.589844,4150.256348,4216.410156,450.000000,4.000000,,,,0.000000,4.000000,4.000000,4.000000,4.000000,4.000000,,,,,,,,,,,,,,,,,,,,,,,,,
1577736769.264290,77.000000,0.000000,4145.128418,4416.922852,4142.563965,4152.820313,4216.922852,450.000000,4.000000,,,,0.000000,4.000000,4.000000,4.000000,4.000000,4.000000,,,,,,,,,,,,,,,,,,,,,,,,,
1577736769.272116,78.000000,0.000000,4135.897461,4411.282227,4133.333496,4153.333496,4215.384766,450.000000,4.000000,,,,0.000000,4.000000,4.000000,4.000000,4.000000,4.000000,,,,,,,,,,,,,,,,,,,,,,,,,
1577736769.279837,79.000000,0.000000,4122.051270,4402.563965,4126.666504,4148.205078,4207.692383,16209.000000,4.000000,,,,0.000000,4.000000,4.000000,4.000000,4.000000,4.000000,,,,,,,,,,,,,,,,,,,,,,,,,
1577736769.287562,80.000000,0.000000,4121.538574,4400.000000,4140.512695,4147.179688,4202.051270,450.000000,4.000000,,,,0.000000,4.000000,4.000000,4.000000,4.000000,4.000000,,,,,,,,,,,,,,,,,,,,,,,,,
1577736769.295387,81.000000,0.000000,4128.717773,4394.358887,4142.051270,4143.589844,4216.410156,450.000000,4.000000,,,,0.000000,4.000000,4.000000,4.000000,4.000000,4.000000,,,,,,,,,,,,,,,,,,,,,,,,,
1577736769.303111,82.000000,0.000000,4124.615234,4384.615234,4145.641113,4134.871582,4230.769043,450.000000,4.000000,,,,0.000000,4.000000,4.000000,4.000000,4.000000,4.000000,,,,,,,,,,,,,,,,,,,,,,,,,
1577736769.310936,83.000000,0.000000,4130.769043,4398.461426,4156.410156,4151.282227,4231.794922,16209.000000,4.000000,,,,0.000000,4.000000,4.000000,4.000000,4.000000,4.000000,,,,,,,,,,,,,,,,,,,,,,,,,
1577736769.318660,84.000000,0.000000,4148.717773,4417.436035,4168.205078,4172.307617,4235.384766,450.000000,4.000000,,,,0.000000,4.000000,4.000000,4.000000,4.000000,4.000000,,,,,,,,,,,,,,,,,,,,,,,,,
1577736769.326484,85.000000,0.000000,4154.358887,4401.025879,4174.871582,4157.436035,4235.384766,450.000000,4.000000,,,,0.000000,4.000000,4.000000,4.000000,4.000000,4.000000,,,,,,,,,,,,,,,,,,,,,,,,,
1577736769.334208,86.000000,0.000000,4143.589844,4391.282227,4164.102539,4149.230957,4223.077148,450.000000,4.000000,,,,0.000000,4.000000,4.000000,4.000000,4.000000,4.000000,16.034447,4.436034,2.487436,0.775425,0.427206,1.980121,0.525487,0.938841,1.240120,1.721323,2.500913,1.005043,0.730665,0.407180,0.568416,2.614402,0.250583,0.316044,0.828249,0.834799,10.062274,1.730032,1.605721,0.577474,0.439939
1577736769.342032,87.000000,0.000000,4130.256348,4412.820313,4167.179688,4169.743652,4212.820313,16209.000000,4.000000,,,,0.000000,4.000000,4.000000,4.000000,4.000000,4.000000,,,,,,,,,,,,,,,,,,,,,,,,,
1577736769.349855,88.000000,0.000000,4131.794922,4415.384766,4167.179688,4161.538574,4216.922852,450.000000,4.000000,,,,0.000000,4.000000,4.000000,4.000000,4.000000,4.000000,,,,,,,,,,,,,,,,,,,,,,,,,
1577736769.357575,89.000000,0.000000,4160.000000,4406.666504,4155.384766,4142.563965,4235.897461,450.000000,4.000000,,,,0.000000,4.000000,4.000000,4.000000,4.000000,4.000000,,,,,,,,,,,,,,,,,,,,,,,,,
1577736769.365298,90.000000,0.000000,4186.666504,4408.717773,4157.436035,4152.307617,4252.820313,450.000000,4.000000,,,,0.000000,4.000000,4.000000,4.000000,4.000000,4.000000,,,,,,,,,,,,,,,,,,,,,,,,,
1577736769.373121,91.000000,0.000000,4190.769043,4393.846191,4147.692383,4154.358887,4250.769043,16209.000000,4.000000,,,,0.000000,4.000000,4.000000,4.000000,4.000000,4.000000,,,,,,,,,,,,,,,,,,,,,,,,,
1577736769.380844,92.000000,0.000000,4208.717773,4388.205078,4146.153809,4146.666504,4248.717773,450.000000,4.000000,,,,0.000000,4.000000,4.000000,4.000000,4.000000,4.000000,,,,,,,,,,,,,,,,,,,,,,,,,
1577736769.388667,93.000000,0.000000,4245.641113,4418.461426,4155.384766,4152.307617,4261.025879,450.000000,4.000000,,,,0.000000,4.000000,4.000000,4.000000,4.000000,4.000000,,,,,,,,,,,,,,,,,,,,,,,,,
1577736769.396390,94.000000,0.000000,4274.871582,4417.948730,4152.307617,4158.974121,4269.230957,450.000000,4.000000,,,,0.000000,4.000000,4.000000,4.000000,4.000000,4.000000,,,,,,,,,,,,,,,,,,,,,,,,,
1577736769.404213,95.000000,0.000000,4300.000000,4396.922852,4164.102539,4161.538574,4277.948730,16209.000000,4.000000,,,,0.000000,4.000000,4.000000,4.000000,4.000000,4.000000,,,,,,,,,,,,,,,,,,,,,,,,,
1577736769.411935,96.000000,0.000000,4308.205078,4415.384766,4169.743652,4164.615234,4290.769043,450.000000,4.000000,,,,0.000000,4.000000,4.000000,4.000000,4.000000,4.000000,,,,,,,,,,,,,,,,,,,,,,,,,
1577736769.419661,97.000000,0.000000,4283.077148,4411.794922,4161.538574,4161.025879,4280.000000,450.000000,4.000000,,,,0.000000,4.000000,4.000000,4.000000,4.000000,4.000000,,,,,,,,,,,,,,,,,,,,,,,,,
1577736769.427391,98.000000,0.000000,4254.358887,4377.948730,4154.871582,4148.717773,4254.871582,450.000000,4.000000,,,,0.000000,4.000000,4.000000,4.000000,4.000000,4.000000,,,,,,,,,,,,,,,,,,,,,,,,,
1577736769.435221,99.000000,0.000000,4250.256348,4380.512695,4154.871582,4141.538574,4248.205078,16209.000000,4.000000,,,,0.000000,4.000000,4.000000,4.000000,4.000000,4.000000,,,,,,,,,,,,,,,,,,,,,,,,,
1577736769.442950,100.000000,0.000000,4264.102539,4414.358887,4168.717773,4150.769043,4252.820313,450.000000,4.000000,,,,0.000000,4.000000,4.000000,4.000000,4.000000,4.000000,,,,,,,,,,,,,,,,,,,,,,,,,
1577736769.450780,101.000000,0.000000,4268.205078,4423.077148,4161.538574,4148.205078,4250.769043,450.000000,4.000000,,,,0.000000,4.000000,4.000000,4.000000,4.000000,4.000000,,,,,,,,,,,,,,,,,,,,,,,,,
1577736769.458609,102.000000,0.000000,4264.615234,4399.487305,4153.333496,4137.948730,4249.743652,450.000000,4.000000,,,,0.000000,4.000000,4.000000,4.000000,4.000000,4.000000,13.805477,4.440432,2.843956,0.796000,0.423331,1.266143,0.562347,1.007567,1.165807,1.911789,2.387772,0.893943,0.816887,0.422926,0.562779,2.610909,0.296323,0.469230,0.914544,0.886640,9.497236,1.620187,1.827248,0.602187,0.441310
1577736769.466334,103.000000,0.000000,4268.717773,4388.717773,4163.589844,4152.307617,4256.922852,16209.000000,4.000000,,,,0.000000,4.000000,4.000000,4.000000,4.000000,4.000000,,,,,,,,,,,,,,,,,,,,,,,,,
1577736769.474159,104.000000,0.000000,4267.692383,4410.769043,4170.769043,4168.717773,4263.077148,450.000000,4.000000,,,,0.000000,4.000000,4.000000,4.000000,4.000000,4.000000,,,,,,,,,,,,,,,,,,,,,,,,,
1577736769.481884,105.000000,0.000000,4263.077148,4429.230957,4188.717773,4167.179688,4264.102539,450.000000,4.000000,,,,0.000000,4.000000,4.000000,4.000000,4.000000,4.000000,,,,,,,,,,,,,,,,,,,,,,,,,
1577736769.489612,106.000000,0.000000,4269.743652,4411.282227,4191.794922,4150.256348,4261.538574,450.000000,4.000000,,,,0.000000,4.000000,4.000000,4.000000,4.000000,4.000000,,,,,,,,,,,,,,,,,,,,,,,,,
1577736769.497440,107.000000,0.000000,4274.358887,4388.717773,4175.384766,4144.615234,4261.538574,16209.000000,4.000000,,,,0.000000,4.000000,4.000000,4.000000,4.000000,4.000000,,,,,,,,,,,,,,,,,,,,,,,,,
1577736769.505168,108.000000,0.000000,4257.436035,4388.717773,4172.307617,4156.922852,4256.410156,450.000000,4.000000,,,,0.000000,4.000000,4.000000,4.000000,4.000000,4.000000,,,,,,,,,,,,,,,,,,,,,,,,,
1577736769.512996,109.000000,0.000000,4236.922852,4406.153809,4165.641113,4160.000000,4247.179688,450.000000,4.000000,,,,0.000000,4.000000,4.000000,4.000000,4.000000,4.000000,,,,,,,,,,,,,,,,,,,,,,,,,
1577736769.520732,110.000000,0.000000,4234.358887,4409.230957,4167.179688,4150.769043,4241.538574,450.000000,4.000000,,,,0.000000,4.000000,4.000000,4.000000,4.000000,4.000000,,,,,,,,,,,,,,,,,,,,,,,,,
1577736769.528671,111.000000,0.000000,4237.436035,4382.563965,4168.205078,4145.128418,4238.461426,16209.000000,4.000000,,,,0.000000,4.000000,4.000000,4.000000,4.000000,4.000000,,,,,,,,,,,,,,,,,,,,,,,,,
1577736769.536510,112.000000,0.000000,4244.102539,4393.333496,4161.538574,4153.846191,4243.077148,450.000000,4.000000,,,,0.000000,4.000000,4.000000,4.000000,4.000000,4.000000,,,,,,,,,,,,,,,,,,,,,,,,,
1577736769.544349,113.000000,0.000000,4251.282227,4429.743652,4173.846191,4155.384766,4252.307617,450.000000,4.000000,,,,0.000000,4.000000,4.000000,4.000000,4.000000,4.000000,,,,,,,,,,,,,,,,,,,,,,,,,
1577736769.552187,114.000000,0.000000,4244.615234,4425.128418,4172.307617,4151.282227,4248.205078,450.000000,4.000000,,,,0.000000,4.000000,4.000000,4.000000,4.000000,4.000000,,,,,,,,,,,,,,,,,,,,,,,,,
1577736769.559918,115.000000,0.000000,4245.641113,4400.512695,4163.077148,4164.102539,4244.102539,16209.000000,4.000000,,,,0.000000,4.000000,4.000000,4.000000,4.000000,4.000000,,,,,,,,,,,,,,,,,,,,,,,,,
1577736769.567748,116.000000,0.000000,4262.563965,4394.358887,4159.487305,4163.589844,4252.307617,450.000000,4.000000,,,,0.000000,4.000000,4.000000,4.000000,4.000000,4.000000,,,,,,,,,,,,,,,,,,,,,,,,,
1577736769.575479,117.000000,0.000000,4267.692383,4411.794922,4151.282227,4148.717773,4253.846191,450.000000,4.000000,,,,0.000000,4.000000,4.000000,4.000000,4.000000,4.000000,,,,,,,,,,,,,,,,,,,,,,,,,
1577736769.583213,118.000000,1.000000,4266.096680,4410.883301,4152.706543,4148.490234,4252.136719,450.000000,4.000000,,,,0.000000,4.000000,4.000000,4.000000,4.000000,4.000000,13.342861,4.603182,3.003984,0.846192,0.466013,0.778776,0.596724,1.039721,1.084261,2.109279,2.368442,0.816308,0.845168,0.439805,0.542488,2.567593,0.388904,0.637549,0.961234,0.945194,9.529037,1.603383,2.052492,0.639550,0.474707
1577736769.591047,119.000000,1.000000,4264.501465,4409.971680,4154.130859,4148.262207,4250.427246,450.000000,4.000000,,,,0.000000,4.000000,4.000000,4.000000,4.000000,4.000000,,,,,,,,,,,,,,,,,,,,,,,,,
1577736769.598881,120.000000,1.000000,4262.905762,4409.060059,4155.555664,4148.034180,4248.717773,450.000000,4.000000,,,,0.000000,4.000000,4.000000,4.000000,4.000000,4.000000,,,,,,,,,,,,,,,,,,,,,,,,,
1577736769.606715,121.000000,1.000000,4261.310547,4408.147949,4156.979980,4147.806152,4247.008789,450.000000,4.000000,,,,0.000000,4.000000,4.000000,4.000000,4.000000,4.000000,,,,,,,,,,,,,,,,,,,,,,,,,
1577736769.614549,122.000000,1.000000,4259.715332,4407.236328,4158.404785,4147.578125,4245.299316,450.000000,4.000000,,,,0.000000,4.000000,4.000000,4.000000,4.000000,4.000000,,,,,,,,,,,,,,,,,,,,,,,,,
1577736769.622383,123.000000,1.000000,4258.119629,4406.324707,4159.829102,4147.350586,4243.589844,450.000000,4.000000,,,,0.000000,4.000000,4.000000,4.000000,4.000000,4.000000,,,,,,,,,,,,,,,,,,,,,,,,,
1577736769.630217,124.000000,1.000000,4256.524414,4405.413086,4161.253418,4147.122559,4241.880371,450.000000,4.000000,,,,0.000000,4.000000,4.000000,4.000000,4.000000,4.000000,,,,,,,,,,,,,,,,,,,,,,,,,
1577736769.638051,125.000000,1.000000,4254.928711,4404.501465,4162.678223,4146.894531,4240.170898,450.000000,4.000000,,,,0.000000,4.000000,4.000000,4.000000,4.000000,4.000000,,,,,,,,,,,,,,,,,,,,,,,,,
1577736769.645885,126.000000,0.000000,4253.333496,4403.589844,4164.102539,4146.666504,4238.461426,450.000000,4.000000,,,,0.000000,4.000000,4.000000,4.000000,4.000000,4.000000,,,,,,,,,,,,,,,,,,,,,,,,,
1577736769.653590,127.000000,0.000000,4272.820313,4388.205078,4172.820313,4153.333496,4246.153809,238.000000,4.000000,,,,0.000000,4.000000,4.000000,4.000000,4.000000,4.000000,,,,,,,,,,,,,,,,,,,,,,,,,
1577736769.661396,0.000000,0.000000,4275.897461,4415.384766,4171.794922,4151.282227,4240.512695,450.000000,4.000000,,,,0.000000,4.000000,4.000000,4.000000,4.000000,4.000000,,,,,,,,,,,,,,,,,,,,,,,,,
1577736769.669102,1.000000,0.000000,4276.410156,4433.846191,4166.666504,4144.615234,4244.102539,450.000000,4.000000,,,,0.000000,4.000000,4.000000,4.000000,4.000000,4.000000,,,,,,,,,,,,,,,,,,,,,,,,,
1577736769.676907,2.000000,0.000000,4274.871582,4415.384766,4153.333496,4151.794922,4244.102539,16212.000000,4.000000,,,,0.000000,4.000000,4.000000,4.000000,4.000000,4.000000,,,,,,,,,,,,,,,,,,,,,,,,,
1577736769.684620,3.000000,0.000000,4268.717773,4401.025879,4154.358887,4156.922852,4239.487305,450.000000,4.000000,,,,0.000000,4.000000,4.000000,4.000000,4.000000,4.000000,,,,,,,,,,,,,,,,,,,,,,,,,
1577736769.692336,4.000000,0.000000,4261.538574,4404.102539,4147.692383,4142.051270,4240.000000,16212.000000,4.000000,,,,0.000000,4.000000,4.000000,4.000000,4.000000,4.000000,,,,,,,,,,,,,,,,,,,,,,,,,
1577736769.700152,5.000000,0.000000,4276.410156,4416.410156,4163.589844,4153.333496,4256.922852,450.000000,4.000000,,,,0.000000,4.000000,4.000000,4.000000,4.000000,4.000000,,,,,,,,,,,,,,,,,,,,,,,,,
1577736769.707868,6.000000,0.000000,4286.153809,4403.589844,4176.922852,4168.205078,4263.077148,16135.000000,4.000000,,,,0.000000,4.000000,4.000000,4.000000,4.000000,4.000000,13.864580,4.810521,3.037503,0.909304,0.528388,0.543608,0.637299,1.048268,0.996434,2.308355,2.444295,0.790756,0.799727,0.445097,0.503130,2.465830,0.490506,0.779705,0.972880,1.002908,9.584221,1.668659,2.167968,0.693570,0.515953
1577736769.715684,7.000000,0.000000,4270.256348,4376.922852,4167.179688,4154.358887,4250.769043,450.000000,4.000000,,,,0.000000,4.000000,4.000000,4.000000,4.000000,4.000000,,,,,,,,,,,,,,,,,,,,,,,,,
1577736769.723500,8.000000,0.000000,4274.358887,4400.000000,4184.615234,4155.384766,4261.538574,450.000000,4.000000,,,,0.000000,4.000000,4.000000,4.000000,4.000000,4.000000,,,,,,,,,,,,,,,,,,,,,,,,,
1577736769.731212,9.000000,0.000000,4280.512695,4437.948730,4183.589844,4158.461426,4267.692383,16127.000000,4.000000,,,,0.000000,4.000000,4.000000,4.000000,4.000000,4.000000,,,,,,,,,,,,,,,,,,,,,,,,,
1577736769.738927,10.000000,0.000000,4270.256348,4401.538574,4160.512695,4139.487305,4243.589844,450.000000,4.000000,,,,0.000000,4.000000,4.000000,4.000000,4.000000,4.000000,,,,,,,,,,,,,,,,,,,,,,,,,
1577736769.746742,11.000000,0.000000,4303.589844,4366.666504,4165.128418,4133.846191,4251.282227,16202.000000,4.000000,,,,0.000000,4.000000,4.000000,4.000000,4.000000,4.000000,,,,,,,,,,,,,,,,,,,,,,,,,
1577736769.754457,12.000000,0.000000,4370.256348,4408.717773,4176.922852,4143.589844,4292.820313,450.000000,4.000000,,,,0.000000,4.000000,4.000000,4.000000,4.000000,4.000000,,,,,,,,,,,,,,,,,,,,,,,,,
1577736769.762271,13.000000,0.000000,4421.538574,4440.000000,4181.025879,4147.692383,4317.436035,450.000000,4.000000,,,,0.000000,4.000000,4.000000,4.000000,4.000000,4.000000,,,,,,,,,,,,,,,,,,,,,,,,,
1577736769.769986,14.000000,0.000000,4480.000000,4423.077148,4183.077148,4164.102539,4352.307617,450.000000,4.000000,,,,0.000000,4.000000,4.000000,4.000000,4.000000,4.000000,,,,,,,,,,,,,,,,,,,,,,,,,
1577736769.777704,15.000000,0.000000,4545.128418,4396.410156,4199.487305,4176.922852,4403.077148,16202.000000,4.000000,,,,0.000000,4.000000,4.000000,4.000000,4.000000,4.000000,,,,,,,,,,,,,,,,,,,,,,,,,
1577736769.785522,16.000000,0.000000,4577.948730,4389.230957,4201.538574,4158.461426,4420.000000,0.000000,4.000000,,,,0.000000,4.000000,4.000000,4.000000,4.000000,4.000000,,,,,,,,,,,,,,,,,,,,,,,,,
1577736769.793340,17.000000,0.000000,4582.563965,4409.230957,4179.487305,4148.717773,4420.000000,0.000000,4.000000,,,,0.000000,4.000000,4.000000,4.000000,4.000000,4.000000,,,,,,,,,,,,,,,,,,,,,,,,,
1577736769.801054,18.000000,0.000000,4587.179688,4427.692383,4179.487305,4157.948730,4425.128418,0.000000,4.000000,,,,0.000000,4.000000,4.000000,4.000000,4.000000,4.000000,,,,,,,,,,,,,,,,,,,,,,,,,
1577736769.808868,19.000000,0.000000,4600.512695,4418.461426,4184.102539,4155.384766,4425.641113,0.000000,4.000000,,,,0.000000,4.000000,4.000000,4.000000,4.000000,4.000000,,,,,,,,,,,,,,,,,,,,,,,,,
1577736769.816683,20.000000,0.000000,4597.436035,4404.615234,4176.922852,4158.974121,4425.128418,0.000000,4.000000,,,,0.000000,4.000000,4.000000,4.000000,4.000000,4.000000,,,,,,,,,,,,,,,,,,,,,,,,,
1577736769.824392,21.000000,0.000000,4567.692383,4409.743652,4174.358887,4171.282227,4412.820313,0.000000,4.000000,,,,0.000000,4.000000,4.000000,4.000000,4.000000,4.000000,,,,,,,,,,,,,,,,,,,,,,,,,
1577736769.832105,22.000000,0.000000,4537.436035,4414.358887,4166.153809,4160.000000,4390.256348,0.000000,4.000000,,,,0.000000,4.000000,4.000000,4.000000,4.000000,4.000000,15.030392,5.058072,3.083455,0.987258,0.587172,0.497252,0.687820,1.059454,0.904455,2.500451,2.544469,0.825128,0.724932,0.437344,0.453832,2.282700,0.570510,0.881987,0.960723,1.049338,9.182435,1.811888,2.123578,0.769265,0.546933
1577736769.839918,23.000000,0.000000,4515.384766,4403.589844,4173.333496,4158.974121,4377.436035,0.000000,4.000000,,,,0.000000,4.000000,4.000000,4.000000,4.000000,4.000000,,,,,,,,,,,,,,,,,,,,,,,,,
1577736769.847647,24.000000,0.000000,4482.051270,4388.205078,4173.333496,4173.333496,4360.000000,0.000000,4.000000,,,,0.000000,4.000000,4.000000,4.000000,4.000000,4.000000,,,,,,,,,,,,,,,,,,,,,,,,,
1577736769.855378,25.000000,0.000000,4435.384766,4400.512695,4154.871582,4156.922852,4324.615234,0.000000,4.000000,,,,0.000000,4.000000,4.000000,4.000000,4.000000,4.000000,,,,,,,,,,,,,,,,,,,,,,,,,
1577736769.863210,26.000000,0.000000,4408.717773,4424.615234,4163.589844,4140.000000,4304.615234,0.000000,4.000000,,,,0.000000,4.000000,4.000000,4.000000,4.000000,4.000000,,,,,,,,,,,,,,,,,,,,,,,,,
1577736769.870941,27.000000,0.000000,4397.948730,4406.666504,4166.666504,4153.846191,4306.153809,0.000000,4.000000,,,,0.000000,4.000000,4.000000,4.000000,4.000000,4.000000,,,,,,,,,,,,,,,,,,,,,,,,,
1577736769.878773,28.000000,0.000000,4383.589844,4383.077148,4162.051270,4166.666504,4305.641113,0.000000,4.000000,,,,0.000000,4.000000,4.000000,4.000000,4.000000,4.000000,,,,,,,,,,,,,,,,,,,,,,,,,
1577736769.886504,29.000000,0.000000,4365.128418,4397.948730,4167.179688,4152.820313,4294.871582,0.000000,4.000000,,,,0.000000,4.000000,4.000000,4.000000,4.000000,4.000000,,,,,,,,,,,,,,,,,,,,,,,,,
1577736769.894335,30.000000,0.000000,4348.717773,4418.974121,4167.179688,4146.153809,4285.128418,0.000000,4.000000,,,,0.000000,4.000000,4.000000,4.000000,4.000000,4.000000,,,,,,,,,,,,,,,,,,,,,,,,,
1577736769.902167,31.000000,0.000000,4340.000000,4411.282227,4174.358887,4155.897461,4278.461426,0.000000,4.000000,,,,0.000000,4.000000,4.000000,4.000000,4.000000,4.000000,,,,,,,,,,,,,,,,,,,,,,,,,
1577736769.909894,32.000000,0.000000,4326.153809,4397.436035,4164.615234,4158.461426,4266.666504,0.000000,4.000000,,,,0.000000,4.000000,4.000000,4.000000,4.000000,4.000000,,,,,,,,,,,,,,,,,,,,,,,,,
1577736769.917721,33.000000,0.000000,4309.743652,4411.794922,4155.897461,4169.743652,4266.153809,0.000000,4.000000,,,,0.000000,4.000000,4.000000,4.000000,4.000000,4.000000,,,,,,,,,,,,,,,,,,,,,,,,,
1577736769.925447,34.000000,0.000000,4305.641113,4428.717773,4174.358887,4173.846191,4272.820313,0.000000,4.000000,,,,0.000000,4.000000,4.000000,4.000000,4.000000,4.000000,,,,,,,,,,,,,,,,,,,,,,,,,
1577736769.933178,35.000000,0.000000,4304.615234,4413.846191,4174.871582,4154.358887,4254.871582,0.000000,4.000000,,,,0.000000,4.000000,4.000000,4.000000,4.000000,4.000000,,,,,,,,,,,,,,,,,,,,,,,,,
1577736769.940919,36.000000,1.000000,4295.099609,4413.959961,4172.934570,4152.877441,4246.894531,0.000000,4.000000,,,,0.000000,4.000000,4.000000,4.000000,4.000000,4.000000,,,,,,,,,,,,,,,,,,,,,,,,,
1577736769.948760,37.000000,1.000000,4285.583984,4414.074219,4170.997070,4151.395996,4238.917480,0.000000,4.000000,,,,0.000000,4.000000,4.000000,4.000000,4.000000,4.000000,,,,,,,,,,,,,,,,,,,,,,,,,
1577736769.956601,38.000000,1.000000,4276.068359,4414.187988,4169.060059,4149.914551,4230.939941,0.000000,4.000000,,,,0.000000,4.000000,4.000000,4.000000,4.000000,4.000000,17.068207,5.574139,3.244618,1.085919,0.621488,0.522569,0.748896,1.102792,0.814304,2.664397,2.617010,0.898025,0.691180,0.426617,0.404965,2.021387,0.606301,0.948727,0.938835,1.067810,8.385816,2.063020,1.946368,0.862730,0.552378
1577736769.964442,39.000000,1.000000,4266.552734,4414.301758,4167.122559,4148.433105,4222.962891,0.000000,4.000000,,,,0.000000,4.000000,4.000000,4.000000,4.000000,4.000000,,,,,,,,,,,,,,,,,,,,,,,,,
1577736769.972283,40.000000,1.000000,4257.037109,4414.416016,4165.185059,4146.951660,4214.985840,0.000000,4.000000,,,,0.000000,4.000000,4.000000,4.000000,4.000000,4.000000,,,,,,,,,,,,,,,,,,,,,,,,,
1577736769.980125,41.000000,1.000000,4247.521484,4414.529785,4163.248047,4145.470215,4207.008789,0.000000,4.000000,,,,0.000000,4.000000,4.000000,4.000000,4.000000,4.000000,,,,,,,,,,,,,,,,,,,,,,,,,
1577736769.987966,42.000000,1.000000,4238.005859,4414.644043,4161.310547,4143.988770,4199.031250,0.000000,4.000000,,,,0.000000,4.000000,4.000000,4.000000,4.000000,4.000000,,,,,,,,,,,,,,,,,,,,,,,,,
1577736769.995807,43.000000,1.000000,4228.490234,4414.757813,4159.373047,4142.507324,4191.054199,0.000000,4.000000,,,,0.000000,4.000000,4.000000,4.000000,4.000000,4.000000,,,,,,,,,,,,,,,,,,,,,,,,,
1577736770.003648,44.000000,0.000000,4218.974121,4414.871582,4157.436035,4141.025879,4183.077148,0.000000,4.000000,,,,0.000000,4.000000,4.000000,4.000000,4.000000,4.000000,,,,,,,,,,,,,,,,,,,,,,,,,
1577736770.011361,45.000000,0.000000,4218.974121,4409.230957,4163.077148,4142.051270,4185.641113,0.000000,4.000000,,,,0.000000,4.000000,4.000000,4.000000,4.000000,4.000000,,,,,,,,,,,,,,,,,,,,,,,,,
1577736770.019175,46.000000,0.000000,4222.563965,4394.871582,4164.615234,4153.846191,4196.922852,0.000000,4.000000,,,,0.000000,4.000000,4.000000,4.000000,4.000000,4.000000,,,,,,,,,,,,,,,,,,,,,,,,,
1577736770.026903,47.000000,0.000000,4229.743652,4398.461426,4155.897461,4168.717773,4197.436035,0.000000,4.000000,,,,0.000000,4.000000,4.000000,4.000000,4.000000,4.000000,,,,,,,,,,,,,,,,,,,,,,,,,
1577736770.034635,48.000000,0.000000,4236.922852,4408.205078,4144.615234,4157.436035,4194.871582,0.000000,4.000000,,,,0.000000,4.000000,4.000000,4.000000,4.000000,4.000000,,,,,,,,,,,,,,,,,,,,,,,,,
1577736770.042466,49.000000,0.000000,4240.000000,4395.897461,4157.948730,4150.256348,4197.948730,0.000000,4.000000,,,,0.000000,4.000000,4.000000,4.000000,4.000000,4.000000,,,,,,,,,,,,,,,,,,,,,,,,,
1577736770.050298,50.000000,0.000000,4230.769043,4379.487305,4156.922852,4162.051270,4190.769043,0.000000,4.000000,,,,0.000000,4.000000,4.000000,4.000000,4.000000,4.000000,,,,,,,,,,,,,,,,,,,,,,,,,
1577736770.058129,51.000000,0.000000,4216.922852,4395.897461,4143.589844,4146.666504,4173.333496,0.000000,4.000000,,,,0.000000,4.000000,4.000000,4.000000,4.000000,4.000000,,,,,,,,,,,,,,,,,,,,,,,,,
1577736770.065853,52.000000,0.000000,4224.102539,4421.538574,4153.846191,4129.743652,4171.794922,0.000000,4.000000,,,,0.000000,4.000000,4.000000,4.000000,4.000000,4.000000,,,,,,,,,,,,,,,,,,,,,,,,,
1577736770.073676,53.000000,0.000000,4230.256348,4412.307617,4153.846191,4160.512695,4184.615234,0.000000,4.000000,,,,0.000000,4.000000,4.000000,4.000000,4.000000,4.000000,,,,,,,,,,,,,,,,,,,,,,,,,
1577736770.081500,54.000000,0.000000,4217.948730,4392.820313,4148.717773,4183.589844,4189.743652,0.000000,4.000000,,,,0.000000,4.000000,4.000000,4.000000,4.000000,4.000000,22.537010,6.681567,3.533651,1.214105,0.622413,0.532848,0.811932,1.181763,0.749613,2.781824,2.645430,0.974025,0.751708,0.428287,0.364738,1.708178,0.598512,1.002049,0.917225,1.044000,8.272735,2.524566,1.742198,0.962291,0.528455
1577736770.089219,55.000000,0.000000,4210.769043,4402.563965,4156.410156,4168.717773,4189.743652,0.000000,4.000000,,,,0.000000,4.000000,4.000000,4.000000,4.000000,4.000000,,,,,,,,,,,,,,,,,,,,,,,,,
1577736770.097039,56.000000,0.000000,4213.846191,4412.820313,4168.205078,4162.051270,4195.897461,0.000000,4.000000,,,,0.000000,4.000000,4.000000,4.000000,4.000000,4.000000,,,,,,,,,,,,,,,,,,,,,,,,,
1577736770.104773,57.000000,0.000000,4206.666504,4392.820313,4165.641113,4166.153809,4196.922852,0.000000,4.000000,,,,0.000000,4.000000,4.000000,4.000000,4.000000,4.000000,,,,,,,,,,,,,,,,,,,,,,,,,
1577736770.112711,58.000000,0.000000,4191.794922,4371.794922,4151.282227,4161.538574,4192.307617,0.000000,4.000000,,,,0.000000,4.000000,4.000000,4.000000,4.000000,4.000000,,,,,,,,,,,,,,,,,,,,,,,,,
1577736770.120548,59.000000,0.000000,4192.820313,4389.230957,4161.025879,4147.179688,4196.410156,0.000000,4.000000,,,,0.000000,4.000000,4.000000,4.000000,4.000000,4.000000,,,,,,,,,,,,,,,,,,,,,,,,,
1577736770.128386,60.000000,0.000000,4194.358887,4415.384766,4157.948730,4131.282227,4195.897461,0.000000,4.000000,,,,0.000000,4.000000,4.000000,4.000000,4.000000,4.000000,,,,,,,,,,,,,,,,,,,,,,,,,
1577736770.136224,61.000000,0.000000,4183.589844,4413.333496,4142.563965,4144.615234,4184.102539,0.000000,4.000000,,,,0.000000,4.000000,4.000000,4.000000,4.000000,4.000000,,,,,,,,,,,,,,,,,,,,,,,,,
1577736770.144062,62.000000,0.000000,4182.563965,4399.487305,4154.358887,4171.794922,4182.563965,0.000000,4.000000,,,,0.000000,4.000000,4.000000,4.000000,4.000000,4.000000,,,,,,,,,,,,,,,,,,,,,,,,,
1577736770.151802,63.000000,1.000000,4186.267578,4399.202148,4154.814941,4170.712402,4183.020020,50.000000,4.000000,,,,0.000000,4.000000,4.000000,4.000000,4.000000,4.000000,,,,,,,,,,,,,,,,,,,,,,,,,
1577736770.159643,64.000000,1.000000,4189.971680,4398.917480,4155.270508,4169.629395,4183.475586,450.000000,4.000000,,,,0.000000,4.000000,4.000000,4.000000,4.000000,4.000000,,,,,,,,,,,,,,,,,,,,,,,,,
1577736770.167483,65.000000,1.000000,4193.675293,4398.632324,4155.726563,4168.546875,4183.931641,450.000000,4.000000,,,,0.000000,4.000000,4.000000,4.000000,4.000000,4.000000,,,,,,,,,,,,,,,,,,,,,,,,,
1577736770.175323,66.000000,1.000000,4197.378906,4398.347656,4156.182129,4167.464355,4184.387695,16212.000000,4.000000,,,,0.000000,4.000000,4.000000,4.000000,4.000000,4.000000,,,,,,,,,,,,,,,,,,,,,,,,,
1577736770.183164,67.000000,1.000000,4201.082520,4398.062500,4156.638184,4166.381836,4184.843262,450.000000,4.000000,,,,0.000000,4.000000,4.000000,4.000000,4.000000,4.000000,,,,,,,,,,,,,,,,,,,,,,,,,
1577736770.191004,68.000000,1.000000,4204.786133,4397.777832,4157.094238,4165.299316,4185.299316,16212.000000,4.000000,,,,0.000000,4.000000,4.000000,4.000000,4.000000,4.000000,,,,,,,,,,,,,,,,,,,,,,,,,
1577736770.198844,69.000000,1.000000,4208.490234,4397.492676,4157.549805,4164.216309,4185.754883,450.000000,4.000000,,,,0.000000,4.000000,4.000000,4.000000,4.000000,4.000000,,,,,,,,,,,,,,,,,,,,,,,,,
1577736770.206685,70.000000,1.000000,4212.193848,4397.208008,4158.005859,4163.133789,4186.210938,16135.000000,4.000000,,,,0.000000,4.000000,4.000000,4.000000,4.000000,4.000000,35.897606,8.677931,3.858037,1.363454,0.592981,0.511915,0.867798,1.273023,0.726618,2.840496,2.650820,1.003905,0.901410,0.453667,0.336460,1.384212,0.564120,1.065364,0.897883,0.974508,10.635633,3.328854,1.619286,1.047925,0.482823
1577736770.214525,71.000000,0.000000,4215.897461,4396.922852,4158.461426,4162.051270,4186.666504,450.000000,4.000000,,,,0.000000,4.000000,4.000000,4.000000,4.000000,4.000000,,,,,,,,,,,,,,,,,,,,,,,,,
1577736770.222238,72.000000,0.000000,4227.179688,4413.846191,4168.717773,4165.128418,4194.871582,450.000000,4.000000,,,,0.000000,4.000000,4.000000,4.000000,4.000000,4.000000,,,,,,,,,,,,,,,,,,,,,,,,,
1577736770.230051,73.000000,0.000000,4223.589844,4404.102539,4160.512695,4169.230957,4193.846191,16129.000000,4.000000,,,,0.000000,4.000000,4.000000,4.000000,4.000000,4.000000,,,,,,,,,,,,,,,,,,,,,,,,,
1577736770.237864,74.000000,0.000000,4225.641113,4387.179688,4156.922852,4157.436035,4190.769043,450.000000,4.000000,,,,0.000000,4.000000,4.000000,4.000000,4.000000,4.000000,,,,,,,,,,,,,,,,,,,,,,,,,
1577736770.245677,75.000000,0.000000,4235.897461,4410.256348,4166.666504,4162.563965,4195.384766,16202.000000,4.000000,,,,0.000000,4.000000,4.000000,4.000000,4.000000,4.000000,,,,,,,,,,,,,,,,,,,,,,,,,
1577736770.253390,76.000000,0.000000,4233.333496,4421.025879,4160.512695,4181.025879,4195.384766,450.000000,4.000000,,,,0.000000,4.000000,4.000000,4.000000,4.000000,4.000000,,,,,,,,,,,,,,,,,,,,,,,,,
1577736770.261106,77.000000,0.000000,4228.205078,4408.717773,4166.153809,4181.538574,4191.282227,450.000000,4.000000,,,,0.000000,4.000000,4.000000,4.000000,4.000000,4.000000,,,,,,,,,,,,,,,,,,,,,,,,,
1577736770.268922,78.000000,0.000000,4228.205078,4395.897461,4172.820313,4167.179688,4189.743652,450.000000,4.000000,,,,0.000000,4.000000,4.000000,4.000000,4.000000,4.000000,,,,,,,,,,,,,,,,,,,,,,,,,
1577736770.276638,79.000000,0.000000,4243.077148,4384.102539,4176.922852,4169.743652,4202.051270,16202.000000,4.000000,,,,0.000000,4.000000,4.000000,4.000000,4.000000,4.000000,,,,,,,,,,,,,,,,,,,,,,,,,
1577736770.284453,80.000000,0.000000,4268.205078,4391.282227,4186.153809,4177.948730,4218.974121,450.000000,4.000000,,,,0.000000,4.000000,4.000000,4.000000,4.000000,4.000000,,,,,,,,,,,,,,,,,,,,,,,,,
1577736770.292169,81.000000,0.000000,4259.487305,4402.051270,4161.538574,4164.615234,4206.666504,450.000000,4.000000,,,,0.000000,4.000000,4.000000,4.000000,4.000000,4.000000,,,,,,,,,,,,,,,,,,,,,,,,,
1577736770.299985,82.000000,0.000000,4236.410156,4395.897461,4146.153809,4145.641113,4183.589844,450.000000,4.000000,,,,0.000000,4.000000,4.000000,4.000000,4.000000,4.000000,,,,,,,,,,,,,,,,,,,,,,,,,
1577736770.307707,83.000000,0.000000,4245.128418,4387.179688,4154.871582,4145.641113,4191.282227,16202.000000,4.000000,,,,0.000000,4.000000,4.000000,4.000000,4.000000,4.000000,,,,,,,,,,,,,,,,,,,,,,,,,
1577736770.315433,84.000000,0.000000,4258.974121,4397.948730,4154.358887,4164.102539,4199.487305,450.000000,4.000000,,,,0.000000,4.000000,4.000000,4.000000,4.000000,4.000000,,,,,,,,,,,,,,,,,,,,,,,,,
1577736770.323259,85.000000,0.000000,4259.487305,4424.615234,4156.410156,4167.179688,4191.794922,450.000000,4.000000,,,,0.000000,4.000000,4.000000,4.000000,4.000000,4.000000,,,,,,,,,,,,,,,,,,,,,,,,,
1577736770.331085,86.000000,0.000000,4262.051270,4426.666504,4157.948730,4155.897461,4194.871582,450.000000,4.000000,,,,0.000000,4.000000,4.000000,4.000000,4.000000,4.000000,59.294456,11.547242,4.068342,1.509258,0.544590,0.490867,0.895175,1.333581,0.740413,2.833443,2.633300,0.946325,1.079917,0.500137,0.318374,1.096921,0.533073,1.157457,0.879038,0.873487,16.334000,4.517637,1.635408,1.099361,0.430518
1577736770.338806,87.000000,0.000000,4262.563965,4388.205078,4161.025879,4168.205078,4203.077148,16202.000000,4.000000,,,,0.000000,4.000000,4.000000,4.000000,4.000000,4.000000,,,,,,,,,,,,,,,,,,,,,,,,,
1577736770.346628,88.000000,0.000000,4264.615234,4380.512695,4158.461426,4178.461426,4203.589844,450.000000,4.000000,,,,0.000000,4.000000,4.000000,4.000000,4.000000,4.000000,,,,,,,,,,,,,,,,,,,,,,,,,
1577736770.354349,89.000000,0.000000,4270.256348,4428.717773,4157.948730,4165.128418,4207.692383,450.000000,4.000000,,,,0.000000,4.000000,4.000000,4.000000,4.000000,4.000000,,,,,,,,,,,,,,,,,,,,,,,,,
1577736770.362171,90.000000,0.000000,4267.179688,4422.563965,4175.384766,4159.487305,4209.743652,450.000000,4.000000,,,,0.000000,4.000000,4.000000,4.000000,4.000000,4.000000,,,,,,,,,,,,,,,,,,,,,,,,,
1577736770.369992,91.000000,0.000000,4260.512695,4368.205078,4169.743652,4163.077148,4202.051270,16202.000000,4.000000,,,,0.000000,4.000000,4.000000,4.000000,4.000000,4.000000,,,,,,,,,,,,,,,,,,,,,,,,,
1577736770.377709,92.000000,0.000000,4266.153809,4393.333496,4162.051270,4162.563965,4203.077148,450.000000,4.000000,,,,0.000000,4.000000,4.000000,4.000000,4.000000,4.000000,,,,,,,,,,,,,,,,,,,,,,,,,
1577736770.385430,93.000000,0.000000,4270.769043,4438.974121,4174.358887,4170.769043,4216.922852,450.000000,4.000000,,,,0.000000,4.000000,4.000000,4.000000,4.000000,4.000000,,,,,,,,,,,,,,,,,,,,,,,,,
1577736770.393154,94.000000,0.000000,4269.743652,4412.307617,4181.025879,4181.538574,4221.025879,450.000000,4.000000,,,,0.000000,4.000000,4.000000,4.000000,4.000000,4.000000,,,,,,,,,,,,,,,,,,,,,,,,,
1577736770.400882,95.000000,0.000000,4273.333496,4378.974121,4183.589844,4175.384766,4212.307617,16202.000000,4.000000,,,,0.000000,4.000000,4.000000,4.000000,4.000000,4.000000,,,,,,,,,,,,,,,,,,,,,,,,,
1577736770.408710,96.000000,0.000000,4277.436035,4402.051270,4169.230957,4159.487305,4210.256348,450.000000,4.000000,,,,0.000000,4.000000,4.000000,4.000000,4.000000,4.000000,,,,,,,,,,,,,,,,,,,,,,,,,
1577736770.416437,97.000000,0.000000,4284.102539,4438.461426,4166.666504,4171.282227,4229.230957,450.000000,4.000000,,,,0.000000,4.000000,4.000000,4.000000,4.000000,4.000000,,,,,,,,,,,,,,,,,,,,,,,,,
1577736770.424168,98.000000,0.000000,4300.512695,4422.051270,4181.538574,4189.230957,4254.871582,450.000000,4.000000,,,,0.000000,4.000000,4.000000,4.000000,4.000000,4.000000,,,,,,,,,,,,,,,,,,,,,,,,,
1577736770.431999,99.000000,0.000000,4321.538574,4384.615234,4168.205078,4164.102539,4264.615234,16202.000000,4.000000,,,,0.000000,4.000000,4.000000,4.000000,4.000000,4.000000,,,,,,,,,,,,,,,,,,,,,,,,,
1577736770.439831,100.000000,0.000000,4355.897461,4403.589844,4165.641113,4152.307617,4271.282227,450.000000,4.000000,,,,0.000000,4.000000,4.000000,4.000000,4.000000,4.000000,,,,,,,,,,,,,,,,,,,,,,,,,
1577736770.447558,101.000000,0.000000,4395.384766,4440.000000,4178.974121,4174.871582,4292.820313,450.000000,4.000000,,,,0.000000,4.000000,4.000000,4.000000,4.000000,4.000000,,,,,,,,,,,,,,,,,,,,,,,,,
1577736770.455385,102.000000,0.000000,4418.974121,4425.641113,4182.563965,4179.487305,4315.897461,450.000000,4.000000,,,,0.000000,4.000000,4.000000,4.000000,4.000000,4.000000,90.369812,14.836331,4.042004,1.605972,0.490771,0.508156,0.875969,1.337500,0.769198,2.760588,2.593810,0.798445,1.204720,0.552074,0.307450,0.882309,0.535203,1.282717,0.861221,0.770653,24.699913,5.957869,1.773036,1.102032,0.385703
1577736770.463118,103.000000,1.000000,4406.951660,4422.051270,4181.082520,4177.948730,4308.490234,2200.222168,4.000000,,,,0.000000,4.000000,4.000000,4.000000,4.000000,4.000000,,,,,,,,,,,,,,,,,,,,,,,,,
1577736770.470952,104.000000,1.000000,4394.928711,4418.461426,4179.601074,4176.410156,4301.082520,3950.444336,4.000000,,,,0.000000,4.000000,4.000000,4.000000,4.000000,4.000000,,,,,,,,,,,,,,,,,,,,,,,,,
1577736770.478785,105.000000,1.000000,4382.905762,4414.871582,4178.119629,4174.871582,4293.675293,5700.666504,4.000000,,,,0.000000,4.000000,4.000000,4.000000,4.000000,4.000000,,,,,,,,,,,,,,,,,,,,,,,,,
1577736770.486619,106.000000,1.000000,4370.883301,4411.282227,4176.638184,4173.333496,4286.267578,7450.888672,4.000000,,,,0.000000,4.000000,4.000000,4.000000,4.000000,4.000000,,,,,,,,,,,,,,,,,,,,,,,,,
1577736770.494452,107.000000,1.000000,4358.860352,4407.692383,4175.156738,4171.794922,4278.860352,9201.111328,4.000000,,,,0.000000,4.000000,4.000000,4.000000,4.000000,4.000000,,,,,,,,,,,,,,,,,,,,,,,,,
1577736770.502286,108.000000,1.000000,4346.837402,4404.102539,4173.675293,4170.256348,4271.453125,10951.333008,4.000000,,,,0.000000,4.000000,4.000000,4.000000,4.000000,4.000000,,,,,,,,,,,,,,,,,,,,,,,,,
1577736770.510119,109.000000,1.000000,4334.814941,4400.512695,4172.193848,4168.717773,4264.045410,12701.555664,4.000000,,,,0.000000,4.000000,4.000000,4.000000,4.000000,4.000000,,,,,,,,,,,,,,,,,,,,,,,,,
1577736770.517953,110.000000,1.000000,4322.791992,4396.922852,4170.712402,4167.179688,4256.638184,14451.777344,4.000000,,,,0.000000,4.000000,4.000000,4.000000,4.000000,4.000000,,,,,,,,,,,,,,,,,,,,,,,,,
1577736770.525786,111.000000,0.000000,4310.769043,4393.333496,4169.230957,4165.641113,4249.230957,16202.000000,4.000000,,,,0.000000,4.000000,4.000000,4.000000,4.000000,4.000000,,,,,,,,,,,,,,,,,,,,,,,,,
1577736770.533494,112.000000,0.000000,4303.077148,4402.563965,4163.077148,4158.974121,4249.743652,450.000000,4.000000,,,,0.000000,4.000000,4.000000,4.000000,4.000000,4.000000,,,,,,,,,,,,,,,,,,,,,,,,,
1577736770.541301,113.000000,0.000000,4294.358887,4422.563965,4168.205078,4154.358887,4240.000000,450.000000,4.000000,,,,0.000000,4.000000,4.000000,4.000000,4.000000,4.000000,,,,,,,,,,,,,,,,,,,,,,,,,
1577736770.549108,114.000000,0.000000,4296.410156,4433.846191,4161.025879,4153.846191,4234.871582,450.000000,4.000000,,,,0.000000,4.000000,4.000000,4.000000,4.000000,4.000000,,,,,,,,,,,,,,,,,,,,,,,,,
1577736770.556811,115.000000,0.000000,4312.820313,4400.000000,4157.948730,4163.589844,4247.692383,16202.000000,4.000000,,,,0.000000,4.000000,4.000000,4.000000,4.000000,4.000000,,,,,,,,,,,,,,,,,,,,,,,,,
1577736770.564517,116.000000,0.000000,4314.358887,4398.461426,4169.743652,4171.794922,4250.256348,450.000000,4.000000,,,,0.000000,4.000000,4.000000,4.000000,4.000000,4.000000,,,,,,,,,,,,,,,,,,,,,,,,,
1577736770.572227,117.000000,0.000000,4287.179688,4425.128418,4157.948730,4166.666504,4232.307617,450.000000,4.000000,,,,0.000000,4.000000,4.000000,4.000000,4.000000,4.000000,,,,,,,,,,,,,,,,,,,,,,,,,
1577736770.580037,118.000000,0.000000,4268.717773,4397.436035,4151.282227,4154.358887,4227.179688,450.000000,4.000000,,,,0.000000,4.000000,4.000000,4.000000,4.000000,4.000000,121.742294,17.577608,3.763651,1.621079,0.443946,0.582172,0.814034,1.289696,0.789671,2.640917,2.520101,0.606988,1.221515,0.589326,0.302487,0.745214,0.598249,1.435716,0.850025,0.697866,33.333027,7.292396,1.956968,1.054083,0.357194
1577736770.587847,119.000000,0.000000,4270.256348,4379.487305,4150.769043,4146.666504,4232.307617,16202.000000,4.000000,,,,0.000000,4.000000,4.000000,4.000000,4.000000,4.000000,,,,,,,,,,,,,,,,,,,,,,,,,
1577736770.595657,120.000000,0.000000,4267.692383,4418.974121,4150.769043,4166.153809,4227.692383,450.000000,4.000000,,,,0.000000,4.000000,4.000000,4.000000,4.000000,4.000000,,,,,,,,,,,,,,,,,,,,,,,,,
1577736770.603359,121.000000,0.000000,4263.589844,4428.717773,4160.512695,4180.512695,4225.128418,450.000000,4.000000,,,,0.000000,4.000000,4.000000,4.000000,4.000000,4.000000,,,,,,,,,,,,,,,,,,,,,,,,,
1577736770.611064,122.000000,0.000000,4264.102539,4409.230957,4154.871582,4155.897461,4223.077148,450.000000,4.000000,,,,0.000000,4.000000,4.000000,4.000000,4.000000,4.000000,,,,,,,,,,,,,,,,,,,,,,,,,
1577736770.618870,123.000000,0.000000,4259.487305,4414.358887,4152.820313,4140.512695,4213.846191,16202.000000,4.000000,,,,0.000000,4.000000,4.000000,4.000000,4.000000,4.000000,,,,,,,,,,,,,,,,,,,,,,,,,
1577736770.626575,124.000000,0.000000,4246.153809,4410.256348,4153.333496,4158.974121,4205.641113,450.000000,4.000000,,,,0.000000,4.000000,4.000000,4.000000,4.000000,4.000000,,,,,,,,,,,,,,,,,,,,,,,,,
1577736770.634380,125.000000,0.000000,4235.384766,4402.563965,4150.769043,4161.025879,4197.436035,450.000000,4.000000,,,,0.000000,4.000000,4.000000,4.000000,4.000000,4.000000,,,,,,,,,,,,,,,,,,,,,,,,,
1577736770.642087,126.000000,0.000000,4240.512695,4405.128418,4160.512695,4148.205078,4194.871582,450.000000,4.000000,,,,0.000000,4.000000,4.000000,4.000000,4.000000,4.000000,,,,,,,,,,,,,,,,,,,,,,,,,
1577736770.649893,127.000000,0.000000,4247.179688,4396.922852,4157.436035,4153.333496,4202.051270,238.000000,4.000000,,,,0.000000,4.000000,4.000000,4.000000,4.000000,4.000000,,,,,,,,,,,,,,,,,,,,,,,,,
1577736770.657598,0.000000,0.000000,4247.179688,4402.563965,4160.000000,4166.666504,4212.820313,450.000000,4.000000,,,,0.000000,4.000000,4.000000,4.000000,4.000000,4.000000,,,,,,,,,,,,,,,,,,,,,,,,,
1577736770.665403,1.000000,0.000000,4246.153809,4424.615234,4167.692383,4169.743652,4219.487305,450.000000,4.000000,,,,0.000000,4.000000,4.000000,4.000000,4.000000,4.000000,,,,,,,,,,,,,,,,,,,,,,,,,
1577736770.673115,2.000000,0.000000,4241.025879,4418.461426,4154.871582,4168.205078,4220.000000,16203.000000,4.000000,,,,0.000000,4.000000,4.000000,4.000000,4.000000,4.000000,,,,,,,,,,,,,,,,,,,,,,,,,
1577736770.680830,3.000000,0.000000,4239.487305,4389.743652,4153.846191,4160.000000,4212.820313,450.000000,4.000000,,,,0.000000,4.000000,4.000000,4.000000,4.000000,4.000000,,,,,,,,,,,,,,,,,,,,,,,,,
1577736770.688645,4.000000,0.000000,4241.538574,4387.692383,4155.384766,4143.589844,4208.205078,16201.000000,4.000000,,,,0.000000,4.000000,4.000000,4.000000,4.000000,4.000000,,,,,,,,,,,,,,,,,,,,,,,,,
1577736770.696359,5.000000,0.000000,4257.948730,4420.512695,4158.974121,4148.717773,4227.692383,450.000000,4.000000,,,,0.000000,4.000000,4.000000,4.000000,4.000000,4.000000,,,,,,,,,,,,,,,,,,,,,,,,,
1577736770.704174,6.000000,0.000000,4305.128418,4432.820313,4169.743652,4161.538574,4255.384766,16136.000000,4.000000,,,,0.000000,4.000000,4.000000,4.000000,4.000000,4.000000,143.946777,18.726995,3.302822,1.543948,0.410502,0.701727,0.736846,1.219643,0.786286,2.520809,2.420092,0.446080,1.127858,0.596445,0.303149,0.659273,0.716140,1.604567,0.852822,0.671283,39.112045,8.055448,2.087791,0.968066,0.345849
1577736770.711889,7.000000,0.000000,4357.948730,4391.282227,4163.077148,4148.717773,4261.538574,450.000000,4.000000,,,,0.000000,4.000000,4.000000,4.000000,4.000000,4.000000,,,,,,,,,,,,,,,,,,,,,,,,,
1577736770.719703,8.000000,0.000000,4411.282227,4374.358887,4167.692383,4147.692383,4282.563965,450.000000,4.000000,,,,0.000000,4.000000,4.000000,4.000000,4.000000,4.000000,,,,,,,,,,,,,,,,,,,,,,,,,
1577736770.727417,9.000000,0.000000,4473.846191,4421.538574,4172.820313,4165.128418,4334.871582,16116.000000,4.000000,,,,0.000000,4.000000,4.000000,4.000000,4.000000,4.000000,,,,,,,,,,,,,,,,,,,,,,,,,
1577736770.735231,10.000000,0.000000,4518.461426,4440.000000,4169.743652,4164.102539,4368.717773,450.000000,4.000000,,,,0.000000,4.000000,4.000000,4.000000,4.000000,4.000000,,,,,,,,,,,,,,,,,,,,,,,,,
1577736770.742946,11.000000,0.000000,4536.410156,4401.025879,4174.358887,4149.230957,4373.846191,16203.000000,4.000000,,,,0.000000,4.000000,4.000000,4.000000,4.000000,4.000000,,,,,,,,,,,,,,,,,,,,,,,,,
1577736770.750663,12.000000,0.000000,4542.051270,4382.051270,4169.743652,4149.743652,4382.051270,450.000000,4.000000,,,,0.000000,4.000000,4.000000,4.000000,4.000000,4.000000,,,,,,,,,,,,,,,,,,,,,,,,,
1577736770.758384,13.000000,0.000000,4531.794922,4403.589844,4170.256348,4153.333496,4381.538574,450.000000,4.000000,,,,0.000000,4.000000,4.000000,4.000000,4.000000,4.000000,,,,,,,,,,,,,,,,,,,,,,,,,
1577736770.766204,14.000000,0.000000,4520.000000,4421.538574,4168.205078,4147.692383,4369.230957,450.000000,4.000000,,,,0.000000,4.000000,4.000000,4.000000,4.000000,4.000000,,,,,,,,,,,,,,,,,,,,,,,,,
1577736770.773925,15.000000,0.000000,4511.794922,4422.563965,4165.641113,4160.000000,4360.000000,16203.000000,4.000000,,,,0.000000,4.000000,4.000000,4.000000,4.000000,4.000000,,,,,,,,,,,,,,,,,,,,,,,,,
1577736770.781745,16.000000,0.000000,4495.384766,4421.538574,4174.358887,4175.897461,4344.102539,0.000000,4.000000,,,,0.000000,4.000000,4.000000,4.000000,4.000000,4.000000,,,,,,,,,,,,,,,,,,,,,,,,,
1577736770.789465,17.000000,0.000000,4478.974121,4418.461426,4168.717773,4163.589844,4323.077148,0.000000,4.000000,,,,0.000000,4.000000,4.000000,4.000000,4.000000,4.000000,,,,,,,,,,,,,,,,,,,,,,,,,
1577736770.797286,18.000000,0.000000,4463.589844,4401.025879,4174.871582,4154.358887,4313.846191,0.000000,4.000000,,,,0.000000,4.000000,4.000000,4.000000,4.000000,4.000000,,,,,,,,,,,,,,,,,,,,,,,,,
1577736770.805006,19.000000,0.000000,4432.307617,4395.384766,4184.102539,4158.974121,4310.769043,0.000000,4.000000,,,,0.000000,4.000000,4.000000,4.000000,4.000000,4.000000,,,,,,,,,,,,,,,,,,,,,,,,,
1577736770.812825,20.000000,0.000000,4397.436035,4413.333496,4177.436035,4154.871582,4298.974121,0.000000,4.000000,,,,0.000000,4.000000,4.000000,4.000000,4.000000,4.000000,,,,,,,,,,,,,,,,,,,,,,,,,
1577736770.820545,21.000000,0.000000,4389.743652,4423.077148,4190.769043,4154.358887,4291.282227,0.000000,4.000000,,,,0.000000,4.000000,4.000000,4.000000,4.000000,4.000000,,,,,,,,,,,,,,,,,,,,,,,,,
1577736770.828268,22.000000,0.000000,4385.641113,4408.205078,4190.769043,4165.128418,4285.128418,0.000000,4.000000,,,,0.000000,4.000000,4.000000,4.000000,4.000000,4.000000,149.790939,17.800615,2.745703,1.400513,0.389082,0.833146,0.678491,1.167138,0.758981,2.451498,2.279397,0.372685,0.959874,0.568969,0.306520,0.604142,0.858037,1.764481,0.866665,0.686977,40.045254,7.956708,2.080874,0.858490,0.346175
1577736770.836091,23.000000,0.000000,4369.230957,4402.051270,4184.615234,4173.846191,4273.333496,0.000000,4.000000,,,,0.000000,4.000000,4.000000,4.000000,4.000000,4.000000,,,,,,,,,,,,,,,,,,,,,,,,,
1577736770.843914,24.000000,0.000000,4371.282227,4416.410156,4200.000000,4171.282227,4272.820313,0.000000,4.000000,,,,0.000000,4.000000,4.000000,4.000000,4.000000,4.000000,,,,,,,,,,,,,,,,,,,,,,,,,
1577736770.851633,25.000000,0.000000,4366.666504,4415.384766,4198.461426,4172.307617,4268.717773,0.000000,4.000000,,,,0.000000,4.000000,4.000000,4.000000,4.000000,4.000000,,,,,,,,,,,,,,,,,,,,,,,,,
1577736770.859452,26.000000,0.000000,4336.410156,4405.128418,4185.641113,4175.384766,4246.666504,0.000000,4.000000,,,,0.000000,4.000000,4.000000,4.000000,4.000000,4.000000,,,,,,,,,,,,,,,,,,,,,,,,,
1577736770.867171,27.000000,0.000000,4314.358887,4405.128418,4175.384766,4155.384766,4232.820313,0.000000,4.000000,,,,0.000000,4.000000,4.000000,4.000000,4.000000,4.000000,,,,,,,,,,,,,,,,,,,,,,,,,
1577736770.874990,28.000000,0.000000,4307.179688,4420.000000,4177.436035,4151.282227,4237.436035,0.000000,4.000000,,,,0.000000,4.000000,4.000000,4.000000,4.000000,4.000000,,,,,,,,,,,,,,,,,,,,,,,,,
1577736770.882708,29.000000,0.000000,4297.948730,4417.948730,4185.128418,4169.743652,4234.871582,0.000000,4.000000,,,,0.000000,4.000000,4.000000,4.000000,4.000000,4.000000,,,,,,,,,,,,,,,,,,,,,,,,,
1577736770.890527,30.000000,0.000000,4287.692383,4385.128418,4173.846191,4169.230957,4227.692383,0.000000,4.000000,,,,0.000000,4.000000,4.000000,4.000000,4.000000,4.000000,,,,,,,,,,,,,,,,,,,,,,,,,
1577736770.898252,31.000000,0.000000,4275.897461,4393.846191,4173.846191,4157.948730,4222.051270,0.000000,4.000000,,,,0.000000,4.000000,4.000000,4.000000,4.000000,4.000000,,,,,,,,,,,,,,,,,,,,,,,,,
1577736770.905980,32.000000,0.000000,4260.000000,4438.974121,4178.974121,4150.769043,4210.769043,0.000000,4.000000,,,,0.000000,4.000000,4.000000,4.000000,4.000000,4.000000,,,,,,,,,,,,,,,,,,,,,,,,,
1577736770.913808,33.000000,0.000000,4256.410156,4426.153809,4177.948730,4144.102539,4204.615234,0.000000,4.000000,,,,0.000000,4.000000,4.000000,4.000000,4.000000,4.000000,,,,,,,,,,,,,,,,,,,,,,,,,
1577736770.921636,34.000000,0.000000,4259.487305,4375.384766,4177.948730,4135.384766,4200.512695,0.000000,4.000000,,,,0.000000,4.000000,4.000000,4.000000,4.000000,4.000000,,,,,,,,,,,,,,,,,,,,,,,,,
1577736770.929361,35.000000,0.000000,4253.846191,4385.641113,4176.410156,4143.077148,4194.871582,0.000000,4.000000,,,,0.000000,4.000000,4.000000,4.000000,4.000000,4.000000,,,,,,,,,,,,,,,,,,,,,,,,,
1577736770.937185,36.000000,0.000000,4249.230957,4435.897461,4184.102539,4154.871582,4190.256348,0.000000,4.000000,,,,0.000000,4.000000,4.000000,4.000000,4.000000,4.000000,,,,,,,,,,,,,,,,,,,,,,,,,
1577736770.944916,37.000000,0.000000,4247.692383,4429.743652,4174.871582,4149.743652,4179.487305,0.000000,4.000000,,,,0.000000,4.000000,4.000000,4.000000,4.000000,4.000000,,,,,,,,,,,,,,,,,,,,,,,,,
1577736770.952850,38.000000,0.000000,4242.051270,4397.436035,4160.000000,4150.256348,4173.333496,0.000000,4.000000,,,,0.000000,4.000000,4.000000,4.000000,4.000000,4.000000,139.553101,15.117551,2.166720,1.249720,0.374176,0.929608,0.662188,1.158379,0.727294,2.469624,2.105414,0.395569,0.767306,0.514722,0.308160,0.566877,0.986001,1.877562,0.873866,0.728361,36.434547,7.016810,1.910814,0.738654,0.352382
1577736770.960685,39.000000,0.000000,4240.512695,4405.128418,4177.436035,4156.410156,4178.461426,0.000000,4.000000,,,,0.000000,4.000000,4.000000,4.000000,4.000000,4.000000,,,,,,,,,,,,,,,,,,,,,,,,,
1577736770.968520,40.000000,0.000000,4241.538574,4417.436035,4177.436035,4153.846191,4180.000000,0.000000,4.000000,,,,0.000000,4.000000,4.000000,4.000000,4.000000,4.000000,,,,,,,,,,,,,,,,,,,,,,,,,
1577736770.976354,41.000000,0.000000,4235.384766,4397.436035,4168.717773,4154.358887,4176.922852,0.000000,4.000000,,,,0.000000,4.000000,4.000000,4.000000,4.000000,4.000000,,,,,,,,,,,,,,,,,,,,,,,,,
1577736770.984081,42.000000,0.000000,4226.153809,4397.948730,4177.948730,4160.000000,4183.077148,0.000000,4.000000,,,,0.000000,4.000000,4.000000,4.000000,4.000000,4.000000,,,,,,,,,,,,,,,,,,,,,,,,,
1577736770.991908,43.000000,0.000000,4221.025879,4425.128418,4175.897461,4160.000000,4190.769043,0.000000,4.000000,,,,0.000000,4.000000,4.000000,4.000000,4.000000,4.000000,,,,,,,,,,,,,,,,,,,,,,,,,
1577736770.999635,44.000000,0.000000,4223.077148,4416.410156,4177.436035,4163.589844,4194.358887,0.000000,4.000000,,,,0.000000,4.000000,4.000000,4.000000,4.000000,4.000000,,,,,,,,,,,,,,,,,,,,,,,,,
1577736771.007365,45.000000,0.000000,4212.820313,4398.461426,4176.410156,4156.922852,4187.179688,0.000000,4.000000,,,,0.000000,4.000000,4.000000,4.000000,4.000000,4.000000,,,,,,,,,,,,,,,,,,,,,,,,,
1577736771.015298,46.000000,1.000000,4209.686523,4398.119629,4174.985840,4154.985840,4183.817871,0.000000,4.000000,,,,0.000000,4.000000,4.000000,4.000000,4.000000,4.000000,,,,,,,,,,,,,,,,,,,,,,,,,
1577736771.023132,47.000000,1.000000,4206.552734,4397.777832,4173.561035,4153.048340,4180.456055,0.000000,4.000000,,,,0.000000,4.000000,4.000000,4.000000,4.000000,4.000000,,,,,,,,,,,,,,,,,,,,,,,,,
1577736771.030965,48.000000,1.000000,4203.418945,4397.436035,4172.136719,4151.111328,4177.094238,0.000000,4.000000,,,,0.000000,4.000000,4.000000,4.000000,4.000000,4.000000,,,,,,,,,,,,,,,,,,,,,,,,,
1577736771.038799,49.000000,1.000000,4200.284668,4397.094238,4170.712402,4149.173828,4173.732422,0.000000,4.000000,,,,0.000000,4.000000,4.000000,4.000000,4.000000,4.000000,,,,,,,,,,,,,,,,,,,,,,,,,
1577736771.046632,50.000000,1.000000,4197.150879,4396.751953,4169.287598,4147.236328,4170.370605,0.000000,4.000000,,,,0.000000,4.000000,4.000000,4.000000,4.000000,4.000000,,,,,,,,,,,,,,,,,,,,,,,,,
1577736771.054466,51.000000,1.000000,4194.017090,4396.410156,4167.863281,4145.299316,4167.008789,0.000000,4.000000,,,,0.000000,4.000000,4.000000,4.000000,4.000000,4.000000,,,,,,,,,,,,,,,,,,,,,,,,,
1577736771.062299,52.000000,1.000000,4190.883301,4396.068359,4166.438965,4143.361816,4163.646484,0.000000,4.000000,,,,0.000000,4.000000,4.000000,4.000000,4.000000,4.000000,,,,,,,,,,,,,,,,,,,,,,,,,
1577736771.070133,53.000000,1.000000,4187.749512,4395.726563,4165.014160,4141.424316,4160.284668,0.000000,4.000000,,,,0.000000,4.000000,4.000000,4.000000,4.000000,4.000000,,,,,,,,,,,,,,,,,,,,,,,,,
1577736771.077966,54.000000,0.000000,4184.615234,4395.384766,4163.589844,4139.487305,4156.922852,0.000000,4.000000,,,,0.000000,4.000000,4.000000,4.000000,4.000000,4.000000,121.575592,12.060744,1.699329,1.168219,0.361244,0.957525,0.682755,1.186921,0.729137,2.585647,1.858318,0.484162,0.589871,0.448534,0.303334,0.540237,1.051834,1.900306,0.857371,0.776019,31.331848,5.670789,1.660254,0.621257,0.364006
1577736771.085674,55.000000,0.000000,4178.974121,4403.589844,4168.205078,4143.077148,4144.102539,0.000000,4.000000,,,,0.000000,4.000000,4.000000,4.000000,4.000000,4.000000,,,,,,,,,,,,,,,,,,,,,,,,,
1577736771.093481,56.000000,0.000000,4174.358887,4400.000000,4163.077148,4143.077148,4146.666504,0.000000,4.000000,,,,0.000000,4.000000,4.000000,4.000000,4.000000,4.000000,,,,,,,,,,,,,,,,,,,,,,,,,
1577736771.101188,57.000000,0.000000,4173.333496,4403.589844,4166.666504,4143.077148,4154.358887,0.000000,4.000000,,,,0.000000,4.000000,4.000000,4.000000,4.000000,4.000000,,,,,,,,,,,,,,,,,,,,,,,,,
1577736771.108899,58.000000,0.000000,4171.282227,4414.358887,4168.205078,4141.025879,4151.794922,0.000000,4.000000,,,,0.000000,4.000000,4.000000,4.000000,4.000000,4.000000,,,,,,,,,,,,,,,,,,,,,,,,,
1577736771.116710,59.000000,0.000000,4168.205078,4409.743652,4170.256348,4146.153809,4149.743652,0.000000,4.000000,,,,0.000000,4.000000,4.000000,4.000000,4.000000,4.000000,,,,,,,,,,,,,,,,,,,,,,,,,
1577736771.124520,60.000000,0.000000,4169.230957,4406.666504,4167.692383,4144.615234,4157.436035,0.000000,4.000000,,,,0.000000,4.000000,4.000000,4.000000,4.000000,4.000000,,,,,,,,,,,,,,,,,,,,,,,,,
1577736771.132227,61.000000,0.000000,4176.922852,4404.102539,4169.743652,4146.153809,4168.717773,0.000000,4.000000,,,,0.000000,4.000000,4.000000,4.000000,4.000000,4.000000,,,,,,,,,,,,,,,,,,,,,,,,,
1577736771.139944,62.000000,0.000000,4182.563965,4398.461426,4187.179688,4155.897461,4171.794922,0.000000,4.000000,,,,0.000000,4.000000,4.000000,4.000000,4.000000,4.000000,,,,,,,,,,,,,,,,,,,,,,,,,
1577736771.147664,63.000000,0.000000,4181.538574,4404.615234,4177.436035,4149.230957,4172.307617,0.000000,4.000000,,,,0.000000,4.000000,4.000000,4.000000,4.000000,4.000000,,,,,,,,,,,,,,,,,,,,,,,,,
1577736771.155484,64.000000,0.000000,4182.563965,4418.461426,4175.897461,4146.666504,4174.358887,450.000000,4.000000,,,,0.000000,4.000000,4.000000,4.000000,4.000000,4.000000,,,,,,,,,,,,,,,,,,,,,,,,,
1577736771.163304,65.000000,0.000000,4173.846191,4416.410156,4197.436035,4155.384766,4161.538574,450.000000,4.000000,,,,0.000000,4.000000,4.000000,4.000000,4.000000,4.000000,,,,,,,,,,,,,,,,,,,,,,,,,
1577736771.171125,66.000000,0.000000,4169.743652,4400.512695,4194.358887,4167.692383,4165.641113,16201.000000,4.000000,,,,0.000000,4.000000,4.000000,4.000000,4.000000,4.000000,,,,,,,,,,,,,,,,,,,,,,,,,
1577736771.178837,67.000000,0.000000,4196.922852,4401.538574,4191.282227,4182.563965,4201.538574,450.000000,4.000000,,,,0.000000,4.000000,4.000000,4.000000,4.000000,4.000000,,,,,,,,,,,,,,,,,,,,,,,,,
1577736771.186650,68.000000,0.000000,4203.077148,4410.769043,4181.538574,4176.410156,4204.102539,16202.000000,4.000000,,,,0.000000,4.000000,4.000000,4.000000,4.000000,4.000000,,,,,,,,,,,,,,,,,,,,,,,,,
1577736771.194362,69.000000,0.000000,4175.384766,4412.820313,4164.615234,4156.922852,4178.461426,450.000000,4.000000,,,,0.000000,4.000000,4.000000,4.000000,4.000000,4.000000,,,,,,,,,,,,,,,,,,,,,,,,,
1577736771.202174,70.000000,0.000000,4172.307617,4407.179688,4163.077148,4155.897461,4186.666504,16142.000000,4.000000,,,,0.000000,4.000000,4.000000,4.000000,4.000000,4.000000,106.571411,10.293916,1.472027,1.198606,0.347392,0.915241,0.708747,1.220252,0.798970,2.783191,1.577122,0.590250,0.444985,0.383679,0.289435,0.533051,1.037822,1.806972,0.816777,0.810534,27.928507,4.511724,1.456277,0.516473,0.381050
1577736771.209886,71.000000,0.000000,4189.230957,4400.000000,4156.922852,4169.743652,4203.077148,450.000000,4.000000,,,,0.000000,4.000000,4.000000,4.000000,4.000000,4.000000,,,,,,,,,,,,,,,,,,,,,,,,,
1577736771.217602,72.000000,0.000000,4186.153809,4408.205078,4164.102539,4173.846191,4198.461426,450.000000,4.000000,,,,0.000000,4.000000,4.000000,4.000000,4.000000,4.000000,,,,,,,,,,,,,,,,,,,,,,,,,
1577736771.225417,73.000000,0.000000,4186.666504,4421.538574,4177.948730,4173.333496,4207.692383,16128.000000,4.000000,,,,0.000000,4.000000,4.000000,4.000000,4.000000,4.000000,,,,,,,,,,,,,,,,,,,,,,,,,
1577736771.233233,74.000000,0.000000,4195.384766,4410.769043,4176.410156,4184.102539,4220.000000,450.000000,4.000000,,,,0.000000,4.000000,4.000000,4.000000,4.000000,4.000000,,,,,,,,,,,,,,,,,,,,,,,,,
1577736771.241048,75.000000,0.000000,4178.461426,4381.538574,4166.666504,4177.436035,4205.128418,16209.000000,4.000000,,,,0.000000,4.000000,4.000000,4.000000,4.000000,4.000000,,,,,,,,,,,,,,,,,,,,,,,,,
1577736771.248756,76.000000,0.000000,4162.051270,4381.538574,4152.307617,4158.461426,4190.256348,450.000000,4.000000,,,,0.000000,4.000000,4.000000,4.000000,4.000000,4.000000,,,,,,,,,,,,,,,,,,,,,,,,,
1577736771.256467,77.000000,0.000000,4174.871582,4418.461426,4165.128418,4164.102539,4197.436035,450.000000,4.000000,,,,0.000000,4.000000,4.000000,4.000000,4.000000,4.000000,,,,,,,,,,,,,,,,,,,,,,,,,
1577736771.264182,78.000000,0.000000,4183.077148,4423.589844,4177.436035,4170.769043,4204.102539,450.000000,4.000000,,,,0.000000,4.000000,4.000000,4.000000,4.000000,4.000000,,,,,,,,,,,,,,,,,,,,,,,,,
1577736771.271996,79.000000,0.000000,4171.282227,4394.358887,4164.615234,4166.153809,4200.000000,16209.000000,4.000000,,,,0.000000,4.000000,4.000000,4.000000,4.000000,4.000000,,,,,,,,,,,,,,,,,,,,,,,,,
1577736771.279710,80.000000,0.000000,4170.256348,4400.000000,4172.307617,4168.717773,4202.563965,450.000000,4.000000,,,,0.000000,4.000000,4.000000,4.000000,4.000000,4.000000,,,,,,,,,,,,,,,,,,,,,,,,,
1577736771.287525,81.000000,0.000000,4180.000000,4429.743652,4185.128418,4167.692383,4214.358887,450.000000,4.000000,,,,0.000000,4.000000,4.000000,4.000000,4.000000,4.000000,,,,,,,,,,,,,,,,,,,,,,,,,
1577736771.295339,82.000000,0.000000,4170.256348,4404.615234,4178.974121,4166.666504,4211.282227,450.000000,4.000000,,,,0.000000,4.000000,4.000000,4.000000,4.000000,4.000000,,,,,,,,,,,,,,,,,,,,,,,,,
1577736771.303050,83.000000,0.000000,4145.128418,4376.410156,4166.666504,4173.333496,4195.897461,16209.000000,4.000000,,,,0.000000,4.000000,4.000000,4.000000,4.000000,4.000000,,,,,,,,,,,,,,,,,,,,,,,,,
1577736771.310763,84.000000,0.000000,4129.743652,4406.666504,4165.641113,4164.615234,4191.794922,450.000000,4.000000,,,,0.000000,4.000000,4.000000,4.000000,4.000000,4.000000,,,,,,,,,,,,,,,,,,,,,,,,,
1577736771.318577,85.000000,0.000000,4135.897461,4423.589844,4182.051270,4162.051270,4197.436035,450.000000,4.000000,,,,0.000000,4.000000,4.000000,4.000000,4.000000,4.000000,,,,,,,,,,,,,,,,,,,,,,,,,
1577736771.326290,86.000000,0.000000,4145.128418,4406.666504,4177.436035,4176.410156,4202.563965,450.000000,4.000000,,,,0.000000,4.000000,4.000000,4.000000,4.000000,4.000000,102.035858,10.696982,1.494732,1.316338,0.330053,0.833121,0.701797,1.212791,0.945814,3.010458,1.284840,0.673778,0.333044,0.327075,0.267735,0.577075,0.961835,1.589834,0.767429,0.816652,28.318075,3.974465,1.393805,0.433436,0.399055
1577736771.334103,87.000000,0.000000,4147.179688,4413.846191,4170.769043,4167.179688,4213.333496,16209.000000,4.000000,,,,0.000000,4.000000,4.000000,4.000000,4.000000,4.000000,,,,,,,,,,,,,,,,,,,,,,,,,
1577736771.341823,88.000000,0.000000,4154.871582,4428.717773,4176.922852,4150.769043,4222.563965,450.000000,4.000000,,,,0.000000,4.000000,4.000000,4.000000,4.000000,4.000000,,,,,,,,,,,,,,,,,,,,,,,,,
1577736771.349546,89.000000,0.000000,4169.230957,4409.230957,4171.794922,4167.692383,4217.948730,450.000000,4.000000,,,,0.000000,4.000000,4.000000,4.000000,4.000000,4.000000,,,,,,,,,,,,,,,,,,,,,,,,,
1577736771.357370,90.000000,0.000000,4178.461426,4393.846191,4180.000000,4185.128418,4217.436035,450.000000,4.000000,,,,0.000000,4.000000,4.000000,4.000000,4.000000,4.000000,,,,,,,,,,,,,,,,,,,,,,,,,
1577736771.365193,91.000000,0.000000,4162.563965,4404.615234,4173.846191,4168.717773,4218.461426,16209.000000,4.000000,,,,0.000000,4.000000,4.000000,4.000000,4.000000,4.000000,,,,,,,,,,,,,,,,,,,,,,,,,
1577736771.372912,92.000000,0.000000,4145.641113,4417.948730,4160.000000,4152.820313,4213.846191,450.000000,4.000000,,,,0.000000,4.000000,4.000000,4.000000,4.000000,4.000000,,,,,,,,,,,,,,,,,,,,,,,,,
1577736771.380731,93.000000,0.000000,4158.461426,4417.948730,4175.384766,4152.820313,4217.948730,450.000000,4.000000,,,,0.000000,4.000000,4.000000,4.000000,4.000000,4.000000,,,,,,,,,,,,,,,,,,,,,,,,,
1577736771.388451,94.000000,0.000000,4173.333496,4409.230957,4176.922852,4158.461426,4218.974121,450.000000,4.000000,,,,0.000000,4.000000,4.000000,4.000000,4.000000,4.000000,,,,,,,,,,,,,,,,,,,,,,,,,
1577736771.396270,95.000000,0.000000,4184.615234,4415.384766,4182.051270,4172.307617,4219.487305,16209.000000,4.000000,,,,0.000000,4.000000,4.000000,4.000000,4.000000,4.000000,,,,,,,,,,,,,,,,,,,,,,,,,
1577736771.403989,96.000000,0.000000,4202.051270,4414.871582,4192.820313,4174.358887,4231.794922,450.000000,4.000000,,,,0.000000,4.000000,4.000000,4.000000,4.000000,4.000000,,,,,,,,,,,,,,,,,,,,,,,,,
1577736771.411711,97.000000,0.000000,4208.205078,4406.153809,4187.179688,4163.589844,4233.333496,450.000000,4.000000,,,,0.000000,4.000000,4.000000,4.000000,4.000000,4.000000,,,,,,,,,,,,,,,,,,,,,,,,,
1577736771.419533,98.000000,0.000000,4211.282227,4411.282227,4192.307617,4160.512695,4223.589844,450.000000,4.000000,,,,0.000000,4.000000,4.000000,4.000000,4.000000,4.000000,,,,,,,,,,,,,,,,,,,,,,,,,
1577736771.427255,99.000000,0.000000,4216.922852,4406.666504,4194.871582,4165.641113,4228.205078,16209.000000,4.000000,,,,0.000000,4.000000,4.000000,4.000000,4.000000,4.000000,,,,,,,,,,,,,,,,,,,,,,,,,
1577736771.434980,100.000000,0.000000,4205.128418,4398.974121,4187.692383,4168.717773,4227.692383,450.000000,4.000000,,,,0.000000,4.000000,4.000000,4.000000,4.000000,4.000000,,,,,,,,,,,,,,,,,,,,,,,,,
1577736771.442708,101.000000,0.000000,4183.589844,4401.538574,4174.871582,4163.589844,4214.871582,450.000000,4.000000,,,,0.000000,4.000000,4.000000,4.000000,4.000000,4.000000,,,,,,,,,,,,,,,,,,,,,,,,,
1577736771.450536,102.000000,0.000000,4172.820313,4390.256348,4168.205078,4158.974121,4209.743652,450.000000,4.000000,,,,0.000000,4.000000,4.000000,4.000000,4.000000,4.000000,108.617111,12.793186,1.683307,1.454762,0.310608,0.749048,0.644445,1.131726,1.146257,3.183084,1.070565,0.725939,0.258561,0.282123,0.243424,0.716091,0.848064,1.280978,0.731869,0.786781,32.361725,4.092121,1.481468,0.384186,0.413039
1577736771.458271,103.000000,1.000000,4175.555664,4391.338867,4168.546875,4156.809082,4209.116699,2201.000000,4.000000,,,,0.000000,4.000000,4.000000,4.000000,4.000000,4.000000,,,,,,,,,,,,,,,,,,,,,,,,,
1577736771.466106,104.000000,1.000000,4178.290527,4392.421875,4168.888672,4154.644043,4208.490234,3952.000000,4.000000,,,,0.000000,4.000000,4.000000,4.000000,4.000000,4.000000,,,,,,,,,,,,,,,,,,,,,,,,,
1577736771.473940,105.000000,1.000000,4181.025879,4393.504395,4169.230957,4152.478516,4207.863281,5703.000000,4.000000,,,,0.000000,4.000000,4.000000,4.000000,4.000000,4.000000,,,,,,,,,,,,,,,,,,,,,,,,,
1577736771.481775,106.000000,1.000000,4183.760742,4394.586914,4169.572754,4150.313477,4207.236328,7454.000000,4.000000,,,,0.000000,4.000000,4.000000,4.000000,4.000000,4.000000,,,,,,,,,,,,,,,,,,,,,,,,,
1577736771.489610,107.000000,1.000000,4186.495605,4395.669434,4169.914551,4148.147949,4206.609863,9205.000000,4.000000,,,,0.000000,4.000000,4.000000,4.000000,4.000000,4.000000,,,,,,,,,,,,,,,,,,,,,,,,,
1577736771.497444,108.000000,1.000000,4189.230957,4396.751953,4170.256348,4145.982910,4205.982910,10956.000000,4.000000,,,,0.000000,4.000000,4.000000,4.000000,4.000000,4.000000,,,,,,,,,,,,,,,,,,,,,,,,,
1577736771.505279,109.000000,1.000000,4191.965820,4397.834961,4170.598145,4143.817871,4205.355957,12707.000000,4.000000,,,,0.000000,4.000000,4.000000,4.000000,4.000000,4.000000,,,,,,,,,,,,,,,,,,,,,,,,,
1577736771.513114,110.000000,1.000000,4194.700684,4398.917480,4170.939941,4141.652344,4204.729492,14458.000000,4.000000,,,,0.000000,4.000000,4.000000,4.000000,4.000000,4.000000,,,,,,,,,,,,,,,,,,,,,,,,,
1577736771.520948,111.000000,0.000000,4197.436035,4400.000000,4171.282227,4139.487305,4204.102539,16209.000000,4.000000,,,,0.000000,4.000000,4.000000,4.000000,4.000000,4.000000,,,,,,,,,,,,,,,,,,,,,,,,,
1577736771.528658,112.000000,0.000000,4196.410156,4390.769043,4166.666504,4150.256348,4196.410156,450.000000,4.000000,,,,0.000000,4.000000,4.000000,4.000000,4.000000,4.000000,,,,,,,,,,,,,,,,,,,,,,,,,
1577736771.536467,113.000000,0.000000,4188.717773,4414.358887,4176.922852,4156.410156,4181.025879,450.000000,4.000000,,,,0.000000,4.000000,4.000000,4.000000,4.000000,4.000000,,,,,,,,,,,,,,,,,,,,,,,,,
1577736771.544277,114.000000,0.000000,4196.410156,4409.230957,4172.820313,4144.615234,4190.769043,450.000000,4.000000,,,,0.000000,4.000000,4.000000,4.000000,4.000000,4.000000,,,,,,,,,,,,,,,,,,,,,,,,,
1577736771.552086,115.000000,0.000000,4197.948730,4394.871582,4154.358887,4148.717773,4198.974121,16209.000000,4.000000,,,,0.000000,4.000000,4.000000,4.000000,4.000000,4.000000,,,,,,,,,,,,,,,,,,,,,,,,,
1577736771.559795,116.000000,0.000000,4173.333496,4405.641113,4164.102539,4168.717773,4184.615234,450.000000,4.000000,,,,0.000000,4.000000,4.000000,4.000000,4.000000,4.000000,,,,,,,,,,,,,,,,,,,,,,,,,
1577736771.567508,117.000000,0.000000,4150.256348,4416.410156,4154.871582,4168.717773,4170.256348,450.000000,4.000000,,,,0.000000,4.000000,4.000000,4.000000,4.000000,4.000000,,,,,,,,,,,,,,,,,,,,,,,,,
1577736771.575320,118.000000,0.000000,4150.769043,4420.512695,4137.436035,4161.025879,4168.205078,450.000000,4.000000,,,,0.000000,4.000000,4.000000,4.000000,4.000000,4.000000,119.998978,15.176020,1.896829,1.539235,0.294997,0.688629,0.535612,0.983480,1.350654,3.228083,0.975421,0.753635,0.231646,0.253678,0.223781,0.962244,0.722731,0.951760,0.722802,0.722402,37.791981,4.540604,1.636688,0.373277,0.420385
1577736771.583032,119.000000,0.000000,4160.000000,4400.000000,4147.692383,4160.512695,4175.897461,16209.000000,4.000000,,,,0.000000,4.000000,4.000000,4.000000,4.000000,4.000000,,,,,,,,,,,,,,,,,,,,,,,,,
1577736771.590844,120.000000,0.000000,4158.461426,4383.589844,4150.256348,4158.974121,4178.974121,450.000000,4.000000,,,,0.000000,4.000000,4.000000,4.000000,4.000000,4.000000,,,,,,,,,,,,,,,,,,,,,,,,,
1577736771.598556,121.000000,0.000000,4160.512695,4402.051270,4147.179688,4159.487305,4175.384766,450.000000,4.000000,,,,0.000000,4.000000,4.000000,4.000000,4.000000,4.000000,,,,,,,,,,,,,,,,,,,,,,,,,
1577736771.606367,122.000000,0.000000,4176.410156,4396.922852,4151.794922,4161.538574,4180.512695,450.000000,4.000000,,,,0.000000,4.000000,4.000000,4.000000,4.000000,4.000000,,,,,,,,,,,,,,,,,,,,,,,,,
1577736771.614079,123.000000,0.000000,4178.974121,4384.615234,4155.384766,4152.820313,4173.333496,16209.000000,4.000000,,,,0.000000,4.000000,4.000000,4.000000,4.000000,4.000000,,,,,,,,,,,,,,,,,,,,,,,,,
1577736771.621891,124.000000,0.000000,4172.307617,4409.230957,4146.153809,4138.974121,4157.436035,450.000000,4.000000,,,,0.000000,4.000000,4.000000,4.000000,4.000000,4.000000,,,,,,,,,,,,,,,,,,,,,,,,,
1577736771.629603,125.000000,0.000000,4186.666504,4423.589844,4148.205078,4156.922852,4170.769043,450.000000,4.000000,,,,0.000000,4.000000,4.000000,4.000000,4.000000,4.000000,,,,,,,,,,,,,,,,,,,,,,,,,
1577736771.637324,126.000000,0.000000,4201.025879,4405.128418,4166.666504,4179.487305,4183.589844,450.000000,4.000000,,,,0.000000,4.000000,4.000000,4.000000,4.000000,4.000000,,,,,,,,,,,,,,,,,,,,,,,,,
1577736771.645049,127.000000,0.000000,4191.794922,4389.743652,4152.307617,4164.102539,4168.717773,238.000000,4.000000,,,,0.000000,4.000000,4.000000,4.000000,4.000000,4.000000,,,,,,,,,,,,,,,,,,,,,,,,,
1577736771.652873,0.000000,0.000000,4178.974121,4396.922852,4146.666504,4156.922852,4162.051270,450.000000,4.000000,,,,0.000000,4.000000,4.000000,4.000000,4.000000,4.000000,,,,,,,,,,,,,,,,,,,,,,,,,
1577736771.660697,1.000000,0.000000,4169.230957,4415.384766,4166.153809,4162.051270,4169.230957,450.000000,4.000000,,,,0.000000,4.000000,4.000000,4.000000,4.000000,4.000000,,,,,,,,,,,,,,,,,,,,,,,,,
