title:guitar, start timestamp:2019-12-30T14:11:03.940551+03:00, stop timestamp:2019-12-30T14:12:14.098292+03:00, headset type:INSIGHT, headset serial:A2D200FB, headset firmware:930, subject name:Qasim, channels:44, sampling rate:eeg_128;pow_8, samples:9001      , version:2.0
Timestamp,EEG.Counter,EEG.Interpolated,EEG.AF3,EEG.T7,EEG.Pz,EEG.T8,EEG.AF4,EEG.RawCq,EEG.Battery,MarkerIndex,MarkerType,MarkerValueInt,EEG.MarkerHardware,CQ.AF3,CQ.T7,CQ.Pz,CQ.T8,CQ.AF4,POW.AF3.Theta,POW.AF3.Alpha,POW.AF3.BetaL,POW.AF3.BetaH,POW.AF3.Gamma,POW.T7.Theta,POW.T7.Alpha,POW.T7.BetaL,POW.T7.BetaH,POW.T7.Gamma,POW.Pz.Theta,POW.Pz.Alpha,POW.Pz.BetaL,POW.Pz.BetaH,POW.Pz.Gamma,POW.T8.Theta,POW.T8.Alpha,POW.T8.BetaL,POW.T8.BetaH,POW.T8.Gamma,POW.AF4.Theta,POW.AF4.Alpha,POW.AF4.BetaL,POW.AF4.BetaH,POW.AF4.Gamma
1577704263.940551,106.000000,0.000000,4075.384521,4248.717773,4101.025879,4113.333496,3967.692383,450.000000,4.000000,,,,0.000000,4.000000,4.000000,4.000000,4.000000,4.000000,,,,,,,,,,,,,,,,,,,,,,,,,
1577704263.948448,107.000000,0.000000,4056.410156,4242.563965,4093.333252,4100.512695,3942.564209,16204.000000,4.000000,,,,0.000000,4.000000,4.000000,4.000000,4.000000,4.000000,,,,,,,,,,,,,,,,,,,,,,,,,
1577704263.956345,108.000000,0.000000,4032.820557,4240.000000,4088.205078,4096.410156,3917.435791,450.000000,4.000000,,,,0.000000,4.000000,4.000000,4.000000,4.000000,4.000000,,,,,,,,,,,,,,,,,,,,,,,,,
1577704263.964142,109.000000,0.000000,4026.153809,4241.538574,4088.718018,4096.410156,3906.153809,450.000000,4.000000,,,,0.000000,4.000000,4.000000,4.000000,4.000000,4.000000,,,,,,,,,,,,,,,,,,,,,,,,,
1577704263.971939,110.000000,0.000000,4022.051270,4250.769043,4103.589844,4100.512695,3896.923096,450.000000,4.000000,,,,0.000000,4.000000,4.000000,4.000000,4.000000,4.000000,,,,,,,,,,,,,,,,,,,,,,,,,
1577704263.979836,111.000000,0.000000,4012.820557,4262.051270,4113.333496,4102.563965,3887.692383,16204.000000,4.000000,,,,0.000000,4.000000,4.000000,4.000000,4.000000,4.000000,,,,,,,,,,,,,,,,,,,,,,,,,
1577704263.987632,112.000000,0.000000,4002.051270,4267.692383,4108.205078,4099.487305,3876.410156,450.000000,4.000000,,,,0.000000,4.000000,4.000000,4.000000,4.000000,4.000000,,,,,,,,,,,,,,,,,,,,,,,,,
1577704263.995529,113.000000,0.000000,3995.897461,4275.384766,4112.307617,4108.717773,3871.794922,450.000000,4.000000,,,,0.000000,4.000000,4.000000,4.000000,4.000000,4.000000,,,,,,,,,,,,,,,,,,,,,,,,,
1577704264.003326,114.000000,0.000000,3988.718018,4273.333496,4111.282227,4117.948730,3872.820557,450.000000,4.000000,,,,0.000000,4.000000,4.000000,4.000000,4.000000,4.000000,,,,,,,,,,,,,,,,,,,,,,,,,
1577704264.011222,115.000000,0.000000,3960.000000,4251.282227,4102.563965,4097.948730,3851.794922,16204.000000,4.000000,,,,0.000000,4.000000,4.000000,4.000000,4.000000,4.000000,,,,,,,,,,,,,,,,,,,,,,,,,
1577704264.019119,116.000000,0.000000,3924.615479,4238.461426,4107.179688,4087.179443,3823.589844,450.000000,4.000000,,,,0.000000,4.000000,4.000000,4.000000,4.000000,4.000000,,,,,,,,,,,,,,,,,,,,,,,,,
1577704264.026916,117.000000,0.000000,3914.871826,4241.025879,4104.102539,4100.512695,3816.923096,450.000000,4.000000,,,,0.000000,4.000000,4.000000,4.000000,4.000000,4.000000,,,,,,,,,,,,,,,,,,,,,,,,,
1577704264.034812,118.000000,0.000000,3925.641113,4245.641113,4119.487305,4110.769043,3828.205078,450.000000,4.000000,,,,0.000000,4.000000,4.000000,4.000000,4.000000,4.000000,,,,,,,,,,,,,,,,,,,,,,,,,
1577704264.042609,119.000000,0.000000,3935.384521,4252.307617,4129.743652,4112.307617,3845.641113,16204.000000,4.000000,,,,0.000000,4.000000,4.000000,4.000000,4.000000,4.000000,,,,,,,,,,,,,,,,,,,,,,,,,
1577704264.050406,120.000000,0.000000,3919.487061,4250.769043,4111.794922,4102.051270,3833.333252,450.000000,4.000000,,,,0.000000,4.000000,4.000000,4.000000,4.000000,4.000000,,,,,,,,,,,,,,,,,,,,,,,,,
1577704264.058302,121.000000,0.000000,3924.102539,4268.205078,4146.153809,4130.769043,3835.897461,450.000000,4.000000,,,,0.000000,4.000000,4.000000,4.000000,4.000000,4.000000,2.550712,13.686747,2.573946,1.520145,1.035734,2.398010,1.914258,1.348509,0.717317,0.936172,4.937071,4.291830,1.738646,0.752862,0.935985,2.664415,3.378890,1.321543,0.962901,1.018396,20.374226,14.230029,3.465317,1.267425,1.552763
1577704264.066099,122.000000,0.000000,3951.281982,4276.410156,4124.615234,4146.666504,3858.461426,450.000000,4.000000,,,,0.000000,4.000000,4.000000,4.000000,4.000000,4.000000,,,,,,,,,,,,,,,,,,,,,,,,,
1577704264.073995,123.000000,0.000000,3934.358887,4251.282227,4087.179443,4120.000000,3848.205078,16204.000000,4.000000,,,,0.000000,4.000000,4.000000,4.000000,4.000000,4.000000,,,,,,,,,,,,,,,,,,,,,,,,,
1577704264.081792,124.000000,0.000000,3922.051270,4268.205078,4127.179688,4127.179688,3838.974365,450.000000,4.000000,,,,0.000000,4.000000,4.000000,4.000000,4.000000,4.000000,,,,,,,,,,,,,,,,,,,,,,,,,
1577704264.089688,125.000000,0.000000,3930.769287,4282.563965,4115.897461,4137.436035,3835.897461,450.000000,4.000000,,,,0.000000,4.000000,4.000000,4.000000,4.000000,4.000000,,,,,,,,,,,,,,,,,,,,,,,,,
1577704264.097485,126.000000,0.000000,3931.794922,4256.922852,4110.256348,4160.512695,3841.538574,450.000000,4.000000,,,,0.000000,4.000000,4.000000,4.000000,4.000000,4.000000,,,,,,,,,,,,,,,,,,,,,,,,,
1577704264.105381,127.000000,0.000000,3923.076904,4247.692383,4103.077148,4172.307617,3836.923096,240.000000,4.000000,,,,0.000000,4.000000,4.000000,4.000000,4.000000,4.000000,,,,,,,,,,,,,,,,,,,,,,,,,
1577704264.113278,0.000000,0.000000,3893.846191,4233.846191,4078.461426,4150.256348,3800.512939,450.000000,4.000000,,,,0.000000,4.000000,4.000000,4.000000,4.000000,4.000000,,,,,,,,,,,,,,,,,,,,,,,,,
1577704264.121074,1.000000,0.000000,3897.435791,4240.000000,4119.487305,4167.179688,3812.820557,450.000000,4.000000,,,,0.000000,4.000000,4.000000,4.000000,4.000000,4.000000,,,,,,,,,,,,,,,,,,,,,,,,,
1577704264.128971,2.000000,0.000000,3918.461426,4281.538574,4116.922852,4168.205078,3831.794922,16219.000000,4.000000,,,,0.000000,4.000000,4.000000,4.000000,4.000000,4.000000,,,,,,,,,,,,,,,,,,,,,,,,,
1577704264.136768,3.000000,0.000000,3894.871826,4280.000000,4096.410156,4142.051270,3794.358887,450.000000,4.000000,,,,0.000000,4.000000,4.000000,4.000000,4.000000,4.000000,,,,,,,,,,,,,,,,,,,,,,,,,
1577704264.144665,4.000000,0.000000,3885.641113,4251.282227,4123.589844,4156.922852,3790.769287,16220.000000,4.000000,,,,0.000000,4.000000,4.000000,4.000000,4.000000,4.000000,,,,,,,,,,,,,,,,,,,,,,,,,
1577704264.152561,5.000000,0.000000,3916.923096,4268.205078,4124.615234,4170.769043,3829.743652,450.000000,4.000000,,,,0.000000,4.000000,4.000000,4.000000,4.000000,4.000000,,,,,,,,,,,,,,,,,,,,,,,,,
1577704264.160358,6.000000,0.000000,3935.384521,4297.948730,4129.230957,4170.769043,3842.051270,16145.000000,4.000000,,,,0.000000,4.000000,4.000000,4.000000,4.000000,4.000000,,,,,,,,,,,,,,,,,,,,,,,,,
1577704264.168155,7.000000,0.000000,3928.205078,4283.077148,4129.743652,4162.563965,3838.974365,450.000000,4.000000,,,,0.000000,4.000000,4.000000,4.000000,4.000000,4.000000,,,,,,,,,,,,,,,,,,,,,,,,,
1577704264.176052,8.000000,0.000000,3924.615479,4254.358887,4120.000000,4138.461426,3847.179443,450.000000,4.000000,,,,0.000000,4.000000,4.000000,4.000000,4.000000,4.000000,,,,,,,,,,,,,,,,,,,,,,,,,
1577704264.183849,9.000000,0.000000,3949.743652,4274.358887,4138.461426,4150.769043,3872.820557,16140.000000,4.000000,,,,0.000000,4.000000,4.000000,4.000000,4.000000,4.000000,4.913730,12.365123,3.118191,1.622252,1.063852,3.550746,1.747425,1.452397,0.744009,0.906039,5.867747,4.626353,2.042135,0.700714,1.014309,3.044537,2.830140,1.204049,0.969042,1.069040,16.509527,13.379036,3.721847,1.255397,1.561719
1577704264.191746,10.000000,0.000000,3960.512939,4289.743652,4135.384766,4173.333496,3880.000000,450.000000,4.000000,,,,0.000000,4.000000,4.000000,4.000000,4.000000,4.000000,,,,,,,,,,,,,,,,,,,,,,,,,
1577704264.199542,11.000000,0.000000,3943.076904,4268.717773,4123.589844,4161.025879,3870.256348,16220.000000,4.000000,,,,0.000000,4.000000,4.000000,4.000000,4.000000,4.000000,,,,,,,,,,,,,,,,,,,,,,,,,
1577704264.207439,12.000000,0.000000,3950.769287,4273.846191,4129.743652,4155.384766,3882.051270,450.000000,4.000000,,,,0.000000,4.000000,4.000000,4.000000,4.000000,4.000000,,,,,,,,,,,,,,,,,,,,,,,,,
1577704264.215236,13.000000,0.000000,3956.410156,4278.974121,4132.820313,4157.436035,3882.051270,450.000000,4.000000,,,,0.000000,4.000000,4.000000,4.000000,4.000000,4.000000,,,,,,,,,,,,,,,,,,,,,,,,,
1577704264.223132,14.000000,0.000000,3938.974365,4253.846191,4131.794922,4158.974121,3863.589844,450.000000,4.000000,,,,0.000000,4.000000,4.000000,4.000000,4.000000,4.000000,,,,,,,,,,,,,,,,,,,,,,,,,
1577704264.230929,15.000000,0.000000,3937.435791,4246.153809,4123.589844,4168.205078,3857.948730,16220.000000,4.000000,,,,0.000000,4.000000,4.000000,4.000000,4.000000,4.000000,,,,,,,,,,,,,,,,,,,,,,,,,
1577704264.238825,16.000000,0.000000,3949.743652,4267.179688,4131.794922,4175.384766,3864.102539,0.000000,4.000000,,,,0.000000,4.000000,4.000000,4.000000,4.000000,4.000000,,,,,,,,,,,,,,,,,,,,,,,,,
1577704264.246622,17.000000,0.000000,3948.205078,4281.538574,4128.717773,4148.205078,3855.897461,0.000000,4.000000,,,,0.000000,4.000000,4.000000,4.000000,4.000000,4.000000,,,,,,,,,,,,,,,,,,,,,,,,,
1577704264.254518,18.000000,0.000000,3932.820557,4258.974121,4108.205078,4124.615234,3836.410156,0.000000,4.000000,,,,0.000000,4.000000,4.000000,4.000000,4.000000,4.000000,,,,,,,,,,,,,,,,,,,,,,,,,
1577704264.262315,19.000000,0.000000,3936.410156,4240.512695,4126.666504,4156.410156,3846.666748,0.000000,4.000000,,,,0.000000,4.000000,4.000000,4.000000,4.000000,4.000000,,,,,,,,,,,,,,,,,,,,,,,,,
1577704264.270211,20.000000,0.000000,3943.589844,4258.974121,4126.153809,4154.871582,3849.230713,0.000000,4.000000,,,,0.000000,4.000000,4.000000,4.000000,4.000000,4.000000,,,,,,,,,,,,,,,,,,,,,,,,,
1577704264.278108,21.000000,0.000000,3950.769287,4278.974121,4131.282227,4135.384766,3844.615479,0.000000,4.000000,,,,0.000000,4.000000,4.000000,4.000000,4.000000,4.000000,,,,,,,,,,,,,,,,,,,,,,,,,
1577704264.285904,22.000000,0.000000,3975.384521,4282.563965,4169.230957,4177.436035,3871.794922,0.000000,4.000000,,,,0.000000,4.000000,4.000000,4.000000,4.000000,4.000000,,,,,,,,,,,,,,,,,,,,,,,,,
1577704264.293801,23.000000,0.000000,3979.487061,4277.436035,4152.820313,4201.538574,3879.487061,0.000000,4.000000,,,,0.000000,4.000000,4.000000,4.000000,4.000000,4.000000,,,,,,,,,,,,,,,,,,,,,,,,,
1577704264.301598,24.000000,0.000000,3981.538574,4287.692383,4149.743652,4196.410156,3880.512939,0.000000,4.000000,,,,0.000000,4.000000,4.000000,4.000000,4.000000,4.000000,,,,,,,,,,,,,,,,,,,,,,,,,
1577704264.309495,25.000000,0.000000,3993.846191,4293.846191,4162.051270,4184.615234,3891.281982,0.000000,4.000000,,,,0.000000,4.000000,4.000000,4.000000,4.000000,4.000000,9.091201,10.713555,3.808235,1.645969,1.099055,4.756121,1.525669,1.496114,0.744876,0.876595,6.536173,5.610711,2.405653,0.656490,1.039879,3.558370,2.244884,1.121820,0.950573,1.096259,15.884895,11.999188,4.175435,1.269527,1.531108
1577704264.317291,26.000000,0.000000,3977.435791,4281.025879,4139.487305,4177.948730,3875.897461,0.000000,4.000000,,,,0.000000,4.000000,4.000000,4.000000,4.000000,4.000000,,,,,,,,,,,,,,,,,,,,,,,,,
1577704264.325188,27.000000,0.000000,3968.205078,4281.538574,4137.436035,4202.563965,3869.743652,0.000000,4.000000,,,,0.000000,4.000000,4.000000,4.000000,4.000000,4.000000,,,,,,,,,,,,,,,,,,,,,,,,,
1577704264.332985,28.000000,0.000000,3974.871826,4283.589844,4135.897461,4190.769043,3877.435791,0.000000,4.000000,,,,0.000000,4.000000,4.000000,4.000000,4.000000,4.000000,,,,,,,,,,,,,,,,,,,,,,,,,
1577704264.340881,29.000000,0.000000,3968.718018,4269.743652,4127.179688,4162.563965,3875.897461,0.000000,4.000000,,,,0.000000,4.000000,4.000000,4.000000,4.000000,4.000000,,,,,,,,,,,,,,,,,,,,,,,,,
1577704264.348678,30.000000,0.000000,3971.281982,4269.743652,4132.820313,4178.461426,3881.538574,0.000000,4.000000,,,,0.000000,4.000000,4.000000,4.000000,4.000000,4.000000,,,,,,,,,,,,,,,,,,,,,,,,,
1577704264.356575,31.000000,0.000000,3969.743652,4281.538574,4137.948730,4179.487305,3882.564209,0.000000,4.000000,,,,0.000000,4.000000,4.000000,4.000000,4.000000,4.000000,,,,,,,,,,,,,,,,,,,,,,,,,
1577704264.364372,32.000000,0.000000,3947.179443,4278.974121,4146.666504,4178.461426,3873.846191,0.000000,4.000000,,,,0.000000,4.000000,4.000000,4.000000,4.000000,4.000000,,,,,,,,,,,,,,,,,,,,,,,,,
1577704264.372268,33.000000,0.000000,3950.256348,4277.948730,4151.282227,4199.487305,3880.000000,0.000000,4.000000,,,,0.000000,4.000000,4.000000,4.000000,4.000000,4.000000,,,,,,,,,,,,,,,,,,,,,,,,,
1577704264.380065,34.000000,0.000000,3989.230713,4294.871582,4148.205078,4188.717773,3903.589844,0.000000,4.000000,,,,0.000000,4.000000,4.000000,4.000000,4.000000,4.000000,,,,,,,,,,,,,,,,,,,,,,,,,
1577704264.387962,35.000000,0.000000,4018.461426,4305.641113,4149.230957,4176.410156,3916.923096,0.000000,4.000000,,,,0.000000,4.000000,4.000000,4.000000,4.000000,4.000000,,,,,,,,,,,,,,,,,,,,,,,,,
1577704264.395758,36.000000,0.000000,4023.589844,4293.333496,4145.128418,4193.333496,3912.820557,0.000000,4.000000,,,,0.000000,4.000000,4.000000,4.000000,4.000000,4.000000,,,,,,,,,,,,,,,,,,,,,,,,,
1577704264.403655,37.000000,0.000000,4030.256348,4276.922852,4136.410156,4190.256348,3918.974365,0.000000,4.000000,,,,0.000000,4.000000,4.000000,4.000000,4.000000,4.000000,,,,,,,,,,,,,,,,,,,,,,,,,
1577704264.411452,38.000000,0.000000,4032.820557,4268.717773,4130.769043,4178.974121,3924.615479,0.000000,4.000000,,,,0.000000,4.000000,4.000000,4.000000,4.000000,4.000000,,,,,,,,,,,,,,,,,,,,,,,,,
1577704264.419348,39.000000,0.000000,4017.435791,4274.871582,4132.307617,4198.974121,3910.256348,0.000000,4.000000,,,,0.000000,4.000000,4.000000,4.000000,4.000000,4.000000,,,,,,,,,,,,,,,,,,,,,,,,,
1577704264.427245,40.000000,0.000000,4005.128174,4277.436035,4131.282227,4209.230957,3901.025635,0.000000,4.000000,,,,0.000000,4.000000,4.000000,4.000000,4.000000,4.000000,,,,,,,,,,,,,,,,,,,,,,,,,
1577704264.435042,41.000000,0.000000,3991.281982,4256.410156,4115.384766,4182.563965,3891.281982,0.000000,4.000000,,,,0.000000,4.000000,4.000000,4.000000,4.000000,4.000000,14.167602,9.288014,4.389495,1.595628,1.142752,5.728226,1.388916,1.531673,0.742438,0.862624,6.834640,6.817029,2.730875,0.635633,1.014802,4.169599,1.763129,1.087745,0.922881,1.107893,17.712999,10.685327,4.564824,1.284833,1.479489
1577704264.442938,42.000000,0.000000,3980.000000,4249.230957,4109.743652,4180.512695,3878.461426,0.000000,4.000000,,,,0.000000,4.000000,4.000000,4.000000,4.000000,4.000000,,,,,,,,,,,,,,,,,,,,,,,,,
1577704264.450735,43.000000,0.000000,3978.461426,4258.461426,4116.410156,4190.256348,3873.846191,0.000000,4.000000,,,,0.000000,4.000000,4.000000,4.000000,4.000000,4.000000,,,,,,,,,,,,,,,,,,,,,,,,,
1577704264.458632,44.000000,0.000000,3978.461426,4267.692383,4128.717773,4175.897461,3874.358887,0.000000,4.000000,,,,0.000000,4.000000,4.000000,4.000000,4.000000,4.000000,,,,,,,,,,,,,,,,,,,,,,,,,
1577704264.466429,45.000000,0.000000,3995.384521,4284.615234,4149.743652,4178.461426,3883.076904,0.000000,4.000000,,,,0.000000,4.000000,4.000000,4.000000,4.000000,4.000000,,,,,,,,,,,,,,,,,,,,,,,,,
1577704264.474325,46.000000,0.000000,4013.333252,4275.384766,4154.871582,4203.589844,3894.358887,0.000000,4.000000,,,,0.000000,4.000000,4.000000,4.000000,4.000000,4.000000,,,,,,,,,,,,,,,,,,,,,,,,,
1577704264.482122,47.000000,0.000000,4010.769287,4249.230957,4150.769043,4215.384766,3904.102539,0.000000,4.000000,,,,0.000000,4.000000,4.000000,4.000000,4.000000,4.000000,,,,,,,,,,,,,,,,,,,,,,,,,
1577704264.489919,48.000000,0.000000,4002.564209,4262.051270,4149.230957,4208.205078,3906.666748,0.000000,4.000000,,,,0.000000,4.000000,4.000000,4.000000,4.000000,4.000000,,,,,,,,,,,,,,,,,,,,,,,,,
1577704264.497615,49.000000,0.000000,4007.179443,4281.025879,4145.128418,4203.077148,3906.153809,0.000000,4.000000,,,,0.000000,4.000000,4.000000,4.000000,4.000000,4.000000,,,,,,,,,,,,,,,,,,,,,,,,,
1577704264.505512,50.000000,0.000000,4022.564209,4273.333496,4155.384766,4212.307617,3922.051270,0.000000,4.000000,,,,0.000000,4.000000,4.000000,4.000000,4.000000,4.000000,,,,,,,,,,,,,,,,,,,,,,,,,
1577704264.513309,51.000000,0.000000,4025.128174,4274.871582,4162.563965,4215.384766,3926.666748,0.000000,4.000000,,,,0.000000,4.000000,4.000000,4.000000,4.000000,4.000000,,,,,,,,,,,,,,,,,,,,,,,,,
1577704264.521106,52.000000,0.000000,4014.358887,4291.282227,4154.358887,4200.512695,3913.846191,0.000000,4.000000,,,,0.000000,4.000000,4.000000,4.000000,4.000000,4.000000,,,,,,,,,,,,,,,,,,,,,,,,,
1577704264.528802,53.000000,0.000000,4021.025635,4303.077148,4155.897461,4206.666504,3927.692383,0.000000,4.000000,,,,0.000000,4.000000,4.000000,4.000000,4.000000,4.000000,,,,,,,,,,,,,,,,,,,,,,,,,
1577704264.536699,54.000000,0.000000,4039.487061,4295.897461,4172.307617,4233.333496,3950.256348,0.000000,4.000000,,,,0.000000,4.000000,4.000000,4.000000,4.000000,4.000000,,,,,,,,,,,,,,,,,,,,,,,,,
1577704264.544496,55.000000,0.000000,4051.794922,4291.794922,4180.000000,4245.641113,3951.794922,0.000000,4.000000,,,,0.000000,4.000000,4.000000,4.000000,4.000000,4.000000,,,,,,,,,,,,,,,,,,,,,,,,,
1577704264.552392,56.000000,0.000000,4060.512939,4304.102539,4172.820313,4238.974121,3955.384521,0.000000,4.000000,,,,0.000000,4.000000,4.000000,4.000000,4.000000,4.000000,,,,,,,,,,,,,,,,,,,,,,,,,
1577704264.560189,57.000000,0.000000,4063.076904,4314.358887,4168.717773,4231.282227,3963.589844,0.000000,4.000000,,,,0.000000,4.000000,4.000000,4.000000,4.000000,4.000000,19.421951,8.505306,4.648562,1.500004,1.190424,6.049545,1.439979,1.615083,0.754499,0.885815,6.638750,7.730195,2.923832,0.635283,0.958053,4.709458,1.472856,1.099738,0.913085,1.117934,21.882441,9.889074,4.634135,1.281931,1.425125
1577704264.568086,58.000000,0.000000,4058.974365,4312.820313,4168.717773,4237.948730,3961.025635,0.000000,4.000000,,,,0.000000,4.000000,4.000000,4.000000,4.000000,4.000000,,,,,,,,,,,,,,,,,,,,,,,,,
1577704264.575882,59.000000,0.000000,4053.846191,4300.000000,4168.205078,4245.128418,3953.846191,0.000000,4.000000,,,,0.000000,4.000000,4.000000,4.000000,4.000000,4.000000,,,,,,,,,,,,,,,,,,,,,,,,,
1577704264.583779,60.000000,0.000000,4056.923096,4295.897461,4180.512695,4250.769043,3965.128174,0.000000,4.000000,,,,0.000000,4.000000,4.000000,4.000000,4.000000,4.000000,,,,,,,,,,,,,,,,,,,,,,,,,
1577704264.591676,61.000000,0.000000,4073.846191,4309.230957,4190.256348,4258.461426,3987.692383,0.000000,4.000000,,,,0.000000,4.000000,4.000000,4.000000,4.000000,4.000000,,,,,,,,,,,,,,,,,,,,,,,,,
1577704264.599473,62.000000,0.000000,4083.076904,4304.615234,4183.077148,4251.794922,3990.769287,0.000000,4.000000,,,,0.000000,4.000000,4.000000,4.000000,4.000000,4.000000,,,,,,,,,,,,,,,,,,,,,,,,,
1577704264.607269,63.000000,0.000000,4077.948730,4284.615234,4174.358887,4237.436035,3978.974365,0.000000,4.000000,,,,0.000000,4.000000,4.000000,4.000000,4.000000,4.000000,,,,,,,,,,,,,,,,,,,,,,,,,
1577704264.615166,64.000000,0.000000,4077.435791,4290.769043,4176.922852,4237.948730,3982.564209,450.000000,4.000000,,,,0.000000,4.000000,4.000000,4.000000,4.000000,4.000000,,,,,,,,,,,,,,,,,,,,,,,,,
1577704264.622963,65.000000,0.000000,4080.000000,4296.410156,4180.000000,4247.179688,3989.230713,450.000000,4.000000,,,,0.000000,4.000000,4.000000,4.000000,4.000000,4.000000,,,,,,,,,,,,,,,,,,,,,,,,,
1577704264.630859,66.000000,0.000000,4078.461426,4285.128418,4175.384766,4235.897461,3985.641113,16224.000000,4.000000,,,,0.000000,4.000000,4.000000,4.000000,4.000000,4.000000,,,,,,,,,,,,,,,,,,,,,,,,,
1577704264.638656,67.000000,0.000000,4077.435791,4295.897461,4165.128418,4218.461426,3983.589844,450.000000,4.000000,,,,0.000000,4.000000,4.000000,4.000000,4.000000,4.000000,,,,,,,,,,,,,,,,,,,,,,,,,
1577704264.646552,68.000000,0.000000,4076.923096,4310.769043,4161.025879,4218.461426,3985.641113,16233.000000,4.000000,,,,0.000000,4.000000,4.000000,4.000000,4.000000,4.000000,,,,,,,,,,,,,,,,,,,,,,,,,
1577704264.654349,69.000000,0.000000,4082.051270,4308.205078,4167.692383,4222.563965,3995.384521,450.000000,4.000000,,,,0.000000,4.000000,4.000000,4.000000,4.000000,4.000000,,,,,,,,,,,,,,,,,,,,,,,,,
1577704264.662045,70.000000,0.000000,4086.666748,4301.538574,4171.794922,4217.948730,4004.615479,16149.000000,4.000000,,,,0.000000,4.000000,4.000000,4.000000,4.000000,4.000000,,,,,,,,,,,,,,,,,,,,,,,,,
1577704264.669842,71.000000,0.000000,4089.230713,4298.461426,4179.487305,4217.948730,4009.230713,450.000000,4.000000,,,,0.000000,4.000000,4.000000,4.000000,4.000000,4.000000,,,,,,,,,,,,,,,,,,,,,,,,,
1577704264.677538,72.000000,0.000000,4085.641113,4296.922852,4185.641113,4215.384766,4008.205078,450.000000,4.000000,,,,0.000000,4.000000,4.000000,4.000000,4.000000,4.000000,,,,,,,,,,,,,,,,,,,,,,,,,
1577704264.685335,73.000000,0.000000,4082.564209,4301.025879,4186.666504,4202.051270,4002.051270,16141.000000,4.000000,,,,0.000000,4.000000,4.000000,4.000000,4.000000,4.000000,22.844641,8.536181,4.519048,1.393843,1.232184,5.723235,1.679112,1.766967,0.784722,0.960140,6.056001,7.983924,2.934818,0.642284,0.892639,5.160555,1.405931,1.141341,0.942318,1.141043,25.340191,9.739567,4.264106,1.240695,1.375771
1577704264.693032,74.000000,0.000000,4091.794922,4304.102539,4187.692383,4194.358887,3998.974365,450.000000,4.000000,,,,0.000000,4.000000,4.000000,4.000000,4.000000,4.000000,,,,,,,,,,,,,,,,,,,,,,,,,
1577704264.700928,75.000000,0.000000,4094.871826,4290.769043,4180.512695,4183.589844,3992.820557,16224.000000,4.000000,,,,0.000000,4.000000,4.000000,4.000000,4.000000,4.000000,,,,,,,,,,,,,,,,,,,,,,,,,
1577704264.708725,76.000000,0.000000,4089.230713,4290.256348,4180.512695,4176.922852,3990.256348,450.000000,4.000000,,,,0.000000,4.000000,4.000000,4.000000,4.000000,4.000000,,,,,,,,,,,,,,,,,,,,,,,,,
1577704264.716522,77.000000,0.000000,4086.153809,4306.153809,4185.641113,4183.589844,3992.307617,450.000000,4.000000,,,,0.000000,4.000000,4.000000,4.000000,4.000000,4.000000,,,,,,,,,,,,,,,,,,,,,,,,,
1577704264.724218,78.000000,0.000000,4086.666748,4303.589844,4185.641113,4178.974121,3996.923096,450.000000,4.000000,,,,0.000000,4.000000,4.000000,4.000000,4.000000,4.000000,,,,,,,,,,,,,,,,,,,,,,,,,
1577704264.732115,79.000000,0.000000,4102.563965,4303.589844,4194.871582,4174.358887,4013.846191,16224.000000,4.000000,,,,0.000000,4.000000,4.000000,4.000000,4.000000,4.000000,,,,,,,,,,,,,,,,,,,,,,,,,
1577704264.739912,80.000000,0.000000,4119.487305,4318.974121,4205.128418,4182.563965,4028.205078,450.000000,4.000000,,,,0.000000,4.000000,4.000000,4.000000,4.000000,4.000000,,,,,,,,,,,,,,,,,,,,,,,,,
1577704264.747809,81.000000,0.000000,4120.512695,4317.948730,4202.051270,4187.179688,4027.179443,450.000000,4.000000,,,,0.000000,4.000000,4.000000,4.000000,4.000000,4.000000,,,,,,,,,,,,,,,,,,,,,,,,,
1577704264.755605,82.000000,0.000000,4120.000000,4300.512695,4195.384766,4179.487305,4023.589844,450.000000,4.000000,,,,0.000000,4.000000,4.000000,4.000000,4.000000,4.000000,,,,,,,,,,,,,,,,,,,,,,,,,
1577704264.763502,83.000000,0.000000,4119.487305,4295.897461,4193.846191,4172.820313,4024.102539,16224.000000,4.000000,,,,0.000000,4.000000,4.000000,4.000000,4.000000,4.000000,,,,,,,,,,,,,,,,,,,,,,,,,
1577704264.771299,84.000000,0.000000,4122.051270,4314.871582,4195.384766,4169.230957,4026.153809,450.000000,4.000000,,,,0.000000,4.000000,4.000000,4.000000,4.000000,4.000000,,,,,,,,,,,,,,,,,,,,,,,,,
1577704264.779195,85.000000,0.000000,4137.948730,4334.871582,4198.461426,4169.743652,4036.410156,450.000000,4.000000,,,,0.000000,4.000000,4.000000,4.000000,4.000000,4.000000,,,,,,,,,,,,,,,,,,,,,,,,,
1577704264.786992,86.000000,0.000000,4148.717773,4328.717773,4199.487305,4176.922852,4050.769287,450.000000,4.000000,,,,0.000000,4.000000,4.000000,4.000000,4.000000,4.000000,,,,,,,,,,,,,,,,,,,,,,,,,
1577704264.794889,87.000000,0.000000,4144.102539,4308.717773,4188.717773,4177.436035,4047.692383,16224.000000,4.000000,,,,0.000000,4.000000,4.000000,4.000000,4.000000,4.000000,,,,,,,,,,,,,,,,,,,,,,,,,
1577704264.802686,88.000000,0.000000,4143.589844,4316.922852,4183.589844,4167.179688,4037.948730,450.000000,4.000000,,,,0.000000,4.000000,4.000000,4.000000,4.000000,4.000000,,,,,,,,,,,,,,,,,,,,,,,,,
1577704264.810582,89.000000,0.000000,4150.769043,4339.487305,4186.666504,4157.436035,4044.102539,450.000000,4.000000,,,,0.000000,4.000000,4.000000,4.000000,4.000000,4.000000,23.820227,9.219750,4.100512,1.297309,1.250819,4.858126,2.045236,1.960249,0.818698,1.079828,5.164995,7.518096,2.776408,0.644651,0.832949,5.349970,1.534375,1.202026,1.014403,1.182792,27.167500,9.947825,3.525927,1.154119,1.322899
1577704264.818378,90.000000,0.000000,4157.948730,4331.794922,4182.051270,4153.333496,4053.846191,450.000000,4.000000,,,,0.000000,4.000000,4.000000,4.000000,4.000000,4.000000,,,,,,,,,,,,,,,,,,,,,,,,,
1577704264.826275,91.000000,0.000000,4171.794922,4323.077148,4188.205078,4163.589844,4060.512939,16224.000000,4.000000,,,,0.000000,4.000000,4.000000,4.000000,4.000000,4.000000,,,,,,,,,,,,,,,,,,,,,,,,,
1577704264.834071,92.000000,0.000000,4189.743652,4335.384766,4203.077148,4178.974121,4077.948730,450.000000,4.000000,,,,0.000000,4.000000,4.000000,4.000000,4.000000,4.000000,,,,,,,,,,,,,,,,,,,,,,,,,
1577704264.841768,93.000000,0.000000,4203.077148,4337.948730,4205.128418,4178.461426,4095.897461,450.000000,4.000000,,,,0.000000,4.000000,4.000000,4.000000,4.000000,4.000000,,,,,,,,,,,,,,,,,,,,,,,,,
1577704264.849665,94.000000,0.000000,4217.436035,4333.333496,4212.307617,4182.563965,4105.641113,450.000000,4.000000,,,,0.000000,4.000000,4.000000,4.000000,4.000000,4.000000,,,,,,,,,,,,,,,,,,,,,,,,,
1577704264.857462,95.000000,0.000000,4235.384766,4340.512695,4213.333496,4189.230957,4117.436035,16224.000000,4.000000,,,,0.000000,4.000000,4.000000,4.000000,4.000000,4.000000,,,,,,,,,,,,,,,,,,,,,,,,,
1577704264.865358,96.000000,0.000000,4251.794922,4343.589844,4208.205078,4178.461426,4131.282227,450.000000,4.000000,,,,0.000000,4.000000,4.000000,4.000000,4.000000,4.000000,,,,,,,,,,,,,,,,,,,,,,,,,
1577704264.873155,97.000000,0.000000,4268.717773,4334.871582,4218.461426,4174.871582,4143.589844,450.000000,4.000000,,,,0.000000,4.000000,4.000000,4.000000,4.000000,4.000000,,,,,,,,,,,,,,,,,,,,,,,,,
1577704264.881052,98.000000,0.000000,4286.153809,4335.384766,4217.436035,4181.538574,4151.282227,450.000000,4.000000,,,,0.000000,4.000000,4.000000,4.000000,4.000000,4.000000,,,,,,,,,,,,,,,,,,,,,,,,,
1577704264.888848,99.000000,0.000000,4308.717773,4350.769043,4219.487305,4195.897461,4173.333496,16224.000000,4.000000,,,,0.000000,4.000000,4.000000,4.000000,4.000000,4.000000,,,,,,,,,,,,,,,,,,,,,,,,,
1577704264.896745,100.000000,0.000000,4337.948730,4363.589844,4214.358887,4205.641113,4208.205078,450.000000,4.000000,,,,0.000000,4.000000,4.000000,4.000000,4.000000,4.000000,,,,,,,,,,,,,,,,,,,,,,,,,
1577704264.904542,101.000000,0.000000,4350.769043,4358.461426,4212.820313,4202.563965,4219.487305,450.000000,4.000000,,,,0.000000,4.000000,4.000000,4.000000,4.000000,4.000000,,,,,,,,,,,,,,,,,,,,,,,,,
1577704264.912438,102.000000,0.000000,4370.769043,4360.512695,4251.282227,4221.538574,4240.000000,450.000000,4.000000,,,,0.000000,4.000000,4.000000,4.000000,4.000000,4.000000,,,,,,,,,,,,,,,,,,,,,,,,,
1577704264.920235,103.000000,0.000000,4387.692383,4360.000000,4213.846191,4213.333496,4262.563965,16224.000000,4.000000,,,,0.000000,4.000000,4.000000,4.000000,4.000000,4.000000,,,,,,,,,,,,,,,,,,,,,,,,,
1577704264.928132,104.000000,0.000000,4370.256348,4344.102539,4229.230957,4193.333496,4257.436035,450.000000,4.000000,,,,0.000000,4.000000,4.000000,4.000000,4.000000,4.000000,,,,,,,,,,,,,,,,,,,,,,,,,
1577704264.935929,105.000000,0.000000,4415.897461,4386.153809,4329.743652,4241.025879,4298.974121,450.000000,4.000000,,,,0.000000,4.000000,4.000000,4.000000,4.000000,4.000000,21.734987,10.163028,3.633810,1.212527,1.226035,4.036934,2.414406,2.128121,0.837145,1.212363,4.276398,6.531790,2.524435,0.637036,0.777624,5.462502,1.779025,1.271879,1.111936,1.232368,26.030016,10.151075,2.660025,1.030743,1.247010
1577704264.943825,106.000000,0.000000,4434.358887,4389.230957,4188.717773,4189.743652,4300.000000,450.000000,4.000000,,,,0.000000,4.000000,4.000000,4.000000,4.000000,4.000000,,,,,,,,,,,,,,,,,,,,,,,,,
1577704264.951622,107.000000,0.000000,4395.897461,4344.102539,4255.897461,4188.717773,4290.769043,16224.000000,4.000000,,,,0.000000,4.000000,4.000000,4.000000,4.000000,4.000000,,,,,,,,,,,,,,,,,,,,,,,,,
1577704264.959519,108.000000,0.000000,4464.615234,4402.563965,4350.769043,4278.461426,4366.153809,450.000000,4.000000,,,,0.000000,4.000000,4.000000,4.000000,4.000000,4.000000,,,,,,,,,,,,,,,,,,,,,,,,,
1577704264.967315,109.000000,0.000000,4451.794922,4395.384766,4066.666748,4156.410156,4312.820313,450.000000,4.000000,,,,0.000000,4.000000,4.000000,4.000000,4.000000,4.000000,,,,,,,,,,,,,,,,,,,,,,,,,
1577704264.975212,110.000000,0.000000,4402.563965,4356.410156,4170.256348,4163.589844,4284.615234,450.000000,4.000000,,,,0.000000,4.000000,4.000000,4.000000,4.000000,4.000000,,,,,,,,,,,,,,,,,,,,,,,,,
1577704264.983009,111.000000,0.000000,4462.051270,4391.282227,4297.948730,4266.666504,4358.461426,16224.000000,4.000000,,,,0.000000,4.000000,4.000000,4.000000,4.000000,4.000000,,,,,,,,,,,,,,,,,,,,,,,,,
1577704264.990906,112.000000,0.000000,4454.358887,4373.333496,4165.641113,4193.846191,4331.282227,450.000000,4.000000,,,,0.000000,4.000000,4.000000,4.000000,4.000000,4.000000,,,,,,,,,,,,,,,,,,,,,,,,,
1577704264.998702,113.000000,0.000000,4449.743652,4378.461426,4234.871582,4201.538574,4340.000000,450.000000,4.000000,,,,0.000000,4.000000,4.000000,4.000000,4.000000,4.000000,,,,,,,,,,,,,,,,,,,,,,,,,
1577704265.006599,114.000000,0.000000,4463.589844,4391.282227,4235.384766,4218.461426,4361.538574,450.000000,4.000000,,,,0.000000,4.000000,4.000000,4.000000,4.000000,4.000000,,,,,,,,,,,,,,,,,,,,,,,,,
1577704265.014396,115.000000,0.000000,4448.717773,4374.871582,4235.897461,4200.000000,4342.563965,16224.000000,4.000000,,,,0.000000,4.000000,4.000000,4.000000,4.000000,4.000000,,,,,,,,,,,,,,,,,,,,,,,,,
1577704265.022092,116.000000,0.000000,4472.820313,4386.666504,4265.641113,4211.282227,4358.974121,450.000000,4.000000,,,,0.000000,4.000000,4.000000,4.000000,4.000000,4.000000,,,,,,,,,,,,,,,,,,,,,,,,,
1577704265.029989,117.000000,0.000000,4485.128418,4385.641113,4236.410156,4206.153809,4371.282227,450.000000,4.000000,,,,0.000000,4.000000,4.000000,4.000000,4.000000,4.000000,,,,,,,,,,,,,,,,,,,,,,,,,
1577704265.037786,118.000000,0.000000,4481.538574,4388.205078,4252.820313,4221.538574,4376.922852,450.000000,4.000000,,,,0.000000,4.000000,4.000000,4.000000,4.000000,4.000000,,,,,,,,,,,,,,,,,,,,,,,,,
1577704265.045583,119.000000,0.000000,4480.000000,4386.153809,4233.846191,4214.871582,4366.153809,16224.000000,4.000000,,,,0.000000,4.000000,4.000000,4.000000,4.000000,4.000000,,,,,,,,,,,,,,,,,,,,,,,,,
1577704265.053279,120.000000,0.000000,4486.666504,4369.230957,4221.538574,4197.948730,4358.974121,450.000000,4.000000,,,,0.000000,4.000000,4.000000,4.000000,4.000000,4.000000,,,,,,,,,,,,,,,,,,,,,,,,,
1577704265.061076,121.000000,0.000000,4498.461426,4374.871582,4241.538574,4211.282227,4369.230957,450.000000,4.000000,,,,0.000000,4.000000,4.000000,4.000000,4.000000,4.000000,17.945929,10.922469,3.292507,1.135685,1.147688,3.484714,2.661128,2.202371,0.827163,1.313509,3.485716,5.325927,2.250425,0.623584,0.723670,5.504504,2.035310,1.316872,1.204818,1.267809,23.316477,10.081311,1.892777,0.895985,1.133173
1577704265.068772,122.000000,0.000000,4487.692383,4384.102539,4235.384766,4220.512695,4363.589844,450.000000,4.000000,,,,0.000000,4.000000,4.000000,4.000000,4.000000,4.000000,,,,,,,,,,,,,,,,,,,,,,,,,
1577704265.076569,123.000000,0.000000,4478.461426,4379.487305,4244.615234,4224.102539,4356.922852,16224.000000,4.000000,,,,0.000000,4.000000,4.000000,4.000000,4.000000,4.000000,,,,,,,,,,,,,,,,,,,,,,,,,
1577704265.084266,124.000000,0.000000,4496.922852,4389.743652,4250.769043,4228.717773,4370.256348,450.000000,4.000000,,,,0.000000,4.000000,4.000000,4.000000,4.000000,4.000000,,,,,,,,,,,,,,,,,,,,,,,,,
1577704265.092062,125.000000,0.000000,4499.487305,4391.282227,4202.051270,4210.256348,4367.692383,450.000000,4.000000,,,,0.000000,4.000000,4.000000,4.000000,4.000000,4.000000,,,,,,,,,,,,,,,,,,,,,,,,,
1577704265.099759,126.000000,0.000000,4482.051270,4368.205078,4259.487305,4216.922852,4359.487305,450.000000,4.000000,,,,0.000000,4.000000,4.000000,4.000000,4.000000,4.000000,,,,,,,,,,,,,,,,,,,,,,,,,
1577704265.107555,127.000000,0.000000,4530.256348,4400.000000,4274.358887,4248.717773,4405.128418,240.000000,4.000000,,,,0.000000,4.000000,4.000000,4.000000,4.000000,4.000000,,,,,,,,,,,,,,,,,,,,,,,,,
1577704265.115252,0.000000,0.000000,4514.871582,4389.230957,4091.281982,4165.641113,4368.205078,450.000000,4.000000,,,,0.000000,4.000000,4.000000,4.000000,4.000000,4.000000,,,,,,,,,,,,,,,,,,,,,,,,,
1577704265.123148,1.000000,0.000000,4474.358887,4366.153809,4291.794922,4208.717773,4348.205078,450.000000,4.000000,,,,0.000000,4.000000,4.000000,4.000000,4.000000,4.000000,,,,,,,,,,,,,,,,,,,,,,,,,
1577704265.130945,2.000000,0.000000,4545.128418,4423.077148,4382.563965,4294.871582,4420.000000,16199.000000,4.000000,,,,0.000000,4.000000,4.000000,4.000000,4.000000,4.000000,,,,,,,,,,,,,,,,,,,,,,,,,
1577704265.138842,3.000000,0.000000,4514.871582,4380.000000,4111.794922,4168.205078,4363.589844,450.000000,4.000000,,,,0.000000,4.000000,4.000000,4.000000,4.000000,4.000000,,,,,,,,,,,,,,,,,,,,,,,,,
1577704265.146739,4.000000,0.000000,4490.769043,4356.922852,4244.615234,4204.615234,4360.000000,16221.000000,4.000000,,,,0.000000,4.000000,4.000000,4.000000,4.000000,4.000000,,,,,,,,,,,,,,,,,,,,,,,,,
1577704265.154536,5.000000,0.000000,4536.410156,4398.974121,4281.025879,4262.563965,4408.205078,450.000000,4.000000,,,,0.000000,4.000000,4.000000,4.000000,4.000000,4.000000,,,,,,,,,,,,,,,,,,,,,,,,,
1577704265.162333,6.000000,0.000000,4503.077148,4367.692383,4172.820313,4185.128418,4361.025879,16135.000000,4.000000,,,,0.000000,4.000000,4.000000,4.000000,4.000000,4.000000,,,,,,,,,,,,,,,,,,,,,,,,,
1577704265.170229,7.000000,0.000000,4508.205078,4375.897461,4256.922852,4210.769043,4366.666504,450.000000,4.000000,,,,0.000000,4.000000,4.000000,4.000000,4.000000,4.000000,,,,,,,,,,,,,,,,,,,,,,,,,
1577704265.178026,8.000000,0.000000,4525.641113,4397.436035,4216.410156,4216.922852,4370.769043,450.000000,4.000000,,,,0.000000,4.000000,4.000000,4.000000,4.000000,4.000000,,,,,,,,,,,,,,,,,,,,,,,,,
1577704265.185923,9.000000,0.000000,4521.538574,4381.538574,4222.051270,4216.922852,4368.205078,16140.000000,4.000000,,,,0.000000,4.000000,4.000000,4.000000,4.000000,4.000000,13.687748,11.121198,3.075061,1.066328,1.026926,3.409988,2.698279,2.129219,0.792976,1.353374,3.025701,4.210066,2.015973,0.617559,0.758105,5.439269,2.205017,1.299849,1.267336,1.285289,19.296782,9.586547,1.339498,0.787440,0.989261
1577704265.193720,10.000000,0.000000,4543.077148,4382.051270,4282.563965,4248.205078,4400.512695,450.000000,4.000000,,,,0.000000,4.000000,4.000000,4.000000,4.000000,4.000000,,,,,,,,,,,,,,,,,,,,,,,,,
1577704265.201616,11.000000,0.000000,4523.077148,4384.102539,4210.256348,4212.820313,4375.384766,16193.000000,4.000000,,,,0.000000,4.000000,4.000000,4.000000,4.000000,4.000000,,,,,,,,,,,,,,,,,,,,,,,,,
1577704265.209413,12.000000,0.000000,4482.051270,4375.897461,4201.025879,4185.128418,4331.794922,450.000000,4.000000,,,,0.000000,4.000000,4.000000,4.000000,4.000000,4.000000,,,,,,,,,,,,,,,,,,,,,,,,,
1577704265.217110,13.000000,0.000000,4521.538574,4396.410156,4288.205078,4231.282227,4373.846191,450.000000,4.000000,,,,0.000000,4.000000,4.000000,4.000000,4.000000,4.000000,,,,,,,,,,,,,,,,,,,,,,,,,
1577704265.224906,14.000000,0.000000,4554.871582,4396.410156,4243.589844,4233.846191,4407.179688,450.000000,4.000000,,,,0.000000,4.000000,4.000000,4.000000,4.000000,4.000000,,,,,,,,,,,,,,,,,,,,,,,,,
1577704265.232603,15.000000,0.000000,4514.358887,4372.820313,4210.769043,4210.256348,4376.922852,16193.000000,4.000000,,,,0.000000,4.000000,4.000000,4.000000,4.000000,4.000000,,,,,,,,,,,,,,,,,,,,,,,,,
1577704265.240399,16.000000,0.000000,4498.974121,4389.230957,4218.974121,4205.128418,4352.307617,0.000000,4.000000,,,,0.000000,4.000000,4.000000,4.000000,4.000000,4.000000,,,,,,,,,,,,,,,,,,,,,,,,,
1577704265.248096,17.000000,0.000000,4515.897461,4394.871582,4194.358887,4194.358887,4350.256348,0.000000,4.000000,,,,0.000000,4.000000,4.000000,4.000000,4.000000,4.000000,,,,,,,,,,,,,,,,,,,,,,,,,
1577704265.255893,18.000000,0.000000,4540.512695,4380.512695,4240.512695,4230.769043,4376.922852,0.000000,4.000000,,,,0.000000,4.000000,4.000000,4.000000,4.000000,4.000000,,,,,,,,,,,,,,,,,,,,,,,,,
1577704265.263589,19.000000,0.000000,4546.666504,4362.563965,4238.974121,4233.846191,4370.256348,0.000000,4.000000,,,,0.000000,4.000000,4.000000,4.000000,4.000000,4.000000,,,,,,,,,,,,,,,,,,,,,,,,,
1577704265.271486,20.000000,0.000000,4571.794922,4361.025879,4227.692383,4217.436035,4352.307617,0.000000,4.000000,,,,0.000000,4.000000,4.000000,4.000000,4.000000,4.000000,,,,,,,,,,,,,,,,,,,,,,,,,
1577704265.279283,21.000000,0.000000,4647.179688,4384.102539,4247.179688,4247.692383,4387.692383,0.000000,4.000000,,,,0.000000,4.000000,4.000000,4.000000,4.000000,4.000000,,,,,,,,,,,,,,,,,,,,,,,,,
1577704265.287079,22.000000,0.000000,4674.871582,4371.794922,4222.051270,4242.563965,4393.846191,0.000000,4.000000,,,,0.000000,4.000000,4.000000,4.000000,4.000000,4.000000,,,,,,,,,,,,,,,,,,,,,,,,,
1577704265.294776,23.000000,0.000000,4674.358887,4350.769043,4250.256348,4237.436035,4375.384766,0.000000,4.000000,,,,0.000000,4.000000,4.000000,4.000000,4.000000,4.000000,,,,,,,,,,,,,,,,,,,,,,,,,
1577704265.302673,24.000000,0.000000,4720.000000,4366.666504,4264.615234,4253.846191,4393.846191,0.000000,4.000000,,,,0.000000,4.000000,4.000000,4.000000,4.000000,4.000000,,,,,,,,,,,,,,,,,,,,,,,,,
1577704265.310469,25.000000,0.000000,4752.820313,4376.922852,4223.589844,4239.487305,4407.179688,0.000000,4.000000,,,,0.000000,4.000000,4.000000,4.000000,4.000000,4.000000,10.093092,10.512808,2.911935,1.005683,0.899448,3.568350,2.508546,1.907349,0.749327,1.330397,2.892048,3.470680,1.940114,0.646109,1.148311,5.258759,2.220003,1.209713,1.290215,1.330037,15.076416,8.638353,1.034903,0.738153,0.852648
1577704265.318366,26.000000,0.000000,4737.436035,4371.282227,4261.025879,4239.487305,4405.128418,0.000000,4.000000,,,,0.000000,4.000000,4.000000,4.000000,4.000000,4.000000,,,,,,,,,,,,,,,,,,,,,,,,,
1577704265.326163,27.000000,0.000000,4714.871582,4373.333496,4282.563965,4246.666504,4403.589844,0.000000,4.000000,,,,0.000000,4.000000,4.000000,4.000000,4.000000,4.000000,,,,,,,,,,,,,,,,,,,,,,,,,
1577704265.334060,28.000000,0.000000,4687.179688,4368.717773,4224.615234,4215.384766,4384.102539,0.000000,4.000000,,,,0.000000,4.000000,4.000000,4.000000,4.000000,4.000000,,,,,,,,,,,,,,,,,,,,,,,,,
1577704265.341856,29.000000,0.000000,4673.333496,4364.102539,4242.051270,4223.589844,4383.589844,0.000000,4.000000,,,,0.000000,4.000000,4.000000,4.000000,4.000000,4.000000,,,,,,,,,,,,,,,,,,,,,,,,,
1577704265.349753,30.000000,0.000000,4681.025879,4367.179688,4256.922852,4253.333496,4408.205078,0.000000,4.000000,,,,0.000000,4.000000,4.000000,4.000000,4.000000,4.000000,,,,,,,,,,,,,,,,,,,,,,,,,
1577704265.357550,31.000000,0.000000,4645.641113,4358.461426,4221.025879,4231.794922,4394.358887,0.000000,4.000000,,,,0.000000,4.000000,4.000000,4.000000,4.000000,4.000000,,,,,,,,,,,,,,,,,,,,,,,,,
1577704265.365446,32.000000,0.000000,4610.769043,4372.820313,4255.384766,4233.333496,4384.615234,0.000000,4.000000,,,,0.000000,4.000000,4.000000,4.000000,4.000000,4.000000,,,,,,,,,,,,,,,,,,,,,,,,,
1577704265.373243,33.000000,0.000000,4607.692383,4392.820313,4254.358887,4236.410156,4395.897461,0.000000,4.000000,,,,0.000000,4.000000,4.000000,4.000000,4.000000,4.000000,,,,,,,,,,,,,,,,,,,,,,,,,
1577704265.381140,34.000000,0.000000,4600.000000,4388.205078,4230.256348,4217.948730,4396.410156,0.000000,4.000000,,,,0.000000,4.000000,4.000000,4.000000,4.000000,4.000000,,,,,,,,,,,,,,,,,,,,,,,,,
1577704265.389036,35.000000,0.000000,4598.974121,4388.717773,4243.589844,4223.589844,4405.128418,0.000000,4.000000,,,,0.000000,4.000000,4.000000,4.000000,4.000000,4.000000,,,,,,,,,,,,,,,,,,,,,,,,,
1577704265.396833,36.000000,0.000000,4584.102539,4387.692383,4236.410156,4217.948730,4397.436035,0.000000,4.000000,,,,0.000000,4.000000,4.000000,4.000000,4.000000,4.000000,,,,,,,,,,,,,,,,,,,,,,,,,
1577704265.404630,37.000000,0.000000,4567.179688,4392.820313,4243.077148,4217.436035,4389.230957,0.000000,4.000000,,,,0.000000,4.000000,4.000000,4.000000,4.000000,4.000000,,,,,,,,,,,,,,,,,,,,,,,,,
1577704265.412327,38.000000,0.000000,4573.333496,4395.384766,4246.666504,4227.179688,4405.641113,0.000000,4.000000,,,,0.000000,4.000000,4.000000,4.000000,4.000000,4.000000,,,,,,,,,,,,,,,,,,,,,,,,,
1577704265.420223,39.000000,0.000000,4573.846191,4384.102539,4254.871582,4225.128418,4411.794922,0.000000,4.000000,,,,0.000000,4.000000,4.000000,4.000000,4.000000,4.000000,,,,,,,,,,,,,,,,,,,,,,,,,
1577704265.428020,40.000000,0.000000,4562.563965,4393.846191,4264.615234,4228.205078,4407.179688,0.000000,4.000000,,,,0.000000,4.000000,4.000000,4.000000,4.000000,4.000000,,,,,,,,,,,,,,,,,,,,,,,,,
1577704265.435917,41.000000,0.000000,4557.948730,4405.128418,4243.589844,4231.794922,4405.128418,0.000000,4.000000,,,,0.000000,4.000000,4.000000,4.000000,4.000000,4.000000,8.050258,9.149714,2.685092,0.954647,0.819644,3.628190,2.132444,1.574740,0.706826,1.268496,3.058554,3.231871,2.110089,0.750168,2.314522,4.808638,2.052928,1.062063,1.278112,1.495898,11.440121,7.329766,0.910002,0.753114,0.784691
1577704265.443713,42.000000,0.000000,4554.871582,4383.589844,4243.589844,4236.922852,4403.589844,0.000000,4.000000,,,,0.000000,4.000000,4.000000,4.000000,4.000000,4.000000,,,,,,,,,,,,,,,,,,,,,,,,,
1577704265.451610,43.000000,0.000000,4526.666504,4361.025879,4234.358887,4227.179688,4383.077148,0.000000,4.000000,,,,0.000000,4.000000,4.000000,4.000000,4.000000,4.000000,,,,,,,,,,,,,,,,,,,,,,,,,
1577704265.459407,44.000000,0.000000,4497.948730,4363.077148,4212.820313,4202.051270,4358.974121,0.000000,4.000000,,,,0.000000,4.000000,4.000000,4.000000,4.000000,4.000000,,,,,,,,,,,,,,,,,,,,,,,,,
1577704265.467304,45.000000,0.000000,4502.563965,4371.282227,4226.666504,4202.051270,4364.615234,0.000000,4.000000,,,,0.000000,4.000000,4.000000,4.000000,4.000000,4.000000,,,,,,,,,,,,,,,,,,,,,,,,,
1577704265.475100,46.000000,0.000000,4499.487305,4368.717773,4236.410156,4205.641113,4369.230957,0.000000,4.000000,,,,0.000000,4.000000,4.000000,4.000000,4.000000,4.000000,,,,,,,,,,,,,,,,,,,,,,,,,
1577704265.482997,47.000000,0.000000,4478.461426,4365.641113,4240.512695,4192.820313,4357.948730,0.000000,4.000000,,,,0.000000,4.000000,4.000000,4.000000,4.000000,4.000000,,,,,,,,,,,,,,,,,,,,,,,,,
1577704265.490794,48.000000,0.000000,4482.051270,4374.358887,4254.871582,4194.871582,4357.436035,0.000000,4.000000,,,,0.000000,4.000000,4.000000,4.000000,4.000000,4.000000,,,,,,,,,,,,,,,,,,,,,,,,,
1577704265.498690,49.000000,0.000000,4492.820313,4381.538574,4253.333496,4208.205078,4359.487305,0.000000,4.000000,,,,0.000000,4.000000,4.000000,4.000000,4.000000,4.000000,,,,,,,,,,,,,,,,,,,,,,,,,
1577704265.506487,50.000000,0.000000,4478.461426,4381.025879,4246.153809,4205.641113,4349.743652,0.000000,4.000000,,,,0.000000,4.000000,4.000000,4.000000,4.000000,4.000000,,,,,,,,,,,,,,,,,,,,,,,,,
1577704265.514384,51.000000,0.000000,4465.128418,4382.051270,4253.333496,4199.487305,4338.461426,0.000000,4.000000,,,,0.000000,4.000000,4.000000,4.000000,4.000000,4.000000,,,,,,,,,,,,,,,,,,,,,,,,,
1577704265.522181,52.000000,0.000000,4461.538574,4382.563965,4261.025879,4201.538574,4326.153809,0.000000,4.000000,,,,0.000000,4.000000,4.000000,4.000000,4.000000,4.000000,,,,,,,,,,,,,,,,,,,,,,,,,
1577704265.530077,53.000000,0.000000,4450.769043,4377.436035,4255.897461,4196.410156,4314.358887,0.000000,4.000000,,,,0.000000,4.000000,4.000000,4.000000,4.000000,4.000000,,,,,,,,,,,,,,,,,,,,,,,,,
1577704265.537874,54.000000,0.000000,4429.743652,4364.102539,4251.794922,4193.846191,4307.692383,0.000000,4.000000,,,,0.000000,4.000000,4.000000,4.000000,4.000000,4.000000,,,,,,,,,,,,,,,,,,,,,,,,,
1577704265.545771,55.000000,0.000000,4407.692383,4357.948730,4252.307617,4205.128418,4300.512695,0.000000,4.000000,,,,0.000000,4.000000,4.000000,4.000000,4.000000,4.000000,,,,,,,,,,,,,,,,,,,,,,,,,
1577704265.553567,56.000000,0.000000,4395.897461,4364.102539,4247.179688,4204.102539,4291.282227,0.000000,4.000000,,,,0.000000,4.000000,4.000000,4.000000,4.000000,4.000000,,,,,,,,,,,,,,,,,,,,,,,,,
1577704265.561464,57.000000,0.000000,4393.333496,4363.077148,4236.410156,4187.692383,4280.000000,0.000000,4.000000,,,,0.000000,4.000000,4.000000,4.000000,4.000000,4.000000,8.071009,7.481538,2.343679,0.919061,0.846858,3.457799,1.667786,1.204768,0.668338,1.203809,3.452311,3.434735,2.524242,0.965431,4.555147,4.370202,1.743351,0.896382,1.243622,1.868942,8.800675,5.824926,0.849259,0.813581,0.847123
1577704265.569261,58.000000,0.000000,4396.410156,4357.948730,4235.384766,4188.205078,4280.000000,0.000000,4.000000,,,,0.000000,4.000000,4.000000,4.000000,4.000000,4.000000,,,,,,,,,,,,,,,,,,,,,,,,,
1577704265.576958,59.000000,0.000000,4399.487305,4367.179688,4246.666504,4203.077148,4288.717773,0.000000,4.000000,,,,0.000000,4.000000,4.000000,4.000000,4.000000,4.000000,,,,,,,,,,,,,,,,,,,,,,,,,
1577704265.584854,60.000000,0.000000,4391.282227,4376.922852,4241.538574,4204.102539,4288.205078,0.000000,4.000000,,,,0.000000,4.000000,4.000000,4.000000,4.000000,4.000000,,,,,,,,,,,,,,,,,,,,,,,,,
1577704265.592651,61.000000,0.000000,4390.769043,4373.846191,4225.128418,4201.538574,4287.692383,0.000000,4.000000,,,,0.000000,4.000000,4.000000,4.000000,4.000000,4.000000,,,,,,,,,,,,,,,,,,,,,,,,,
1577704265.600448,62.000000,0.000000,4394.871582,4370.256348,4226.153809,4206.153809,4293.333496,0.000000,4.000000,,,,0.000000,4.000000,4.000000,4.000000,4.000000,4.000000,,,,,,,,,,,,,,,,,,,,,,,,,
1577704265.608145,63.000000,0.000000,4375.384766,4369.743652,4226.666504,4201.538574,4280.512695,0.000000,4.000000,,,,0.000000,4.000000,4.000000,4.000000,4.000000,4.000000,,,,,,,,,,,,,,,,,,,,,,,,,
1577704265.615941,64.000000,0.000000,4345.128418,4375.897461,4215.384766,4184.615234,4252.307617,450.000000,4.000000,,,,0.000000,4.000000,4.000000,4.000000,4.000000,4.000000,,,,,,,,,,,,,,,,,,,,,,,,,
1577704265.623638,65.000000,0.000000,4346.666504,4385.128418,4214.871582,4176.410156,4247.179688,450.000000,4.000000,,,,0.000000,4.000000,4.000000,4.000000,4.000000,4.000000,,,,,,,,,,,,,,,,,,,,,,,,,
1577704265.631434,66.000000,0.000000,4352.820313,4383.589844,4222.563965,4184.102539,4256.922852,16198.000000,4.000000,,,,0.000000,4.000000,4.000000,4.000000,4.000000,4.000000,,,,,,,,,,,,,,,,,,,,,,,,,
1577704265.639131,67.000000,0.000000,4332.820313,4378.461426,4223.589844,4187.179688,4248.205078,450.000000,4.000000,,,,0.000000,4.000000,4.000000,4.000000,4.000000,4.000000,,,,,,,,,,,,,,,,,,,,,,,,,
1577704265.646927,68.000000,0.000000,4326.153809,4380.000000,4217.948730,4175.384766,4238.461426,16216.000000,4.000000,,,,0.000000,4.000000,4.000000,4.000000,4.000000,4.000000,,,,,,,,,,,,,,,,,,,,,,,,,
1577704265.654624,69.000000,0.000000,4335.897461,4380.512695,4215.897461,4184.102539,4243.589844,450.000000,4.000000,,,,0.000000,4.000000,4.000000,4.000000,4.000000,4.000000,,,,,,,,,,,,,,,,,,,,,,,,,
1577704265.662421,70.000000,0.000000,4322.563965,4370.256348,4215.897461,4207.179688,4235.384766,16135.000000,4.000000,,,,0.000000,4.000000,4.000000,4.000000,4.000000,4.000000,,,,,,,,,,,,,,,,,,,,,,,,,
1577704265.670117,71.000000,0.000000,4309.230957,4363.589844,4214.358887,4211.794922,4223.589844,450.000000,4.000000,,,,0.000000,4.000000,4.000000,4.000000,4.000000,4.000000,,,,,,,,,,,,,,,,,,,,,,,,,
1577704265.677914,72.000000,0.000000,4318.461426,4371.794922,4214.358887,4208.717773,4231.794922,450.000000,4.000000,,,,0.000000,4.000000,4.000000,4.000000,4.000000,4.000000,,,,,,,,,,,,,,,,,,,,,,,,,
1577704265.685610,73.000000,0.000000,4321.025879,4386.666504,4211.794922,4202.051270,4236.922852,16140.000000,4.000000,,,,0.000000,4.000000,4.000000,4.000000,4.000000,4.000000,11.972342,6.287868,1.896847,0.901820,1.012745,2.943980,1.213759,0.858885,0.633101,1.164493,3.692739,3.900771,3.072277,1.290649,7.732366,3.758447,1.388409,0.750091,1.193712,2.449121,7.480297,4.352636,0.766403,0.884957,1.062474
1577704265.693507,74.000000,0.000000,4311.282227,4384.615234,4205.128418,4187.179688,4222.563965,450.000000,4.000000,,,,0.000000,4.000000,4.000000,4.000000,4.000000,4.000000,,,,,,,,,,,,,,,,,,,,,,,,,
1577704265.701304,75.000000,0.000000,4316.922852,4375.897461,4201.025879,4181.538574,4213.846191,16196.000000,4.000000,,,,0.000000,4.000000,4.000000,4.000000,4.000000,4.000000,,,,,,,,,,,,,,,,,,,,,,,,,
1577704265.709200,76.000000,0.000000,4332.820313,4387.692383,4208.717773,4190.769043,4227.692383,450.000000,4.000000,,,,0.000000,4.000000,4.000000,4.000000,4.000000,4.000000,,,,,,,,,,,,,,,,,,,,,,,,,
1577704265.716997,77.000000,0.000000,4329.743652,4402.563965,4222.563965,4195.897461,4238.461426,450.000000,4.000000,,,,0.000000,4.000000,4.000000,4.000000,4.000000,4.000000,,,,,,,,,,,,,,,,,,,,,,,,,
1577704265.724894,78.000000,0.000000,4308.205078,4394.871582,4222.563965,4191.794922,4227.692383,450.000000,4.000000,,,,0.000000,4.000000,4.000000,4.000000,4.000000,4.000000,,,,,,,,,,,,,,,,,,,,,,,,,
1577704265.732691,79.000000,0.000000,4294.871582,4378.974121,4216.922852,4193.846191,4218.461426,16196.000000,4.000000,,,,0.000000,4.000000,4.000000,4.000000,4.000000,4.000000,,,,,,,,,,,,,,,,,,,,,,,,,
1577704265.740587,80.000000,0.000000,4296.410156,4374.358887,4215.897461,4196.922852,4220.512695,450.000000,4.000000,,,,0.000000,4.000000,4.000000,4.000000,4.000000,4.000000,,,,,,,,,,,,,,,,,,,,,,,,,
1577704265.748384,81.000000,0.000000,4295.897461,4371.794922,4212.820313,4198.974121,4223.589844,450.000000,4.000000,,,,0.000000,4.000000,4.000000,4.000000,4.000000,4.000000,,,,,,,,,,,,,,,,,,,,,,,,,
1577704265.756181,82.000000,0.000000,4296.410156,4373.333496,4213.333496,4206.666504,4231.794922,450.000000,4.000000,,,,0.000000,4.000000,4.000000,4.000000,4.000000,4.000000,,,,,,,,,,,,,,,,,,,,,,,,,
1577704265.763978,83.000000,0.000000,4304.615234,4384.102539,4210.256348,4210.256348,4242.563965,16196.000000,4.000000,,,,0.000000,4.000000,4.000000,4.000000,4.000000,4.000000,,,,,,,,,,,,,,,,,,,,,,,,,
1577704265.771674,84.000000,0.000000,4310.769043,4393.333496,4220.000000,4209.743652,4243.589844,450.000000,4.000000,,,,0.000000,4.000000,4.000000,4.000000,4.000000,4.000000,,,,,,,,,,,,,,,,,,,,,,,,,
1577704265.779471,85.000000,0.000000,4315.384766,4401.538574,4226.666504,4203.077148,4236.922852,450.000000,4.000000,,,,0.000000,4.000000,4.000000,4.000000,4.000000,4.000000,,,,,,,,,,,,,,,,,,,,,,,,,
1577704265.787168,86.000000,0.000000,4320.000000,4400.000000,4211.794922,4188.205078,4237.948730,450.000000,4.000000,,,,0.000000,4.000000,4.000000,4.000000,4.000000,4.000000,,,,,,,,,,,,,,,,,,,,,,,,,
1577704265.794964,87.000000,0.000000,4333.333496,4395.384766,4230.256348,4200.512695,4257.436035,16196.000000,4.000000,,,,0.000000,4.000000,4.000000,4.000000,4.000000,4.000000,,,,,,,,,,,,,,,,,,,,,,,,,
1577704265.802661,88.000000,0.000000,4332.820313,4394.871582,4246.666504,4209.743652,4255.384766,450.000000,4.000000,,,,0.000000,4.000000,4.000000,4.000000,4.000000,4.000000,,,,,,,,,,,,,,,,,,,,,,,,,
1577704265.810458,89.000000,0.000000,4307.692383,4392.307617,4223.077148,4185.641113,4224.102539,450.000000,4.000000,,,,0.000000,4.000000,4.000000,4.000000,4.000000,4.000000,20.006025,6.211530,1.482078,0.909972,1.291348,2.420762,0.877813,0.595235,0.597345,1.153693,3.850524,4.393038,3.578903,1.666595,11.168200,3.282943,1.091136,0.697290,1.135892,3.112431,6.585711,3.139193,0.673195,0.944053,1.385289
1577704265.818154,90.000000,0.000000,4307.692383,4396.410156,4220.000000,4190.256348,4230.256348,450.000000,4.000000,,,,0.000000,4.000000,4.000000,4.000000,4.000000,4.000000,,,,,,,,,,,,,,,,,,,,,,,,,
1577704265.825951,91.000000,0.000000,4314.358887,4397.948730,4218.974121,4211.794922,4247.692383,16196.000000,4.000000,,,,0.000000,4.000000,4.000000,4.000000,4.000000,4.000000,,,,,,,,,,,,,,,,,,,,,,,,,
1577704265.833647,92.000000,0.000000,4296.410156,4391.794922,4204.102539,4204.615234,4231.794922,450.000000,4.000000,,,,0.000000,4.000000,4.000000,4.000000,4.000000,4.000000,,,,,,,,,,,,,,,,,,,,,,,,,
1577704265.841544,93.000000,0.000000,4287.692383,4393.846191,4194.871582,4190.769043,4213.333496,450.000000,4.000000,,,,0.000000,4.000000,4.000000,4.000000,4.000000,4.000000,,,,,,,,,,,,,,,,,,,,,,,,,
1577704265.849341,94.000000,0.000000,4292.307617,4391.282227,4190.256348,4183.077148,4202.051270,450.000000,4.000000,,,,0.000000,4.000000,4.000000,4.000000,4.000000,4.000000,,,,,,,,,,,,,,,,,,,,,,,,,
1577704265.857137,95.000000,0.000000,4295.384766,4381.538574,4196.922852,4181.538574,4203.077148,16196.000000,4.000000,,,,0.000000,4.000000,4.000000,4.000000,4.000000,4.000000,,,,,,,,,,,,,,,,,,,,,,,,,
1577704265.864834,96.000000,0.000000,4295.384766,4385.128418,4210.769043,4184.615234,4216.922852,450.000000,4.000000,,,,0.000000,4.000000,4.000000,4.000000,4.000000,4.000000,,,,,,,,,,,,,,,,,,,,,,,,,
1577704265.872731,97.000000,0.000000,4297.436035,4394.358887,4218.461426,4183.077148,4221.538574,450.000000,4.000000,,,,0.000000,4.000000,4.000000,4.000000,4.000000,4.000000,,,,,,,,,,,,,,,,,,,,,,,,,
1577704265.880528,98.000000,0.000000,4303.589844,4394.358887,4218.461426,4176.410156,4215.897461,450.000000,4.000000,,,,0.000000,4.000000,4.000000,4.000000,4.000000,4.000000,,,,,,,,,,,,,,,,,,,,,,,,,
1577704265.888424,99.000000,0.000000,4309.743652,4387.692383,4219.487305,4179.487305,4216.922852,16196.000000,4.000000,,,,0.000000,4.000000,4.000000,4.000000,4.000000,4.000000,,,,,,,,,,,,,,,,,,,,,,,,,
1577704265.896221,100.000000,0.000000,4309.743652,4388.717773,4225.641113,4182.051270,4219.487305,450.000000,4.000000,,,,0.000000,4.000000,4.000000,4.000000,4.000000,4.000000,,,,,,,,,,,,,,,,,,,,,,,,,
1577704265.904018,101.000000,0.000000,4308.717773,4389.743652,4224.102539,4174.871582,4222.563965,450.000000,4.000000,,,,0.000000,4.000000,4.000000,4.000000,4.000000,4.000000,,,,,,,,,,,,,,,,,,,,,,,,,
1577704265.911715,102.000000,0.000000,4315.897461,4389.743652,4218.974121,4175.897461,4235.897461,450.000000,4.000000,,,,0.000000,4.000000,4.000000,4.000000,4.000000,4.000000,,,,,,,,,,,,,,,,,,,,,,,,,
1577704265.919612,103.000000,0.000000,4314.871582,4388.717773,4215.384766,4180.000000,4234.358887,16196.000000,4.000000,,,,0.000000,4.000000,4.000000,4.000000,4.000000,4.000000,,,,,,,,,,,,,,,,,,,,,,,,,
1577704265.927409,104.000000,0.000000,4304.615234,4383.589844,4210.256348,4172.820313,4219.487305,450.000000,4.000000,,,,0.000000,4.000000,4.000000,4.000000,4.000000,4.000000,,,,,,,,,,,,,,,,,,,,,,,,,
1577704265.935305,105.000000,0.000000,4297.436035,4384.615234,4208.717773,4170.769043,4215.897461,450.000000,4.000000,,,,0.000000,4.000000,4.000000,4.000000,4.000000,4.000000,31.200092,7.524212,1.234444,0.937439,1.602002,2.034173,0.750956,0.446292,0.558541,1.148865,3.779642,4.732976,3.831919,1.992162,13.861440,2.827953,0.930093,0.790216,1.070195,3.648046,6.076736,2.378354,0.605690,0.976820,1.713227
1577704265.943102,106.000000,0.000000,4288.717773,4385.641113,4211.282227,4175.897461,4212.820313,450.000000,4.000000,,,,0.000000,4.000000,4.000000,4.000000,4.000000,4.000000,,,,,,,,,,,,,,,,,,,,,,,,,
1577704265.950999,107.000000,0.000000,4276.410156,4375.384766,4206.153809,4173.333496,4200.000000,16196.000000,4.000000,,,,0.000000,4.000000,4.000000,4.000000,4.000000,4.000000,,,,,,,,,,,,,,,,,,,,,,,,,
1577704265.958795,108.000000,0.000000,4267.692383,4362.051270,4202.051270,4160.000000,4188.205078,450.000000,4.000000,,,,0.000000,4.000000,4.000000,4.000000,4.000000,4.000000,,,,,,,,,,,,,,,,,,,,,,,,,
1577704265.966692,109.000000,0.000000,4266.666504,4367.692383,4209.743652,4150.769043,4187.692383,450.000000,4.000000,,,,0.000000,4.000000,4.000000,4.000000,4.000000,4.000000,,,,,,,,,,,,,,,,,,,,,,,,,
1577704265.974489,110.000000,0.000000,4271.282227,4374.871582,4213.846191,4154.358887,4198.974121,450.000000,4.000000,,,,0.000000,4.000000,4.000000,4.000000,4.000000,4.000000,,,,,,,,,,,,,,,,,,,,,,,,,
1577704265.982186,111.000000,0.000000,4283.589844,4355.897461,4212.820313,4162.051270,4208.717773,16196.000000,4.000000,,,,0.000000,4.000000,4.000000,4.000000,4.000000,4.000000,,,,,,,,,,,,,,,,,,,,,,,,,
1577704265.989982,112.000000,0.000000,4294.871582,4348.717773,4217.948730,4164.615234,4209.230957,450.000000,4.000000,,,,0.000000,4.000000,4.000000,4.000000,4.000000,4.000000,,,,,,,,,,,,,,,,,,,,,,,,,
1577704265.997679,113.000000,0.000000,4305.128418,4370.256348,4223.589844,4171.282227,4217.436035,450.000000,4.000000,,,,0.000000,4.000000,4.000000,4.000000,4.000000,4.000000,,,,,,,,,,,,,,,,,,,,,,,,,
1577704266.005476,114.000000,0.000000,4325.128418,4383.589844,4222.051270,4189.743652,4241.538574,450.000000,4.000000,,,,0.000000,4.000000,4.000000,4.000000,4.000000,4.000000,,,,,,,,,,,,,,,,,,,,,,,,,
1577704266.013172,115.000000,0.000000,4338.974121,4370.256348,4221.025879,4197.436035,4256.922852,16196.000000,4.000000,,,,0.000000,4.000000,4.000000,4.000000,4.000000,4.000000,,,,,,,,,,,,,,,,,,,,,,,,,
1577704266.021069,116.000000,0.000000,4325.128418,4362.563965,4224.615234,4183.077148,4243.077148,450.000000,4.000000,,,,0.000000,4.000000,4.000000,4.000000,4.000000,4.000000,,,,,,,,,,,,,,,,,,,,,,,,,
1577704266.028866,117.000000,0.000000,4315.897461,4375.384766,4233.333496,4181.025879,4235.384766,450.000000,4.000000,,,,0.000000,4.000000,4.000000,4.000000,4.000000,4.000000,,,,,,,,,,,,,,,,,,,,,,,,,
1577704266.036662,118.000000,0.000000,4332.820313,4379.487305,4244.615234,4200.000000,4252.820313,450.000000,4.000000,,,,0.000000,4.000000,4.000000,4.000000,4.000000,4.000000,,,,,,,,,,,,,,,,,,,,,,,,,
1577704266.044359,119.000000,0.000000,4323.077148,4367.179688,4237.948730,4196.410156,4244.102539,16196.000000,4.000000,,,,0.000000,4.000000,4.000000,4.000000,4.000000,4.000000,,,,,,,,,,,,,,,,,,,,,,,,,
1577704266.052156,120.000000,0.000000,4309.743652,4380.000000,4233.333496,4193.846191,4229.743652,450.000000,4.000000,,,,0.000000,4.000000,4.000000,4.000000,4.000000,4.000000,,,,,,,,,,,,,,,,,,,,,,,,,
1577704266.059852,121.000000,0.000000,4329.743652,4397.948730,4245.128418,4212.307617,4245.128418,450.000000,4.000000,,,,0.000000,4.000000,4.000000,4.000000,4.000000,4.000000,42.848793,9.830272,1.215165,0.961637,1.839544,1.955835,0.850943,0.423493,0.516435,1.114891,3.624829,4.775455,3.701988,2.164794,14.918047,2.523907,0.917994,1.041339,0.994721,3.850677,5.402664,2.082241,0.595632,0.980896,1.932557
1577704266.067649,122.000000,0.000000,4317.436035,4367.692383,4230.769043,4192.820313,4230.256348,450.000000,4.000000,,,,0.000000,4.000000,4.000000,4.000000,4.000000,4.000000,,,,,,,,,,,,,,,,,,,,,,,,,
1577704266.075345,123.000000,0.000000,4282.563965,4347.692383,4207.179688,4155.897461,4196.410156,16196.000000,4.000000,,,,0.000000,4.000000,4.000000,4.000000,4.000000,4.000000,,,,,,,,,,,,,,,,,,,,,,,,,
1577704266.083242,124.000000,0.000000,4290.256348,4370.256348,4216.922852,4163.077148,4208.717773,450.000000,4.000000,,,,0.000000,4.000000,4.000000,4.000000,4.000000,4.000000,,,,,,,,,,,,,,,,,,,,,,,,,
1577704266.091039,125.000000,0.000000,4293.846191,4367.692383,4218.461426,4167.179688,4217.948730,450.000000,4.000000,,,,0.000000,4.000000,4.000000,4.000000,4.000000,4.000000,,,,,,,,,,,,,,,,,,,,,,,,,
1577704266.098836,126.000000,0.000000,4271.794922,4341.025879,4201.025879,4151.282227,4195.384766,450.000000,4.000000,,,,0.000000,4.000000,4.000000,4.000000,4.000000,4.000000,,,,,,,,,,,,,,,,,,,,,,,,,
1577704266.106532,127.000000,0.000000,4287.692383,4351.282227,4211.794922,4170.256348,4205.641113,240.000000,4.000000,,,,0.000000,4.000000,4.000000,4.000000,4.000000,4.000000,,,,,,,,,,,,,,,,,,,,,,,,,
1577704266.114429,0.000000,0.000000,4306.666504,4371.794922,4223.077148,4184.102539,4223.589844,450.000000,4.000000,,,,0.000000,4.000000,4.000000,4.000000,4.000000,4.000000,,,,,,,,,,,,,,,,,,,,,,,,,
1577704266.122226,1.000000,0.000000,4295.384766,4366.666504,4208.205078,4169.230957,4216.922852,450.000000,4.000000,,,,0.000000,4.000000,4.000000,4.000000,4.000000,4.000000,,,,,,,,,,,,,,,,,,,,,,,,,
1577704266.130122,2.000000,0.000000,4302.563965,4356.922852,4212.820313,4182.563965,4235.384766,16204.000000,4.000000,,,,0.000000,4.000000,4.000000,4.000000,4.000000,4.000000,,,,,,,,,,,,,,,,,,,,,,,,,
1577704266.137919,3.000000,0.000000,4300.000000,4349.230957,4222.563965,4191.282227,4241.025879,450.000000,4.000000,,,,0.000000,4.000000,4.000000,4.000000,4.000000,4.000000,,,,,,,,,,,,,,,,,,,,,,,,,
1577704266.145816,4.000000,0.000000,4254.358887,4346.666504,4203.077148,4156.922852,4192.820313,16217.000000,4.000000,,,,0.000000,4.000000,4.000000,4.000000,4.000000,4.000000,,,,,,,,,,,,,,,,,,,,,,,,,
1577704266.153612,5.000000,0.000000,4230.256348,4346.153809,4190.769043,4148.717773,4161.025879,450.000000,4.000000,,,,0.000000,4.000000,4.000000,4.000000,4.000000,4.000000,,,,,,,,,,,,,,,,,,,,,,,,,
1577704266.161309,6.000000,0.000000,4243.077148,4341.538574,4204.615234,4180.512695,4172.307617,16137.000000,4.000000,,,,0.000000,4.000000,4.000000,4.000000,4.000000,4.000000,,,,,,,,,,,,,,,,,,,,,,,,,
1577704266.169106,7.000000,0.000000,4232.820313,4336.922852,4217.948730,4188.205078,4175.897461,450.000000,4.000000,,,,0.000000,4.000000,4.000000,4.000000,4.000000,4.000000,,,,,,,,,,,,,,,,,,,,,,,,,
1577704266.176803,8.000000,0.000000,4212.820313,4346.666504,4221.025879,4175.897461,4159.487305,450.000000,4.000000,,,,0.000000,4.000000,4.000000,4.000000,4.000000,4.000000,,,,,,,,,,,,,,,,,,,,,,,,,
1577704266.184599,9.000000,0.000000,4220.512695,4357.948730,4211.794922,4175.897461,4152.820313,16144.000000,4.000000,,,,0.000000,4.000000,4.000000,4.000000,4.000000,4.000000,51.135567,12.276907,1.373013,0.952874,1.917775,2.071330,1.120339,0.497267,0.476969,1.027468,3.412711,4.491386,3.232666,2.116296,13.965014,2.255321,1.031319,1.385876,0.911857,3.619869,4.788458,2.130267,0.641323,0.957138,1.966828
1577704266.192296,10.000000,0.000000,4232.307617,4351.282227,4199.487305,4173.846191,4161.025879,450.000000,4.000000,,,,0.000000,4.000000,4.000000,4.000000,4.000000,4.000000,,,,,,,,,,,,,,,,,,,,,,,,,
1577704266.200093,11.000000,0.000000,4231.794922,4346.666504,4202.563965,4167.692383,4166.153809,16203.000000,4.000000,,,,0.000000,4.000000,4.000000,4.000000,4.000000,4.000000,,,,,,,,,,,,,,,,,,,,,,,,,
1577704266.207789,12.000000,0.000000,4226.666504,4354.871582,4196.922852,4166.666504,4156.922852,450.000000,4.000000,,,,0.000000,4.000000,4.000000,4.000000,4.000000,4.000000,,,,,,,,,,,,,,,,,,,,,,,,,
1577704266.215586,13.000000,0.000000,4223.589844,4359.487305,4182.563965,4165.641113,4153.846191,450.000000,4.000000,,,,0.000000,4.000000,4.000000,4.000000,4.000000,4.000000,,,,,,,,,,,,,,,,,,,,,,,,,
1577704266.223283,14.000000,0.000000,4223.589844,4355.384766,4186.666504,4167.179688,4160.000000,450.000000,4.000000,,,,0.000000,4.000000,4.000000,4.000000,4.000000,4.000000,,,,,,,,,,,,,,,,,,,,,,,,,
1577704266.231079,15.000000,0.000000,4219.487305,4355.384766,4189.230957,4168.717773,4155.384766,16203.000000,4.000000,,,,0.000000,4.000000,4.000000,4.000000,4.000000,4.000000,,,,,,,,,,,,,,,,,,,,,,,,,
1577704266.238776,16.000000,0.000000,4204.102539,4349.230957,4176.410156,4156.922852,4141.538574,0.000000,4.000000,,,,0.000000,4.000000,4.000000,4.000000,4.000000,4.000000,,,,,,,,,,,,,,,,,,,,,,,,,
1577704266.246572,17.000000,0.000000,4193.846191,4331.794922,4173.846191,4145.641113,4134.871582,0.000000,4.000000,,,,0.000000,4.000000,4.000000,4.000000,4.000000,4.000000,,,,,,,,,,,,,,,,,,,,,,,,,
1577704266.254269,18.000000,0.000000,4203.077148,4336.922852,4188.205078,4152.820313,4143.589844,0.000000,4.000000,,,,0.000000,4.000000,4.000000,4.000000,4.000000,4.000000,,,,,,,,,,,,,,,,,,,,,,,,,
1577704266.262065,19.000000,0.000000,4205.128418,4343.077148,4190.256348,4157.948730,4144.102539,0.000000,4.000000,,,,0.000000,4.000000,4.000000,4.000000,4.000000,4.000000,,,,,,,,,,,,,,,,,,,,,,,,,
1577704266.269762,20.000000,0.000000,4190.769043,4331.282227,4182.051270,4149.230957,4128.717773,0.000000,4.000000,,,,0.000000,4.000000,4.000000,4.000000,4.000000,4.000000,,,,,,,,,,,,,,,,,,,,,,,,,
1577704266.277659,21.000000,0.000000,4188.205078,4337.948730,4192.820313,4151.282227,4126.666504,0.000000,4.000000,,,,0.000000,4.000000,4.000000,4.000000,4.000000,4.000000,,,,,,,,,,,,,,,,,,,,,,,,,
1577704266.285456,22.000000,0.000000,4190.769043,4351.282227,4197.948730,4152.820313,4133.333496,0.000000,4.000000,,,,0.000000,4.000000,4.000000,4.000000,4.000000,4.000000,,,,,,,,,,,,,,,,,,,,,,,,,
1577704266.293352,23.000000,0.000000,4185.128418,4340.512695,4186.666504,4145.128418,4129.743652,0.000000,4.000000,,,,0.000000,4.000000,4.000000,4.000000,4.000000,4.000000,,,,,,,,,,,,,,,,,,,,,,,,,
1577704266.301149,24.000000,0.000000,4191.282227,4341.025879,4196.410156,4151.794922,4136.922852,0.000000,4.000000,,,,0.000000,4.000000,4.000000,4.000000,4.000000,4.000000,,,,,,,,,,,,,,,,,,,,,,,,,
1577704266.309046,25.000000,0.000000,4202.051270,4353.333496,4206.153809,4156.410156,4151.794922,0.000000,4.000000,,,,0.000000,4.000000,4.000000,4.000000,4.000000,4.000000,53.961132,13.951839,1.596840,0.891157,1.810603,2.194122,1.446624,0.622128,0.446562,0.895677,3.297261,3.974038,2.611002,1.853218,11.326630,2.043707,1.238250,1.711115,0.830541,3.014045,3.860978,2.425817,0.702267,0.907064,1.814077
1577704266.316842,26.000000,0.000000,4185.641113,4331.794922,4177.436035,4136.922852,4138.461426,0.000000,4.000000,,,,0.000000,4.000000,4.000000,4.000000,4.000000,4.000000,,,,,,,,,,,,,,,,,,,,,,,,,
1577704266.324739,27.000000,0.000000,4166.153809,4308.205078,4152.820313,4127.692383,4122.563965,0.000000,4.000000,,,,0.000000,4.000000,4.000000,4.000000,4.000000,4.000000,,,,,,,,,,,,,,,,,,,,,,,,,
1577704266.332536,28.000000,0.000000,4170.256348,4326.153809,4168.205078,4143.589844,4133.846191,0.000000,4.000000,,,,0.000000,4.000000,4.000000,4.000000,4.000000,4.000000,,,,,,,,,,,,,,,,,,,,,,,,,
1577704266.340432,29.000000,0.000000,4170.769043,4336.922852,4175.384766,4143.589844,4132.307617,0.000000,4.000000,,,,0.000000,4.000000,4.000000,4.000000,4.000000,4.000000,,,,,,,,,,,,,,,,,,,,,,,,,
1577704266.348229,30.000000,0.000000,4159.487305,4313.846191,4162.563965,4134.358887,4114.358887,0.000000,4.000000,,,,0.000000,4.000000,4.000000,4.000000,4.000000,4.000000,,,,,,,,,,,,,,,,,,,,,,,,,
1577704266.355926,31.000000,0.000000,4153.846191,4303.077148,4163.589844,4144.615234,4110.769043,0.000000,4.000000,,,,0.000000,4.000000,4.000000,4.000000,4.000000,4.000000,,,,,,,,,,,,,,,,,,,,,,,,,
1577704266.363723,32.000000,0.000000,4154.358887,4327.179688,4181.025879,4156.922852,4120.512695,0.000000,4.000000,,,,0.000000,4.000000,4.000000,4.000000,4.000000,4.000000,,,,,,,,,,,,,,,,,,,,,,,,,
1577704266.371419,33.000000,0.000000,4150.256348,4343.077148,4189.743652,4154.871582,4118.974121,0.000000,4.000000,,,,0.000000,4.000000,4.000000,4.000000,4.000000,4.000000,,,,,,,,,,,,,,,,,,,,,,,,,
1577704266.379316,34.000000,0.000000,4151.282227,4330.769043,4186.153809,4146.666504,4115.384766,0.000000,4.000000,,,,0.000000,4.000000,4.000000,4.000000,4.000000,4.000000,,,,,,,,,,,,,,,,,,,,,,,,,
1577704266.387113,35.000000,0.000000,4181.025879,4326.153809,4193.333496,4152.307617,4139.487305,0.000000,4.000000,,,,0.000000,4.000000,4.000000,4.000000,4.000000,4.000000,,,,,,,,,,,,,,,,,,,,,,,,,
1577704266.394910,36.000000,0.000000,4198.461426,4329.743652,4194.871582,4147.179688,4153.846191,0.000000,4.000000,,,,0.000000,4.000000,4.000000,4.000000,4.000000,4.000000,,,,,,,,,,,,,,,,,,,,,,,,,
1577704266.402606,37.000000,0.000000,4166.666504,4309.743652,4163.589844,4114.871582,4123.589844,0.000000,4.000000,,,,0.000000,4.000000,4.000000,4.000000,4.000000,4.000000,,,,,,,,,,,,,,,,,,,,,,,,,
1577704266.410503,38.000000,0.000000,4149.743652,4297.948730,4149.230957,4111.794922,4108.717773,0.000000,4.000000,,,,0.000000,4.000000,4.000000,4.000000,4.000000,4.000000,,,,,,,,,,,,,,,,,,,,,,,,,
1577704266.418300,39.000000,0.000000,4171.282227,4313.333496,4169.743652,4145.128418,4127.179688,0.000000,4.000000,,,,0.000000,4.000000,4.000000,4.000000,4.000000,4.000000,,,,,,,,,,,,,,,,,,,,,,,,,
1577704266.426096,40.000000,0.000000,4166.153809,4311.794922,4161.025879,4148.205078,4117.436035,0.000000,4.000000,,,,0.000000,4.000000,4.000000,4.000000,4.000000,4.000000,,,,,,,,,,,,,,,,,,,,,,,,,
1577704266.433793,41.000000,0.000000,4143.077148,4294.871582,4140.000000,4130.256348,4095.897461,0.000000,4.000000,,,,0.000000,4.000000,4.000000,4.000000,4.000000,4.000000,49.729412,14.386651,1.780433,0.783583,1.563089,2.197834,1.721418,0.748238,0.429288,0.756669,3.302164,3.408637,2.067532,1.453574,7.874124,1.966453,1.505644,1.928214,0.769824,2.230680,3.390949,3.008357,0.759695,0.841729,1.546452
1577704266.441690,42.000000,0.000000,4145.641113,4295.384766,4149.230957,4135.897461,4099.487305,0.000000,4.000000,,,,0.000000,4.000000,4.000000,4.000000,4.000000,4.000000,,,,,,,,,,,,,,,,,,,,,,,,,
1577704266.449487,43.000000,0.000000,4158.974121,4310.256348,4155.384766,4140.512695,4104.615234,0.000000,4.000000,,,,0.000000,4.000000,4.000000,4.000000,4.000000,4.000000,,,,,,,,,,,,,,,,,,,,,,,,,
1577704266.457383,44.000000,0.000000,4163.589844,4324.102539,4156.922852,4130.769043,4106.153809,0.000000,4.000000,,,,0.000000,4.000000,4.000000,4.000000,4.000000,4.000000,,,,,,,,,,,,,,,,,,,,,,,,,
1577704266.465180,45.000000,0.000000,4152.307617,4322.051270,4170.256348,4129.743652,4112.307617,0.000000,4.000000,,,,0.000000,4.000000,4.000000,4.000000,4.000000,4.000000,,,,,,,,,,,,,,,,,,,,,,,,,
1577704266.473077,46.000000,0.000000,4132.307617,4306.666504,4174.871582,4132.820313,4105.641113,0.000000,4.000000,,,,0.000000,4.000000,4.000000,4.000000,4.000000,4.000000,,,,,,,,,,,,,,,,,,,,,,,,,
1577704266.480873,47.000000,0.000000,4135.897461,4306.153809,4167.179688,4127.179688,4095.897461,0.000000,4.000000,,,,0.000000,4.000000,4.000000,4.000000,4.000000,4.000000,,,,,,,,,,,,,,,,,,,,,,,,,
1577704266.488670,48.000000,0.000000,4157.948730,4324.102539,4168.205078,4127.179688,4111.282227,0.000000,4.000000,,,,0.000000,4.000000,4.000000,4.000000,4.000000,4.000000,,,,,,,,,,,,,,,,,,,,,,,,,
1577704266.496367,49.000000,0.000000,4161.025879,4325.641113,4166.153809,4126.666504,4121.538574,0.000000,4.000000,,,,0.000000,4.000000,4.000000,4.000000,4.000000,4.000000,,,,,,,,,,,,,,,,,,,,,,,,,
1577704266.504263,50.000000,0.000000,4150.256348,4309.743652,4148.717773,4113.846191,4105.641113,0.000000,4.000000,,,,0.000000,4.000000,4.000000,4.000000,4.000000,4.000000,,,,,,,,,,,,,,,,,,,,,,,,,
1577704266.512060,51.000000,0.000000,4155.384766,4307.179688,4141.538574,4117.436035,4105.641113,0.000000,4.000000,,,,0.000000,4.000000,4.000000,4.000000,4.000000,4.000000,,,,,,,,,,,,,,,,,,,,,,,,,
1577704266.519957,52.000000,0.000000,4166.666504,4320.000000,4150.769043,4139.487305,4127.692383,0.000000,4.000000,,,,0.000000,4.000000,4.000000,4.000000,4.000000,4.000000,,,,,,,,,,,,,,,,,,,,,,,,,
1577704266.527754,53.000000,0.000000,4170.769043,4328.205078,4159.487305,4143.077148,4130.769043,0.000000,4.000000,,,,0.000000,4.000000,4.000000,4.000000,4.000000,4.000000,,,,,,,,,,,,,,,,,,,,,,,,,
1577704266.535550,54.000000,0.000000,4169.743652,4321.025879,4173.846191,4132.820313,4120.512695,0.000000,4.000000,,,,0.000000,4.000000,4.000000,4.000000,4.000000,4.000000,,,,,,,,,,,,,,,,,,,,,,,,,
1577704266.543247,55.000000,0.000000,4168.205078,4320.512695,4182.563965,4134.871582,4126.153809,0.000000,4.000000,,,,0.000000,4.000000,4.000000,4.000000,4.000000,4.000000,,,,,,,,,,,,,,,,,,,,,,,,,
1577704266.551144,56.000000,0.000000,4175.897461,4331.794922,4178.974121,4145.641113,4142.051270,0.000000,4.000000,,,,0.000000,4.000000,4.000000,4.000000,4.000000,4.000000,,,,,,,,,,,,,,,,,,,,,,,,,
1577704266.558940,57.000000,0.000000,4170.769043,4326.153809,4173.846191,4143.589844,4140.512695,0.000000,4.000000,,,,0.000000,4.000000,4.000000,4.000000,4.000000,4.000000,40.530415,13.737275,1.879110,0.659721,1.265630,2.045040,1.884330,0.840407,0.425828,0.653411,3.413785,2.989844,1.748929,1.033154,4.618964,2.066884,1.796326,1.979516,0.752894,1.508674,3.229723,3.929784,0.814461,0.777332,1.269632
1577704266.566637,58.000000,0.000000,4138.974121,4303.077148,4165.641113,4125.128418,4113.333496,0.000000,4.000000,,,,0.000000,4.000000,4.000000,4.000000,4.000000,4.000000,,,,,,,,,,,,,,,,,,,,,,,,,
1577704266.574534,59.000000,0.000000,4129.230957,4301.538574,4165.641113,4121.538574,4101.538574,0.000000,4.000000,,,,0.000000,4.000000,4.000000,4.000000,4.000000,4.000000,,,,,,,,,,,,,,,,,,,,,,,,,
1577704266.582331,60.000000,0.000000,4142.563965,4301.025879,4164.102539,4127.179688,4108.717773,0.000000,4.000000,,,,0.000000,4.000000,4.000000,4.000000,4.000000,4.000000,,,,,,,,,,,,,,,,,,,,,,,,,
1577704266.590128,61.000000,0.000000,4137.948730,4289.743652,4151.794922,4118.974121,4104.102539,0.000000,4.000000,,,,0.000000,4.000000,4.000000,4.000000,4.000000,4.000000,,,,,,,,,,,,,,,,,,,,,,,,,
1577704266.597824,62.000000,0.000000,4131.282227,4300.000000,4153.846191,4119.487305,4096.922852,0.000000,4.000000,,,,0.000000,4.000000,4.000000,4.000000,4.000000,4.000000,,,,,,,,,,,,,,,,,,,,,,,,,
1577704266.605621,63.000000,0.000000,4144.102539,4308.205078,4163.077148,4133.333496,4106.153809,0.000000,4.000000,,,,0.000000,4.000000,4.000000,4.000000,4.000000,4.000000,,,,,,,,,,,,,,,,,,,,,,,,,
1577704266.613317,64.000000,0.000000,4146.666504,4300.000000,4159.487305,4135.384766,4113.333496,450.000000,4.000000,,,,0.000000,4.000000,4.000000,4.000000,4.000000,4.000000,,,,,,,,,,,,,,,,,,,,,,,,,
1577704266.621114,65.000000,0.000000,4131.282227,4302.051270,4150.256348,4124.615234,4101.538574,450.000000,4.000000,,,,0.000000,4.000000,4.000000,4.000000,4.000000,4.000000,,,,,,,,,,,,,,,,,,,,,,,,,
1577704266.628810,66.000000,0.000000,4129.230957,4309.743652,4152.820313,4124.102539,4096.410156,16211.000000,4.000000,,,,0.000000,4.000000,4.000000,4.000000,4.000000,4.000000,,,,,,,,,,,,,,,,,,,,,,,,,
1577704266.636607,67.000000,0.000000,4138.974121,4305.128418,4160.000000,4125.641113,4101.538574,450.000000,4.000000,,,,0.000000,4.000000,4.000000,4.000000,4.000000,4.000000,,,,,,,,,,,,,,,,,,,,,,,,,
1577704266.644304,68.000000,0.000000,4131.794922,4298.461426,4155.384766,4113.846191,4094.871826,16221.000000,4.000000,,,,0.000000,4.000000,4.000000,4.000000,4.000000,4.000000,,,,,,,,,,,,,,,,,,,,,,,,,
1577704266.652100,69.000000,0.000000,4135.897461,4312.820313,4158.974121,4117.436035,4097.948730,450.000000,4.000000,,,,0.000000,4.000000,4.000000,4.000000,4.000000,4.000000,,,,,,,,,,,,,,,,,,,,,,,,,
1577704266.659797,70.000000,0.000000,4158.461426,4319.487305,4166.666504,4133.333496,4115.897461,16137.000000,4.000000,,,,0.000000,4.000000,4.000000,4.000000,4.000000,4.000000,,,,,,,,,,,,,,,,,,,,,,,,,
1577704266.667593,71.000000,0.000000,4147.179688,4289.743652,4147.692383,4126.153809,4101.025879,450.000000,4.000000,,,,0.000000,4.000000,4.000000,4.000000,4.000000,4.000000,,,,,,,,,,,,,,,,,,,,,,,,,
1577704266.675290,72.000000,0.000000,4114.871582,4275.384766,4134.358887,4119.487305,4068.205078,450.000000,4.000000,,,,0.000000,4.000000,4.000000,4.000000,4.000000,4.000000,,,,,,,,,,,,,,,,,,,,,,,,,
1577704266.683086,73.000000,0.000000,4116.410156,4295.897461,4150.256348,4136.410156,4069.743652,16150.000000,4.000000,,,,0.000000,4.000000,4.000000,4.000000,4.000000,4.000000,28.893625,12.510159,1.924730,0.554654,1.013281,1.852212,1.938378,0.890248,0.431548,0.618319,3.511335,2.845840,1.673890,0.697838,2.277735,2.338509,2.058744,1.866611,0.786924,1.016460,3.574519,5.109601,0.888511,0.726268,1.071873
1577704266.690783,74.000000,0.000000,4128.717773,4298.461426,4162.051270,4149.743652,4089.230713,450.000000,4.000000,,,,0.000000,4.000000,4.000000,4.000000,4.000000,4.000000,,,,,,,,,,,,,,,,,,,,,,,,,
1577704266.698680,75.000000,0.000000,4117.436035,4284.102539,4160.000000,4143.589844,4084.615479,16208.000000,4.000000,,,,0.000000,4.000000,4.000000,4.000000,4.000000,4.000000,,,,,,,,,,,,,,,,,,,,,,,,,
1577704266.706476,76.000000,0.000000,4113.333496,4287.179688,4163.589844,4138.974121,4073.846191,450.000000,4.000000,,,,0.000000,4.000000,4.000000,4.000000,4.000000,4.000000,,,,,,,,,,,,,,,,,,,,,,,,,
1577704266.714373,77.000000,0.000000,4133.333496,4294.358887,4166.666504,4144.615234,4084.615479,450.000000,4.000000,,,,0.000000,4.000000,4.000000,4.000000,4.000000,4.000000,,,,,,,,,,,,,,,,,,,,,,,,,
1577704266.722170,78.000000,0.000000,4157.436035,4301.025879,4162.563965,4154.871582,4106.153809,450.000000,4.000000,,,,0.000000,4.000000,4.000000,4.000000,4.000000,4.000000,,,,,,,,,,,,,,,,,,,,,,,,,
1577704266.730067,79.000000,0.000000,4169.230957,4312.307617,4161.025879,4158.461426,4122.563965,16208.000000,4.000000,,,,0.000000,4.000000,4.000000,4.000000,4.000000,4.000000,,,,,,,,,,,,,,,,,,,,,,,,,
1577704266.737863,80.000000,0.000000,4156.410156,4306.666504,4153.846191,4146.666504,4115.384766,450.000000,4.000000,,,,0.000000,4.000000,4.000000,4.000000,4.000000,4.000000,,,,,,,,,,,,,,,,,,,,,,,,,
1577704266.745760,81.000000,0.000000,4135.384766,4294.871582,4140.512695,4132.307617,4090.256348,450.000000,4.000000,,,,0.000000,4.000000,4.000000,4.000000,4.000000,4.000000,,,,,,,,,,,,,,,,,,,,,,,,,
1577704266.753557,82.000000,0.000000,4128.205078,4290.256348,4131.794922,4125.641113,4076.410156,450.000000,4.000000,,,,0.000000,4.000000,4.000000,4.000000,4.000000,4.000000,,,,,,,,,,,,,,,,,,,,,,,,,
1577704266.761354,83.000000,0.000000,4142.563965,4292.820313,4127.692383,4128.205078,4093.333252,16208.000000,4.000000,,,,0.000000,4.000000,4.000000,4.000000,4.000000,4.000000,,,,,,,,,,,,,,,,,,,,,,,,,
1577704266.769150,84.000000,0.000000,4166.153809,4304.102539,4123.589844,4139.487305,4119.487305,450.000000,4.000000,,,,0.000000,4.000000,4.000000,4.000000,4.000000,4.000000,,,,,,,,,,,,,,,,,,,,,,,,,
1577704266.776847,85.000000,0.000000,4170.256348,4301.538574,4120.000000,4141.025879,4121.025879,450.000000,4.000000,,,,0.000000,4.000000,4.000000,4.000000,4.000000,4.000000,,,,,,,,,,,,,,,,,,,,,,,,,
1577704266.784643,86.000000,0.000000,4144.102539,4283.077148,4118.974121,4124.102539,4100.000000,450.000000,4.000000,,,,0.000000,4.000000,4.000000,4.000000,4.000000,4.000000,,,,,,,,,,,,,,,,,,,,,,,,,
1577704266.792340,87.000000,0.000000,4129.743652,4280.512695,4124.615234,4116.410156,4089.743652,16208.000000,4.000000,,,,0.000000,4.000000,4.000000,4.000000,4.000000,4.000000,,,,,,,,,,,,,,,,,,,,,,,,,
1577704266.800137,88.000000,0.000000,4142.563965,4289.743652,4143.589844,4133.333496,4103.589844,450.000000,4.000000,,,,0.000000,4.000000,4.000000,4.000000,4.000000,4.000000,,,,,,,,,,,,,,,,,,,,,,,,,
1577704266.807833,89.000000,0.000000,4144.615234,4292.307617,4165.128418,4152.820313,4112.820313,450.000000,4.000000,,,,0.000000,4.000000,4.000000,4.000000,4.000000,4.000000,18.462307,11.220440,1.954767,0.495191,0.868980,1.712370,1.944151,0.918624,0.438956,0.658723,3.494909,3.012856,1.750758,0.502169,1.035299,2.641921,2.239885,1.654667,0.860518,0.791205,4.146904,6.308509,1.003196,0.692884,0.988845
1577704266.815630,90.000000,0.000000,4140.512695,4298.974121,4174.871582,4163.589844,4109.743652,450.000000,4.000000,,,,0.000000,4.000000,4.000000,4.000000,4.000000,4.000000,,,,,,,,,,,,,,,,,,,,,,,,,
1577704266.823326,91.000000,0.000000,4147.179688,4296.922852,4165.128418,4158.461426,4109.743652,16208.000000,4.000000,,,,0.000000,4.000000,4.000000,4.000000,4.000000,4.000000,,,,,,,,,,,,,,,,,,,,,,,,,
1577704266.831223,92.000000,0.000000,4154.871582,4289.743652,4158.974121,4148.717773,4114.871582,450.000000,4.000000,,,,0.000000,4.000000,4.000000,4.000000,4.000000,4.000000,,,,,,,,,,,,,,,,,,,,,,,,,
1577704266.839020,93.000000,0.000000,4161.025879,4297.948730,4160.512695,4151.282227,4113.846191,450.000000,4.000000,,,,0.000000,4.000000,4.000000,4.000000,4.000000,4.000000,,,,,,,,,,,,,,,,,,,,,,,,,
1577704266.846916,94.000000,0.000000,4164.615234,4300.000000,4146.153809,4152.820313,4111.282227,450.000000,4.000000,,,,0.000000,4.000000,4.000000,4.000000,4.000000,4.000000,,,,,,,,,,,,,,,,,,,,,,,,,
1577704266.854713,95.000000,0.000000,4169.743652,4287.692383,4139.487305,4156.922852,4122.051270,16208.000000,4.000000,,,,0.000000,4.000000,4.000000,4.000000,4.000000,4.000000,,,,,,,,,,,,,,,,,,,,,,,,,
1577704266.862610,96.000000,0.000000,4171.794922,4284.615234,4145.128418,4170.769043,4129.743652,450.000000,4.000000,,,,0.000000,4.000000,4.000000,4.000000,4.000000,4.000000,,,,,,,,,,,,,,,,,,,,,,,,,
1577704266.870407,97.000000,0.000000,4159.487305,4284.102539,4127.692383,4171.282227,4118.974121,450.000000,4.000000,,,,0.000000,4.000000,4.000000,4.000000,4.000000,4.000000,,,,,,,,,,,,,,,,,,,,,,,,,
1577704266.878303,98.000000,0.000000,4149.230957,4276.410156,4110.256348,4162.563965,4111.794922,450.000000,4.000000,,,,0.000000,4.000000,4.000000,4.000000,4.000000,4.000000,,,,,,,,,,,,,,,,,,,,,,,,,
1577704266.886100,99.000000,0.000000,4147.179688,4276.410156,4114.358887,4163.589844,4112.820313,16208.000000,4.000000,,,,0.000000,4.000000,4.000000,4.000000,4.000000,4.000000,,,,,,,,,,,,,,,,,,,,,,,,,
1577704266.893997,100.000000,0.000000,4132.307617,4278.461426,4114.358887,4158.461426,4095.897461,450.000000,4.000000,,,,0.000000,4.000000,4.000000,4.000000,4.000000,4.000000,,,,,,,,,,,,,,,,,,,,,,,,,
1577704266.901794,101.000000,0.000000,4117.948730,4274.358887,4117.948730,4143.077148,4072.307617,450.000000,4.000000,,,,0.000000,4.000000,4.000000,4.000000,4.000000,4.000000,,,,,,,,,,,,,,,,,,,,,,,,,
1577704266.909690,102.000000,0.000000,4129.743652,4272.820313,4144.102539,4145.641113,4078.974365,450.000000,4.000000,,,,0.000000,4.000000,4.000000,4.000000,4.000000,4.000000,,,,,,,,,,,,,,,,,,,,,,,,,
1577704266.917487,103.000000,0.000000,4147.692383,4284.102539,4165.641113,4160.000000,4102.051270,16208.000000,4.000000,,,,0.000000,4.000000,4.000000,4.000000,4.000000,4.000000,,,,,,,,,,,,,,,,,,,,,,,,,
1577704266.925384,104.000000,0.000000,4153.333496,4300.000000,4173.333496,4163.589844,4108.717773,450.000000,4.000000,,,,0.000000,4.000000,4.000000,4.000000,4.000000,4.000000,,,,,,,,,,,,,,,,,,,,,,,,,
1577704266.933180,105.000000,0.000000,4152.307617,4290.256348,4176.410156,4159.487305,4101.538574,450.000000,4.000000,,,,0.000000,4.000000,4.000000,4.000000,4.000000,4.000000,11.129801,10.158100,1.980841,0.491578,0.843438,1.671896,1.966991,0.948655,0.444369,0.756872,3.280976,3.414892,1.858804,0.436854,0.615019,2.861290,2.287107,1.429528,0.942982,0.755600,4.575903,7.205081,1.163136,0.675199,1.000945
1577704266.941077,106.000000,0.000000,4146.153809,4273.846191,4162.051270,4153.333496,4100.000000,450.000000,4.000000,,,,0.000000,4.000000,4.000000,4.000000,4.000000,4.000000,,,,,,,,,,,,,,,,,,,,,,,,,
1577704266.948874,107.000000,0.000000,4157.948730,4291.282227,4149.743652,4165.641113,4121.025879,16208.000000,4.000000,,,,0.000000,4.000000,4.000000,4.000000,4.000000,4.000000,,,,,,,,,,,,,,,,,,,,,,,,,
1577704266.956571,108.000000,0.000000,4177.948730,4309.743652,4160.000000,4175.384766,4137.436035,450.000000,4.000000,,,,0.000000,4.000000,4.000000,4.000000,4.000000,4.000000,,,,,,,,,,,,,,,,,,,,,,,,,
1577704266.964367,109.000000,0.000000,4163.589844,4291.794922,4153.846191,4129.743652,4118.461426,450.000000,4.000000,,,,0.000000,4.000000,4.000000,4.000000,4.000000,4.000000,,,,,,,,,,,,,,,,,,,,,,,,,
1577704266.972064,110.000000,0.000000,4148.717773,4280.512695,4137.948730,4108.205078,4105.128418,450.000000,4.000000,,,,0.000000,4.000000,4.000000,4.000000,4.000000,4.000000,,,,,,,,,,,,,,,,,,,,,,,,,
1577704266.979961,111.000000,0.000000,4163.589844,4295.384766,4144.615234,4151.282227,4115.384766,16208.000000,4.000000,,,,0.000000,4.000000,4.000000,4.000000,4.000000,4.000000,,,,,,,,,,,,,,,,,,,,,,,,,
1577704266.987757,112.000000,0.000000,4159.487305,4292.307617,4147.179688,4149.743652,4107.692383,450.000000,4.000000,,,,0.000000,4.000000,4.000000,4.000000,4.000000,4.000000,,,,,,,,,,,,,,,,,,,,,,,,,
1577704266.995554,113.000000,0.000000,4137.436035,4280.000000,4142.051270,4112.307617,4092.307617,450.000000,4.000000,,,,0.000000,4.000000,4.000000,4.000000,4.000000,4.000000,,,,,,,,,,,,,,,,,,,,,,,,,
1577704267.003251,114.000000,0.000000,4142.051270,4279.487305,4150.769043,4128.205078,4100.000000,450.000000,4.000000,,,,0.000000,4.000000,4.000000,4.000000,4.000000,4.000000,,,,,,,,,,,,,,,,,,,,,,,,,
1577704267.011148,115.000000,0.000000,4158.461426,4282.051270,4169.230957,4168.717773,4119.487305,16208.000000,4.000000,,,,0.000000,4.000000,4.000000,4.000000,4.000000,4.000000,,,,,,,,,,,,,,,,,,,,,,,,,
1577704267.018944,116.000000,0.000000,4155.897461,4287.692383,4176.410156,4164.102539,4122.563965,450.000000,4.000000,,,,0.000000,4.000000,4.000000,4.000000,4.000000,4.000000,,,,,,,,,,,,,,,,,,,,,,,,,
1577704267.026841,117.000000,0.000000,4142.563965,4288.717773,4169.230957,4114.871582,4104.102539,450.000000,4.000000,,,,0.000000,4.000000,4.000000,4.000000,4.000000,4.000000,,,,,,,,,,,,,,,,,,,,,,,,,
1577704267.034638,118.000000,0.000000,4144.615234,4285.128418,4172.820313,4114.871582,4099.487305,450.000000,4.000000,,,,0.000000,4.000000,4.000000,4.000000,4.000000,4.000000,,,,,,,,,,,,,,,,,,,,,,,,,
1577704267.042435,119.000000,0.000000,4151.282227,4278.974121,4183.077148,4155.897461,4110.256348,16208.000000,4.000000,,,,0.000000,4.000000,4.000000,4.000000,4.000000,4.000000,,,,,,,,,,,,,,,,,,,,,,,,,
1577704267.050131,120.000000,0.000000,4152.307617,4279.487305,4175.897461,4144.615234,4108.717773,450.000000,4.000000,,,,0.000000,4.000000,4.000000,4.000000,4.000000,4.000000,,,,,,,,,,,,,,,,,,,,,,,,,
1577704267.057928,121.000000,0.000000,4172.820313,4304.615234,4176.410156,4141.025879,4123.589844,450.000000,4.000000,,,,0.000000,4.000000,4.000000,4.000000,4.000000,4.000000,7.185776,9.271408,2.009086,0.553232,0.905654,1.720582,2.044897,0.987550,0.445752,0.877521,2.915058,3.960476,1.901034,0.457755,0.588030,2.907063,2.195478,1.284500,1.006733,0.796859,4.843341,7.492651,1.362200,0.683076,1.062118
1577704267.065624,122.000000,0.000000,4182.563965,4306.153809,4179.487305,4180.512695,4138.461426,450.000000,4.000000,,,,0.000000,4.000000,4.000000,4.000000,4.000000,4.000000,,,,,,,,,,,,,,,,,,,,,,,,,
1577704267.073521,123.000000,0.000000,4150.256348,4272.820313,4158.461426,4154.358887,4111.794922,16208.000000,4.000000,,,,0.000000,4.000000,4.000000,4.000000,4.000000,4.000000,,,,,,,,,,,,,,,,,,,,,,,,,
1577704267.081318,124.000000,0.000000,4124.102539,4268.205078,4142.051270,4096.922852,4085.641113,450.000000,4.000000,,,,0.000000,4.000000,4.000000,4.000000,4.000000,4.000000,,,,,,,,,,,,,,,,,,,,,,,,,
1577704267.089214,125.000000,0.000000,4127.692383,4284.102539,4144.102539,4105.641113,4089.230713,450.000000,4.000000,,,,0.000000,4.000000,4.000000,4.000000,4.000000,4.000000,,,,,,,,,,,,,,,,,,,,,,,,,
1577704267.097011,126.000000,0.000000,4132.307617,4278.461426,4144.615234,4117.436035,4092.307617,450.000000,4.000000,,,,0.000000,4.000000,4.000000,4.000000,4.000000,4.000000,,,,,,,,,,,,,,,,,,,,,,,,,
1577704267.104808,127.000000,0.000000,4140.000000,4284.615234,4149.743652,4113.846191,4096.922852,240.000000,4.000000,,,,0.000000,4.000000,4.000000,4.000000,4.000000,4.000000,,,,,,,,,,,,,,,,,,,,,,,,,
1577704267.112505,0.000000,0.000000,4148.717773,4304.615234,4161.538574,4132.307617,4110.769043,450.000000,4.000000,,,,0.000000,4.000000,4.000000,4.000000,4.000000,4.000000,,,,,,,,,,,,,,,,,,,,,,,,,
1577704267.120401,1.000000,0.000000,4139.487305,4291.282227,4161.025879,4128.717773,4111.794922,450.000000,4.000000,,,,0.000000,4.000000,4.000000,4.000000,4.000000,4.000000,,,,,,,,,,,,,,,,,,,,,,,,,
1577704267.128198,2.000000,0.000000,4142.563965,4275.897461,4172.307617,4116.922852,4117.948730,16210.000000,4.000000,,,,0.000000,4.000000,4.000000,4.000000,4.000000,4.000000,,,,,,,,,,,,,,,,,,,,,,,,,
1577704267.136095,3.000000,0.000000,4178.974121,4298.461426,4205.128418,4135.897461,4148.717773,450.000000,4.000000,,,,0.000000,4.000000,4.000000,4.000000,4.000000,4.000000,,,,,,,,,,,,,,,,,,,,,,,,,
1577704267.143891,4.000000,0.000000,4198.974121,4317.436035,4203.077148,4153.333496,4160.000000,16224.000000,4.000000,,,,0.000000,4.000000,4.000000,4.000000,4.000000,4.000000,,,,,,,,,,,,,,,,,,,,,,,,,
1577704267.151588,5.000000,0.000000,4183.077148,4303.589844,4171.794922,4139.487305,4143.077148,450.000000,4.000000,,,,0.000000,4.000000,4.000000,4.000000,4.000000,4.000000,,,,,,,,,,,,,,,,,,,,,,,,,
1577704267.159385,6.000000,0.000000,4171.282227,4291.794922,4167.692383,4135.897461,4134.358887,16145.000000,4.000000,,,,0.000000,4.000000,4.000000,4.000000,4.000000,4.000000,,,,,,,,,,,,,,,,,,,,,,,,,
1577704267.167082,7.000000,0.000000,4163.077148,4291.794922,4169.743652,4133.333496,4130.769043,450.000000,4.000000,,,,0.000000,4.000000,4.000000,4.000000,4.000000,4.000000,,,,,,,,,,,,,,,,,,,,,,,,,
1577704267.174879,8.000000,0.000000,4144.102539,4284.615234,4151.282227,4101.025879,4113.333496,450.000000,4.000000,,,,0.000000,4.000000,4.000000,4.000000,4.000000,4.000000,,,,,,,,,,,,,,,,,,,,,,,,,
1577704267.182575,9.000000,0.000000,4133.846191,4281.025879,4143.589844,4093.846191,4097.948730,16159.000000,4.000000,,,,0.000000,4.000000,4.000000,4.000000,4.000000,4.000000,5.955969,8.359334,2.030643,0.680265,1.003238,1.761253,2.182645,1.017832,0.443801,0.980619,2.629821,4.722436,1.862828,0.518093,0.642067,2.825494,2.029940,1.263166,1.039431,0.837772,5.047925,7.109230,1.577553,0.728301,1.128406
1577704267.190372,10.000000,0.000000,4138.974121,4291.794922,4152.307617,4132.820313,4105.641113,450.000000,4.000000,,,,0.000000,4.000000,4.000000,4.000000,4.000000,4.000000,,,,,,,,,,,,,,,,,,,,,,,,,
1577704267.198068,11.000000,0.000000,4138.461426,4291.282227,4149.230957,4132.307617,4109.743652,16208.000000,4.000000,,,,0.000000,4.000000,4.000000,4.000000,4.000000,4.000000,,,,,,,,,,,,,,,,,,,,,,,,,
1577704267.205865,12.000000,0.000000,4144.102539,4280.000000,4151.794922,4101.025879,4110.256348,450.000000,4.000000,,,,0.000000,4.000000,4.000000,4.000000,4.000000,4.000000,,,,,,,,,,,,,,,,,,,,,,,,,
1577704267.213562,13.000000,0.000000,4168.205078,4286.153809,4177.436035,4128.717773,4131.794922,450.000000,4.000000,,,,0.000000,4.000000,4.000000,4.000000,4.000000,4.000000,,,,,,,,,,,,,,,,,,,,,,,,,
1577704267.221358,14.000000,0.000000,4178.974121,4294.358887,4190.256348,4156.410156,4147.179688,450.000000,4.000000,,,,0.000000,4.000000,4.000000,4.000000,4.000000,4.000000,,,,,,,,,,,,,,,,,,,,,,,,,
1577704267.229055,15.000000,0.000000,4171.282227,4291.794922,4183.077148,4137.948730,4147.179688,16208.000000,4.000000,,,,0.000000,4.000000,4.000000,4.000000,4.000000,4.000000,,,,,,,,,,,,,,,,,,,,,,,,,
1577704267.236851,16.000000,0.000000,4169.230957,4300.000000,4174.871582,4122.563965,4147.179688,0.000000,4.000000,,,,0.000000,4.000000,4.000000,4.000000,4.000000,4.000000,,,,,,,,,,,,,,,,,,,,,,,,,
1577704267.244548,17.000000,0.000000,4161.025879,4304.102539,4161.025879,4107.692383,4134.358887,0.000000,4.000000,,,,0.000000,4.000000,4.000000,4.000000,4.000000,4.000000,,,,,,,,,,,,,,,,,,,,,,,,,
1577704267.252445,18.000000,0.000000,4140.512695,4284.102539,4152.307617,4102.563965,4112.820313,0.000000,4.000000,,,,0.000000,4.000000,4.000000,4.000000,4.000000,4.000000,,,,,,,,,,,,,,,,,,,,,,,,,
1577704267.260241,19.000000,0.000000,4138.461426,4273.846191,4158.461426,4126.153809,4113.333496,0.000000,4.000000,,,,0.000000,4.000000,4.000000,4.000000,4.000000,4.000000,,,,,,,,,,,,,,,,,,,,,,,,,
1577704267.268138,20.000000,0.000000,4157.948730,4292.307617,4169.743652,4122.051270,4129.230957,0.000000,4.000000,,,,0.000000,4.000000,4.000000,4.000000,4.000000,4.000000,,,,,,,,,,,,,,,,,,,,,,,,,
1577704267.275935,21.000000,0.000000,4155.897461,4289.230957,4169.743652,4080.000000,4119.487305,0.000000,4.000000,,,,0.000000,4.000000,4.000000,4.000000,4.000000,4.000000,,,,,,,,,,,,,,,,,,,,,,,,,
1577704267.283831,22.000000,0.000000,4135.384766,4267.692383,4158.974121,4104.615234,4102.051270,0.000000,4.000000,,,,0.000000,4.000000,4.000000,4.000000,4.000000,4.000000,,,,,,,,,,,,,,,,,,,,,,,,,
1577704267.291628,23.000000,0.000000,4141.538574,4271.794922,4155.384766,4142.563965,4107.692383,0.000000,4.000000,,,,0.000000,4.000000,4.000000,4.000000,4.000000,4.000000,,,,,,,,,,,,,,,,,,,,,,,,,
1577704267.299525,24.000000,0.000000,4165.128418,4282.051270,4155.897461,4083.589844,4122.051270,0.000000,4.000000,,,,0.000000,4.000000,4.000000,4.000000,4.000000,4.000000,,,,,,,,,,,,,,,,,,,,,,,,,
1577704267.307322,25.000000,0.000000,4168.717773,4276.410156,4149.743652,4062.051270,4131.282227,0.000000,4.000000,,,,0.000000,4.000000,4.000000,4.000000,4.000000,4.000000,5.101009,7.390072,2.036139,0.865005,1.088657,1.739332,2.343408,1.010774,0.443987,1.037597,2.467754,5.861771,1.773669,0.590389,0.668844,2.654231,1.900196,1.345898,1.059621,0.874157,4.826397,6.288983,1.783267,0.820746,1.177065
1577704267.315218,26.000000,0.000000,4168.717773,4277.436035,4155.897461,4134.358887,4148.717773,0.000000,4.000000,,,,0.000000,4.000000,4.000000,4.000000,4.000000,4.000000,,,,,,,,,,,,,,,,,,,,,,,,,
1577704267.323015,27.000000,0.000000,4173.333496,4278.974121,4167.179688,4140.000000,4157.436035,0.000000,4.000000,,,,0.000000,4.000000,4.000000,4.000000,4.000000,4.000000,,,,,,,,,,,,,,,,,,,,,,,,,
1577704267.330912,28.000000,0.000000,4163.589844,4278.974121,4160.000000,4078.461426,4141.538574,0.000000,4.000000,,,,0.000000,4.000000,4.000000,4.000000,4.000000,4.000000,,,,,,,,,,,,,,,,,,,,,,,,,
1577704267.338708,29.000000,0.000000,4165.128418,4287.692383,4163.077148,4113.333496,4141.025879,0.000000,4.000000,,,,0.000000,4.000000,4.000000,4.000000,4.000000,4.000000,,,,,,,,,,,,,,,,,,,,,,,,,
1577704267.346405,30.000000,0.000000,4186.666504,4283.077148,4180.512695,4172.307617,4158.974121,0.000000,4.000000,,,,0.000000,4.000000,4.000000,4.000000,4.000000,4.000000,,,,,,,,,,,,,,,,,,,,,,,,,
1577704267.354202,31.000000,0.000000,4181.025879,4266.666504,4181.538574,4130.256348,4152.820313,0.000000,4.000000,,,,0.000000,4.000000,4.000000,4.000000,4.000000,4.000000,,,,,,,,,,,,,,,,,,,,,,,,,
1577704267.361899,32.000000,0.000000,4156.922852,4267.179688,4169.743652,4104.102539,4128.717773,0.000000,4.000000,,,,0.000000,4.000000,4.000000,4.000000,4.000000,4.000000,,,,,,,,,,,,,,,,,,,,,,,,,
1577704267.369795,33.000000,0.000000,4166.153809,4278.974121,4171.282227,4136.410156,4129.743652,0.000000,4.000000,,,,0.000000,4.000000,4.000000,4.000000,4.000000,4.000000,,,,,,,,,,,,,,,,,,,,,,,,,
1577704267.377592,34.000000,0.000000,4198.461426,4290.769043,4186.666504,4140.512695,4152.307617,0.000000,4.000000,,,,0.000000,4.000000,4.000000,4.000000,4.000000,4.000000,,,,,,,,,,,,,,,,,,,,,,,,,
1577704267.385389,35.000000,0.000000,4188.717773,4276.922852,4175.897461,4108.717773,4140.000000,0.000000,4.000000,,,,0.000000,4.000000,4.000000,4.000000,4.000000,4.000000,,,,,,,,,,,,,,,,,,,,,,,,,
1577704267.393086,36.000000,0.000000,4159.487305,4244.615234,4146.666504,4106.666504,4109.743652,0.000000,4.000000,,,,0.000000,4.000000,4.000000,4.000000,4.000000,4.000000,,,,,,,,,,,,,,,,,,,,,,,,,
1577704267.400982,37.000000,0.000000,4167.179688,4240.000000,4141.538574,4132.307617,4111.282227,0.000000,4.000000,,,,0.000000,4.000000,4.000000,4.000000,4.000000,4.000000,,,,,,,,,,,,,,,,,,,,,,,,,
1577704267.408779,38.000000,0.000000,4186.153809,4262.051270,4151.282227,4124.102539,4129.743652,0.000000,4.000000,,,,0.000000,4.000000,4.000000,4.000000,4.000000,4.000000,,,,,,,,,,,,,,,,,,,,,,,,,
1577704267.416576,39.000000,0.000000,4196.922852,4274.871582,4158.461426,4111.794922,4145.641113,0.000000,4.000000,,,,0.000000,4.000000,4.000000,4.000000,4.000000,4.000000,,,,,,,,,,,,,,,,,,,,,,,,,
1577704267.424272,40.000000,0.000000,4209.743652,4268.205078,4171.282227,4140.512695,4158.461426,0.000000,4.000000,,,,0.000000,4.000000,4.000000,4.000000,4.000000,4.000000,,,,,,,,,,,,,,,,,,,,,,,,,
1577704267.432169,41.000000,0.000000,4215.384766,4265.641113,4181.538574,4130.256348,4165.128418,0.000000,4.000000,,,,0.000000,4.000000,4.000000,4.000000,4.000000,4.000000,4.364856,6.553045,2.018004,1.091517,1.134628,1.630466,2.460389,0.932604,0.454665,1.042532,2.477159,7.435176,1.668942,0.659740,0.653736,2.520449,1.889988,1.491868,1.109172,0.952044,4.588439,5.449159,1.945183,0.958092,1.201831
1577704267.439966,42.000000,0.000000,4205.128418,4270.256348,4173.846191,4072.307617,4154.358887,0.000000,4.000000,,,,0.000000,4.000000,4.000000,4.000000,4.000000,4.000000,,,,,,,,,,,,,,,,,,,,,,,,,
1577704267.447862,43.000000,0.000000,4202.563965,4272.307617,4157.948730,4089.230713,4141.538574,0.000000,4.000000,,,,0.000000,4.000000,4.000000,4.000000,4.000000,4.000000,,,,,,,,,,,,,,,,,,,,,,,,,
1577704267.455659,44.000000,0.000000,4218.974121,4274.358887,4155.384766,4156.922852,4151.794922,0.000000,4.000000,,,,0.000000,4.000000,4.000000,4.000000,4.000000,4.000000,,,,,,,,,,,,,,,,,,,,,,,,,
1577704267.463556,45.000000,0.000000,4214.871582,4271.282227,4151.794922,4129.743652,4153.846191,0.000000,4.000000,,,,0.000000,4.000000,4.000000,4.000000,4.000000,4.000000,,,,,,,,,,,,,,,,,,,,,,,,,
1577704267.471353,46.000000,0.000000,4202.051270,4266.153809,4146.153809,4090.256348,4141.538574,0.000000,4.000000,,,,0.000000,4.000000,4.000000,4.000000,4.000000,4.000000,,,,,,,,,,,,,,,,,,,,,,,,,
1577704267.479249,47.000000,0.000000,4205.128418,4268.717773,4146.666504,4104.102539,4137.436035,0.000000,4.000000,,,,0.000000,4.000000,4.000000,4.000000,4.000000,4.000000,,,,,,,,,,,,,,,,,,,,,,,,,
1577704267.487046,48.000000,0.000000,4195.384766,4266.153809,4134.871582,4073.846191,4127.692383,0.000000,4.000000,,,,0.000000,4.000000,4.000000,4.000000,4.000000,4.000000,,,,,,,,,,,,,,,,,,,,,,,,,
1577704267.494943,49.000000,0.000000,4178.461426,4251.794922,4126.666504,4046.666748,4114.871582,0.000000,4.000000,,,,0.000000,4.000000,4.000000,4.000000,4.000000,4.000000,,,,,,,,,,,,,,,,,,,,,,,,,
1577704267.502739,50.000000,0.000000,4190.769043,4254.358887,4145.641113,4070.769287,4130.256348,0.000000,4.000000,,,,0.000000,4.000000,4.000000,4.000000,4.000000,4.000000,,,,,,,,,,,,,,,,,,,,,,,,,
1577704267.510636,51.000000,0.000000,4196.922852,4266.153809,4161.538574,4103.589844,4143.589844,0.000000,4.000000,,,,0.000000,4.000000,4.000000,4.000000,4.000000,4.000000,,,,,,,,,,,,,,,,,,,,,,,,,
1577704267.518433,52.000000,0.000000,4180.000000,4263.077148,4156.410156,4111.282227,4131.794922,0.000000,4.000000,,,,0.000000,4.000000,4.000000,4.000000,4.000000,4.000000,,,,,,,,,,,,,,,,,,,,,,,,,
1577704267.526230,53.000000,0.000000,4196.410156,4272.307617,4156.410156,4098.974121,4145.641113,0.000000,4.000000,,,,0.000000,4.000000,4.000000,4.000000,4.000000,4.000000,,,,,,,,,,,,,,,,,,,,,,,,,
1577704267.533926,54.000000,0.000000,4216.410156,4284.615234,4166.153809,4089.230713,4161.025879,0.000000,4.000000,,,,0.000000,4.000000,4.000000,4.000000,4.000000,4.000000,,,,,,,,,,,,,,,,,,,,,,,,,
1577704267.541623,55.000000,0.000000,4197.436035,4274.358887,4169.230957,4092.307617,4140.512695,0.000000,4.000000,,,,0.000000,4.000000,4.000000,4.000000,4.000000,4.000000,,,,,,,,,,,,,,,,,,,,,,,,,
1577704267.549420,56.000000,0.000000,4194.871582,4265.128418,4169.743652,4126.666504,4136.410156,0.000000,4.000000,,,,0.000000,4.000000,4.000000,4.000000,4.000000,4.000000,,,,,,,,,,,,,,,,,,,,,,,,,
1577704267.557117,57.000000,0.000000,4203.077148,4273.846191,4167.179688,4132.307617,4145.128418,0.000000,4.000000,,,,0.000000,4.000000,4.000000,4.000000,4.000000,4.000000,3.244731,6.195534,2.035115,1.330408,1.134536,1.457185,2.491711,0.783021,0.487546,1.011003,2.491935,9.326287,1.600912,0.724115,0.607449,2.447891,2.050336,1.685331,1.222466,1.148585,3.913648,5.052198,2.050738,1.124377,1.198839
1577704267.564914,58.000000,0.000000,4200.512695,4283.589844,4165.128418,4087.179443,4143.589844,0.000000,4.000000,,,,0.000000,4.000000,4.000000,4.000000,4.000000,4.000000,,,,,,,,,,,,,,,,,,,,,,,,,
1577704267.572610,59.000000,0.000000,4212.307617,4277.436035,4173.333496,4076.923096,4157.948730,0.000000,4.000000,,,,0.000000,4.000000,4.000000,4.000000,4.000000,4.000000,,,,,,,,,,,,,,,,,,,,,,,,,
1577704267.580507,60.000000,0.000000,4213.846191,4266.153809,4172.307617,4103.589844,4162.563965,0.000000,4.000000,,,,0.000000,4.000000,4.000000,4.000000,4.000000,4.000000,,,,,,,,,,,,,,,,,,,,,,,,,
1577704267.588304,61.000000,0.000000,4192.820313,4275.384766,4162.563965,4065.128174,4141.538574,0.000000,4.000000,,,,0.000000,4.000000,4.000000,4.000000,4.000000,4.000000,,,,,,,,,,,,,,,,,,,,,,,,,
1577704267.596100,62.000000,0.000000,4188.205078,4288.205078,4164.615234,4036.410156,4133.846191,0.000000,4.000000,,,,0.000000,4.000000,4.000000,4.000000,4.000000,4.000000,,,,,,,,,,,,,,,,,,,,,,,,,
1577704267.603797,63.000000,0.000000,4182.563965,4267.179688,4163.077148,4079.487061,4131.282227,0.000000,4.000000,,,,0.000000,4.000000,4.000000,4.000000,4.000000,4.000000,,,,,,,,,,,,,,,,,,,,,,,,,
1577704267.611594,64.000000,0.000000,4158.974121,4243.589844,4154.358887,4074.871826,4115.897461,450.000000,4.000000,,,,0.000000,4.000000,4.000000,4.000000,4.000000,4.000000,,,,,,,,,,,,,,,,,,,,,,,,,
1577704267.619290,65.000000,0.000000,4156.410156,4256.410156,4155.384766,4037.435791,4111.794922,450.000000,4.000000,,,,0.000000,4.000000,4.000000,4.000000,4.000000,4.000000,,,,,,,,,,,,,,,,,,,,,,,,,
1577704267.627087,66.000000,0.000000,4169.230957,4269.743652,4152.307617,4042.564209,4116.410156,16216.000000,4.000000,,,,0.000000,4.000000,4.000000,4.000000,4.000000,4.000000,,,,,,,,,,,,,,,,,,,,,,,,,
1577704267.634783,67.000000,0.000000,4176.922852,4264.615234,4149.230957,4038.974365,4126.666504,450.000000,4.000000,,,,0.000000,4.000000,4.000000,4.000000,4.000000,4.000000,,,,,,,,,,,,,,,,,,,,,,,,,
1577704267.642580,68.000000,0.000000,4175.384766,4259.487305,4154.871582,4035.897461,4135.897461,16227.000000,4.000000,,,,0.000000,4.000000,4.000000,4.000000,4.000000,4.000000,,,,,,,,,,,,,,,,,,,,,,,,,
1577704267.650276,69.000000,0.000000,4171.794922,4260.512695,4158.461426,4069.743652,4135.384766,450.000000,4.000000,,,,0.000000,4.000000,4.000000,4.000000,4.000000,4.000000,,,,,,,,,,,,,,,,,,,,,,,,,
1577704267.658073,70.000000,0.000000,4183.589844,4267.692383,4161.538574,4078.461426,4137.948730,16144.000000,4.000000,,,,0.000000,4.000000,4.000000,4.000000,4.000000,4.000000,,,,,,,,,,,,,,,,,,,,,,,,,
1577704267.665770,71.000000,0.000000,4188.717773,4265.641113,4156.922852,4056.410156,4141.025879,450.000000,4.000000,,,,0.000000,4.000000,4.000000,4.000000,4.000000,4.000000,,,,,,,,,,,,,,,,,,,,,,,,,
1577704267.673566,72.000000,0.000000,4171.794922,4254.871582,4150.769043,4056.923096,4134.358887,450.000000,4.000000,,,,0.000000,4.000000,4.000000,4.000000,4.000000,4.000000,,,,,,,,,,,,,,,,,,,,,,,,,
1577704267.681263,73.000000,0.000000,4158.461426,4257.948730,4156.410156,4051.794922,4127.179688,16151.000000,4.000000,,,,0.000000,4.000000,4.000000,4.000000,4.000000,4.000000,2.462989,6.414780,2.159753,1.539715,1.102396,1.274513,2.442334,0.608724,0.546959,0.968089,2.468974,11.206910,1.644525,0.786186,0.550526,2.517292,2.396176,1.932081,1.408947,1.549701,3.375173,5.425168,2.119471,1.290488,1.167994
1577704267.689159,74.000000,0.000000,4155.384766,4266.153809,4154.358887,4049.743652,4117.436035,450.000000,4.000000,,,,0.000000,4.000000,4.000000,4.000000,4.000000,4.000000,,,,,,,,,,,,,,,,,,,,,,,,,
1577704267.696956,75.000000,0.000000,4151.282227,4258.461426,4141.025879,4056.410156,4107.179688,16210.000000,4.000000,,,,0.000000,4.000000,4.000000,4.000000,4.000000,4.000000,,,,,,,,,,,,,,,,,,,,,,,,,
1577704267.704853,76.000000,0.000000,4147.692383,4249.230957,4132.307617,4021.025635,4104.102539,450.000000,4.000000,,,,0.000000,4.000000,4.000000,4.000000,4.000000,4.000000,,,,,,,,,,,,,,,,,,,,,,,,,
1577704267.712650,77.000000,0.000000,4154.358887,4262.563965,4142.563965,4012.307617,4114.358887,450.000000,4.000000,,,,0.000000,4.000000,4.000000,4.000000,4.000000,4.000000,,,,,,,,,,,,,,,,,,,,,,,,,
1577704267.720546,78.000000,0.000000,4166.666504,4270.769043,4158.461426,4066.666748,4122.051270,450.000000,4.000000,,,,0.000000,4.000000,4.000000,4.000000,4.000000,4.000000,,,,,,,,,,,,,,,,,,,,,,,,,
1577704267.728343,79.000000,0.000000,4163.077148,4249.743652,4151.794922,4065.128174,4108.205078,16210.000000,4.000000,,,,0.000000,4.000000,4.000000,4.000000,4.000000,4.000000,,,,,,,,,,,,,,,,,,,,,,,,,
1577704267.736240,80.000000,0.000000,4144.615234,4235.384766,4129.743652,4013.846191,4089.743652,450.000000,4.000000,,,,0.000000,4.000000,4.000000,4.000000,4.000000,4.000000,,,,,,,,,,,,,,,,,,,,,,,,,
1577704267.744036,81.000000,0.000000,4137.948730,4246.666504,4128.717773,4018.974365,4087.179443,450.000000,4.000000,,,,0.000000,4.000000,4.000000,4.000000,4.000000,4.000000,,,,,,,,,,,,,,,,,,,,,,,,,
1577704267.751733,82.000000,0.000000,4140.000000,4252.307617,4142.563965,4043.076904,4089.743652,450.000000,4.000000,,,,0.000000,4.000000,4.000000,4.000000,4.000000,4.000000,,,,,,,,,,,,,,,,,,,,,,,,,
1577704267.759530,83.000000,0.000000,4134.358887,4243.077148,4138.974121,4035.897461,4084.102539,16210.000000,4.000000,,,,0.000000,4.000000,4.000000,4.000000,4.000000,4.000000,,,,,,,,,,,,,,,,,,,,,,,,,
1577704267.767227,84.000000,0.000000,4132.820313,4242.563965,4135.384766,4042.564209,4086.153809,450.000000,4.000000,,,,0.000000,4.000000,4.000000,4.000000,4.000000,4.000000,,,,,,,,,,,,,,,,,,,,,,,,,
1577704267.775023,85.000000,0.000000,4136.410156,4250.256348,4153.846191,4055.897461,4091.281982,450.000000,4.000000,,,,0.000000,4.000000,4.000000,4.000000,4.000000,4.000000,,,,,,,,,,,,,,,,,,,,,,,,,
1577704267.782720,86.000000,0.000000,4135.384766,4254.358887,4158.974121,4063.076904,4086.666748,450.000000,4.000000,,,,0.000000,4.000000,4.000000,4.000000,4.000000,4.000000,,,,,,,,,,,,,,,,,,,,,,,,,
1577704267.790516,87.000000,0.000000,4137.948730,4254.871582,4142.051270,4084.102539,4090.256348,16210.000000,4.000000,,,,0.000000,4.000000,4.000000,4.000000,4.000000,4.000000,,,,,,,,,,,,,,,,,,,,,,,,,
1577704267.798213,88.000000,0.000000,4136.922852,4249.230957,4127.179688,4087.692383,4088.205078,450.000000,4.000000,,,,0.000000,4.000000,4.000000,4.000000,4.000000,4.000000,,,,,,,,,,,,,,,,,,,,,,,,,
1577704267.806010,89.000000,0.000000,4140.512695,4248.205078,4122.563965,4081.025635,4084.102539,450.000000,4.000000,,,,0.000000,4.000000,4.000000,4.000000,4.000000,4.000000,1.902916,7.022303,2.396001,1.677598,1.063830,1.081686,2.335089,0.452563,0.625653,0.933801,2.325619,12.567295,1.828948,0.850240,0.503466,2.655906,2.883194,2.229874,1.673344,2.197496,2.776968,6.528649,2.167205,1.424419,1.115359
1577704267.813706,90.000000,0.000000,4167.692383,4257.436035,4132.820313,4104.615234,4109.743652,450.000000,4.000000,,,,0.000000,4.000000,4.000000,4.000000,4.000000,4.000000,,,,,,,,,,,,,,,,,,,,,,,,,
1577704267.821603,91.000000,0.000000,4177.948730,4249.230957,4133.846191,4112.307617,4122.563965,16210.000000,4.000000,,,,0.000000,4.000000,4.000000,4.000000,4.000000,4.000000,,,,,,,,,,,,,,,,,,,,,,,,,
1577704267.829400,92.000000,0.000000,4158.974121,4230.256348,4124.615234,4100.512695,4104.615234,450.000000,4.000000,,,,0.000000,4.000000,4.000000,4.000000,4.000000,4.000000,,,,,,,,,,,,,,,,,,,,,,,,,
1577704267.837296,93.000000,0.000000,4166.153809,4242.051270,4133.333496,4127.179688,4109.230957,450.000000,4.000000,,,,0.000000,4.000000,4.000000,4.000000,4.000000,4.000000,,,,,,,,,,,,,,,,,,,,,,,,,
1577704267.845093,94.000000,0.000000,4191.282227,4257.436035,4145.128418,4154.871582,4128.717773,450.000000,4.000000,,,,0.000000,4.000000,4.000000,4.000000,4.000000,4.000000,,,,,,,,,,,,,,,,,,,,,,,,,
1577704267.852990,95.000000,0.000000,4195.384766,4246.153809,4143.077148,4148.717773,4127.179688,16210.000000,4.000000,,,,0.000000,4.000000,4.000000,4.000000,4.000000,4.000000,,,,,,,,,,,,,,,,,,,,,,,,,
1577704267.860786,96.000000,0.000000,4194.358887,4245.641113,4146.153809,4152.307617,4126.666504,450.000000,4.000000,,,,0.000000,4.000000,4.000000,4.000000,4.000000,4.000000,,,,,,,,,,,,,,,,,,,,,,,,,
1577704267.868683,97.000000,0.000000,4195.384766,4264.102539,4157.436035,4166.153809,4134.358887,450.000000,4.000000,,,,0.000000,4.000000,4.000000,4.000000,4.000000,4.000000,,,,,,,,,,,,,,,,,,,,,,,,,
1577704267.876480,98.000000,0.000000,4180.512695,4264.615234,4161.538574,4162.051270,4123.589844,450.000000,4.000000,,,,0.000000,4.000000,4.000000,4.000000,4.000000,4.000000,,,,,,,,,,,,,,,,,,,,,,,,,
1577704267.884377,99.000000,0.000000,4154.358887,4240.000000,4144.102539,4155.384766,4095.384521,16210.000000,4.000000,,,,0.000000,4.000000,4.000000,4.000000,4.000000,4.000000,,,,,,,,,,,,,,,,,,,,,,,,,
1577704267.892173,100.000000,0.000000,4144.102539,4226.666504,4123.077148,4157.948730,4085.641113,450.000000,4.000000,,,,0.000000,4.000000,4.000000,4.000000,4.000000,4.000000,,,,,,,,,,,,,,,,,,,,,,,,,
1577704267.900070,101.000000,0.000000,4157.948730,4240.512695,4129.230957,4173.333496,4106.666504,450.000000,4.000000,,,,0.000000,4.000000,4.000000,4.000000,4.000000,4.000000,,,,,,,,,,,,,,,,,,,,,,,,,
1577704267.907867,102.000000,0.000000,4167.179688,4246.153809,4135.897461,4185.128418,4120.000000,450.000000,4.000000,,,,0.000000,4.000000,4.000000,4.000000,4.000000,4.000000,,,,,,,,,,,,,,,,,,,,,,,,,
1577704267.915763,103.000000,0.000000,4166.666504,4231.282227,4131.794922,4184.102539,4121.538574,16210.000000,4.000000,,,,0.000000,4.000000,4.000000,4.000000,4.000000,4.000000,,,,,,,,,,,,,,,,,,,,,,,,,
1577704267.923560,104.000000,0.000000,4183.077148,4229.743652,4142.563965,4193.846191,4138.461426,450.000000,4.000000,,,,0.000000,4.000000,4.000000,4.000000,4.000000,4.000000,,,,,,,,,,,,,,,,,,,,,,,,,
1577704267.931457,105.000000,0.000000,4200.512695,4238.974121,4151.794922,4207.179688,4157.436035,450.000000,4.000000,,,,0.000000,4.000000,4.000000,4.000000,4.000000,4.000000,1.665914,7.660932,2.661486,1.714787,1.039955,0.890396,2.207566,0.349585,0.708791,0.916810,2.126256,12.949539,2.109682,0.909463,0.477778,2.931558,3.456015,2.532511,1.988948,3.042401,2.330753,7.973985,2.192821,1.499212,1.050989
1577704267.939254,106.000000,0.000000,4191.794922,4231.282227,4140.512695,4198.461426,4150.256348,450.000000,4.000000,,,,0.000000,4.000000,4.000000,4.000000,4.000000,4.000000,,,,,,,,,,,,,,,,,,,,,,,,,
1577704267.946950,107.000000,0.000000,4187.692383,4231.794922,4136.922852,4190.769043,4143.077148,16210.000000,4.000000,,,,0.000000,4.000000,4.000000,4.000000,4.000000,4.000000,,,,,,,,,,,,,,,,,,,,,,,,,
1577704267.954847,108.000000,0.000000,4201.025879,4247.692383,4153.333496,4203.077148,4155.384766,450.000000,4.000000,,,,0.000000,4.000000,4.000000,4.000000,4.000000,4.000000,,,,,,,,,,,,,,,,,,,,,,,,,
1577704267.962644,109.000000,0.000000,4201.538574,4248.205078,4156.922852,4207.179688,4162.051270,450.000000,4.000000,,,,0.000000,4.000000,4.000000,4.000000,4.000000,4.000000,,,,,,,,,,,,,,,,,,,,,,,,,
1577704267.970441,110.000000,0.000000,4188.205078,4235.384766,4143.077148,4198.461426,4153.333496,450.000000,4.000000,,,,0.000000,4.000000,4.000000,4.000000,4.000000,4.000000,,,,,,,,,,,,,,,,,,,,,,,,,
1577704267.978138,111.000000,0.000000,4178.974121,4228.205078,4142.563965,4197.948730,4143.589844,16210.000000,4.000000,,,,0.000000,4.000000,4.000000,4.000000,4.000000,4.000000,,,,,,,,,,,,,,,,,,,,,,,,,
1577704267.985935,112.000000,0.000000,4181.538574,4229.743652,4159.487305,4200.512695,4148.717773,450.000000,4.000000,,,,0.000000,4.000000,4.000000,4.000000,4.000000,4.000000,,,,,,,,,,,,,,,,,,,,,,,,,
1577704267.993631,113.000000,0.000000,4183.077148,4235.897461,4158.461426,4191.794922,4148.717773,450.000000,4.000000,,,,0.000000,4.000000,4.000000,4.000000,4.000000,4.000000,,,,,,,,,,,,,,,,,,,,,,,,,
1577704268.001528,114.000000,0.000000,4176.410156,4232.820313,4142.051270,4187.179688,4133.333496,450.000000,4.000000,,,,0.000000,4.000000,4.000000,4.000000,4.000000,4.000000,,,,,,,,,,,,,,,,,,,,,,,,,
1577704268.009325,115.000000,0.000000,4168.205078,4221.025879,4141.538574,4192.307617,4125.128418,16210.000000,4.000000,,,,0.000000,4.000000,4.000000,4.000000,4.000000,4.000000,,,,,,,,,,,,,,,,,,,,,,,,,
1577704268.017221,116.000000,0.000000,4175.384766,4225.641113,4158.461426,4195.384766,4140.512695,450.000000,4.000000,,,,0.000000,4.000000,4.000000,4.000000,4.000000,4.000000,,,,,,,,,,,,,,,,,,,,,,,,,
1577704268.025018,117.000000,0.000000,4187.692383,4236.922852,4158.974121,4194.358887,4149.743652,450.000000,4.000000,,,,0.000000,4.000000,4.000000,4.000000,4.000000,4.000000,,,,,,,,,,,,,,,,,,,,,,,,,
1577704268.032815,118.000000,0.000000,4175.897461,4235.897461,4143.077148,4191.794922,4136.922852,450.000000,4.000000,,,,0.000000,4.000000,4.000000,4.000000,4.000000,4.000000,,,,,,,,,,,,,,,,,,,,,,,,,
1577704268.040511,119.000000,0.000000,4157.948730,4230.256348,4136.922852,4187.179688,4129.230957,16210.000000,4.000000,,,,0.000000,4.000000,4.000000,4.000000,4.000000,4.000000,,,,,,,,,,,,,,,,,,,,,,,,,
1577704268.048308,120.000000,0.000000,4167.692383,4225.128418,4141.538574,4192.307617,4137.436035,450.000000,4.000000,,,,0.000000,4.000000,4.000000,4.000000,4.000000,4.000000,,,,,,,,,,,,,,,,,,,,,,,,,
1577704268.056005,121.000000,0.000000,4194.358887,4230.769043,4151.282227,4216.410156,4153.333496,450.000000,4.000000,,,,0.000000,4.000000,4.000000,4.000000,4.000000,4.000000,1.639971,7.988769,2.831249,1.644568,1.034887,0.696601,2.090822,0.312197,0.773729,0.913675,1.909680,12.165537,2.395950,0.950307,0.472236,3.428809,4.029637,2.763764,2.301203,3.935827,1.993328,9.226588,2.169549,1.500323,0.982686
1577704268.063801,122.000000,0.000000,4193.333496,4235.384766,4156.410156,4210.256348,4152.820313,450.000000,4.000000,,,,0.000000,4.000000,4.000000,4.000000,4.000000,4.000000,,,,,,,,,,,,,,,,,,,,,,,,,
1577704268.071498,123.000000,0.000000,4175.384766,4227.692383,4152.307617,4173.846191,4137.948730,16210.000000,4.000000,,,,0.000000,4.000000,4.000000,4.000000,4.000000,4.000000,,,,,,,,,,,,,,,,,,,,,,,,,
1577704268.079294,124.000000,0.000000,4182.051270,4219.487305,4145.128418,4172.307617,4136.922852,450.000000,4.000000,,,,0.000000,4.000000,4.000000,4.000000,4.000000,4.000000,,,,,,,,,,,,,,,,,,,,,,,,,
1577704268.086991,125.000000,0.000000,4182.051270,4216.410156,4137.436035,4191.794922,4138.461426,450.000000,4.000000,,,,0.000000,4.000000,4.000000,4.000000,4.000000,4.000000,,,,,,,,,,,,,,,,,,,,,,,,,
1577704268.094888,126.000000,0.000000,4164.102539,4226.153809,4140.000000,4188.205078,4127.692383,450.000000,4.000000,,,,0.000000,4.000000,4.000000,4.000000,4.000000,4.000000,,,,,,,,,,,,,,,,,,,,,,,,,
1577704268.102684,127.000000,0.000000,4176.922852,4239.487305,4143.589844,4180.000000,4131.282227,240.000000,4.000000,,,,0.000000,4.000000,4.000000,4.000000,4.000000,4.000000,,,,,,,,,,,,,,,,,,,,,,,,,
1577704268.110581,0.000000,0.000000,4210.256348,4233.846191,4148.205078,4197.436035,4160.000000,450.000000,4.000000,,,,0.000000,4.000000,4.000000,4.000000,4.000000,4.000000,,,,,,,,,,,,,,,,,,,,,,,,,
1577704268.118378,1.000000,0.000000,4210.769043,4221.025879,4159.487305,4207.692383,4170.769043,450.000000,4.000000,,,,0.000000,4.000000,4.000000,4.000000,4.000000,4.000000,,,,,,,,,,,,,,,,,,,,,,,,,
1577704268.126274,2.000000,0.000000,4195.384766,4223.077148,4156.922852,4188.205078,4149.743652,16216.000000,4.000000,,,,0.000000,4.000000,4.000000,4.000000,4.000000,4.000000,,,,,,,,,,,,,,,,,,,,,,,,,
1577704268.134171,3.000000,0.000000,4207.179688,4230.769043,4144.102539,4183.077148,4151.794922,450.000000,4.000000,,,,0.000000,4.000000,4.000000,4.000000,4.000000,4.000000,,,,,,,,,,,,,,,,,,,,,,,,,
1577704268.141968,4.000000,0.000000,4228.717773,4230.256348,4146.153809,4196.922852,4183.589844,16227.000000,4.000000,,,,0.000000,4.000000,4.000000,4.000000,4.000000,4.000000,,,,,,,,,,,,,,,,,,,,,,,,,
1577704268.149765,5.000000,0.000000,4233.333496,4231.282227,4156.922852,4194.871582,4190.769043,450.000000,4.000000,,,,0.000000,4.000000,4.000000,4.000000,4.000000,4.000000,,,,,,,,,,,,,,,,,,,,,,,,,
1577704268.157462,6.000000,0.000000,4233.333496,4240.000000,4154.871582,4188.205078,4182.563965,16143.000000,4.000000,,,,0.000000,4.000000,4.000000,4.000000,4.000000,4.000000,,,,,,,,,,,,,,,,,,,,,,,,,
1577704268.165258,7.000000,0.000000,4230.256348,4240.000000,4153.333496,4197.948730,4183.077148,450.000000,4.000000,,,,0.000000,4.000000,4.000000,4.000000,4.000000,4.000000,,,,,,,,,,,,,,,,,,,,,,,,,
1577704268.172955,8.000000,0.000000,4208.717773,4226.666504,4152.820313,4193.333496,4163.077148,450.000000,4.000000,,,,0.000000,4.000000,4.000000,4.000000,4.000000,4.000000,,,,,,,,,,,,,,,,,,,,,,,,,
1577704268.180752,9.000000,0.000000,4186.153809,4216.410156,4134.358887,4176.410156,4132.307617,16147.000000,4.000000,,,,0.000000,4.000000,4.000000,4.000000,4.000000,4.000000,1.945190,7.864886,2.863858,1.492099,1.036500,0.561005,1.983487,0.335358,0.799558,0.916486,1.791868,10.392909,2.597069,0.959095,0.479360,4.193411,4.502544,2.864808,2.543397,4.668676,2.001266,9.862690,2.127081,1.434499,0.916258
1577704268.188448,10.000000,0.000000,4183.589844,4221.538574,4121.025879,4180.000000,4131.282227,450.000000,4.000000,,,,0.000000,4.000000,4.000000,4.000000,4.000000,4.000000,,,,,,,,,,,,,,,,,,,,,,,,,
1577704268.196245,11.000000,0.000000,4181.538574,4222.051270,4128.717773,4181.025879,4133.846191,16209.000000,4.000000,,,,0.000000,4.000000,4.000000,4.000000,4.000000,4.000000,,,,,,,,,,,,,,,,,,,,,,,,,
1577704268.203941,12.000000,0.000000,4173.333496,4212.307617,4126.153809,4166.666504,4120.512695,450.000000,4.000000,,,,0.000000,4.000000,4.000000,4.000000,4.000000,4.000000,,,,,,,,,,,,,,,,,,,,,,,,,
1577704268.211738,13.000000,0.000000,4183.589844,4222.051270,4125.128418,4168.205078,4126.153809,450.000000,4.000000,,,,0.000000,4.000000,4.000000,4.000000,4.000000,4.000000,,,,,,,,,,,,,,,,,,,,,,,,,
1577704268.219435,14.000000,0.000000,4196.922852,4238.461426,4146.666504,4186.153809,4143.589844,450.000000,4.000000,,,,0.000000,4.000000,4.000000,4.000000,4.000000,4.000000,,,,,,,,,,,,,,,,,,,,,,,,,
1577704268.227231,15.000000,0.000000,4194.871582,4226.666504,4156.410156,4190.256348,4151.794922,16209.000000,4.000000,,,,0.000000,4.000000,4.000000,4.000000,4.000000,4.000000,,,,,,,,,,,,,,,,,,,,,,,,,
1577704268.234928,16.000000,0.000000,4210.769043,4223.077148,4163.077148,4195.384766,4174.358887,0.000000,4.000000,,,,0.000000,4.000000,4.000000,4.000000,4.000000,4.000000,,,,,,,,,,,,,,,,,,,,,,,,,
1577704268.242724,17.000000,0.000000,4233.846191,4238.461426,4175.897461,4210.769043,4196.410156,0.000000,4.000000,,,,0.000000,4.000000,4.000000,4.000000,4.000000,4.000000,,,,,,,,,,,,,,,,,,,,,,,,,
1577704268.250421,18.000000,0.000000,4226.153809,4229.230957,4164.615234,4205.641113,4190.769043,0.000000,4.000000,,,,0.000000,4.000000,4.000000,4.000000,4.000000,4.000000,,,,,,,,,,,,,,,,,,,,,,,,,
1577704268.258217,19.000000,0.000000,4217.436035,4212.820313,4145.641113,4189.230957,4180.512695,0.000000,4.000000,,,,0.000000,4.000000,4.000000,4.000000,4.000000,4.000000,,,,,,,,,,,,,,,,,,,,,,,,,
1577704268.265914,20.000000,0.000000,4229.230957,4211.282227,4136.410156,4185.641113,4185.128418,0.000000,4.000000,,,,0.000000,4.000000,4.000000,4.000000,4.000000,4.000000,,,,,,,,,,,,,,,,,,,,,,,,,
1577704268.273811,21.000000,0.000000,4231.282227,4212.307617,4128.717773,4187.179688,4185.641113,0.000000,4.000000,,,,0.000000,4.000000,4.000000,4.000000,4.000000,4.000000,,,,,,,,,,,,,,,,,,,,,,,,,
1577704268.281607,22.000000,0.000000,4207.692383,4215.384766,4124.102539,4175.384766,4164.615234,0.000000,4.000000,,,,0.000000,4.000000,4.000000,4.000000,4.000000,4.000000,,,,,,,,,,,,,,,,,,,,,,,,,
1577704268.289504,23.000000,0.000000,4182.563965,4210.769043,4122.051270,4159.487305,4140.000000,0.000000,4.000000,,,,0.000000,4.000000,4.000000,4.000000,4.000000,4.000000,,,,,,,,,,,,,,,,,,,,,,,,,
1577704268.297301,24.000000,0.000000,4166.666504,4194.358887,4118.974121,4151.794922,4125.128418,0.000000,4.000000,,,,0.000000,4.000000,4.000000,4.000000,4.000000,4.000000,,,,,,,,,,,,,,,,,,,,,,,,,
1577704268.305198,25.000000,0.000000,4166.153809,4203.589844,4124.615234,4157.436035,4122.563965,0.000000,4.000000,,,,0.000000,4.000000,4.000000,4.000000,4.000000,4.000000,2.557824,7.363626,2.771157,1.309165,1.026215,0.465523,1.862376,0.399474,0.777113,0.916324,1.736279,8.093671,2.637661,0.932182,0.492036,5.086843,4.751167,2.814478,2.657173,5.045257,2.325326,9.694669,2.087662,1.331005,0.855846
1577704268.312994,26.000000,0.000000,4175.897461,4216.410156,4127.692383,4167.179688,4131.282227,0.000000,4.000000,,,,0.000000,4.000000,4.000000,4.000000,4.000000,4.000000,,,,,,,,,,,,,,,,,,,,,,,,,
1577704268.320891,27.000000,0.000000,4191.282227,4206.153809,4128.205078,4171.282227,4149.230957,0.000000,4.000000,,,,0.000000,4.000000,4.000000,4.000000,4.000000,4.000000,,,,,,,,,,,,,,,,,,,,,,,,,
1577704268.328688,28.000000,0.000000,4214.871582,4211.282227,4147.179688,4183.077148,4172.307617,0.000000,4.000000,,,,0.000000,4.000000,4.000000,4.000000,4.000000,4.000000,,,,,,,,,,,,,,,,,,,,,,,,,
1577704268.336385,29.000000,0.000000,4225.641113,4225.641113,4161.025879,4188.717773,4180.512695,0.000000,4.000000,,,,0.000000,4.000000,4.000000,4.000000,4.000000,4.000000,,,,,,,,,,,,,,,,,,,,,,,,,
