title:l1, start timestamp:2019-12-27T07:50:35.608585+03:00, stop timestamp:2019-12-27T07:51:06.693048+03:00, headset type:INSIGHT, headset serial:A2D200FB, headset firmware:930, subject name:Qasim, channels:44, sampling rate:eeg_128;pow_8, samples:3767      , version:2.0
Timestamp,EEG.Counter,EEG.Interpolated,EEG.AF3,EEG.T7,EEG.Pz,EEG.T8,EEG.AF4,EEG.RawCq,EEG.Battery,MarkerIndex,MarkerType,MarkerValueInt,EEG.MarkerHardware,CQ.AF3,CQ.T7,CQ.Pz,CQ.T8,CQ.AF4,POW.AF3.Theta,POW.AF3.Alpha,POW.AF3.BetaL,POW.AF3.BetaH,POW.AF3.Gamma,POW.T7.Theta,POW.T7.Alpha,POW.T7.BetaL,POW.T7.BetaH,POW.T7.Gamma,POW.Pz.Theta,POW.Pz.Alpha,POW.Pz.BetaL,POW.Pz.BetaH,POW.Pz.Gamma,POW.T8.Theta,POW.T8.Alpha,POW.T8.BetaL,POW.T8.BetaH,POW.T8.Gamma,POW.AF4.Theta,POW.AF4.Alpha,POW.AF4.BetaL,POW.AF4.BetaH,POW.AF4.Gamma
1577422235.608585,118.000000,0.000000,4214.871582,4334.871582,4145.128418,4129.743652,4243.589844,450.000000,4.000000,,,,0.000000,4.000000,4.000000,4.000000,4.000000,4.000000,,,,,,,,,,,,,,,,,,,,,,,,,
1577422235.616484,119.000000,0.000000,4244.615234,4365.128418,4178.461426,4162.563965,4276.922852,16217.000000,4.000000,,,,0.000000,4.000000,4.000000,4.000000,4.000000,4.000000,10.452620,5.025833,1.784312,4.105063,4.455328,14.820522,1.583688,0.474958,3.130884,1.490482,22.194185,3.882335,1.265512,2.817510,2.723891,5.620125,3.170775,0.976349,2.828159,2.836674,9.163055,4.487270,2.476354,3.543844,3.482591
1577422235.624383,120.000000,0.000000,4262.051270,4360.512695,4177.948730,4163.077148,4276.410156,450.000000,4.000000,,,,0.000000,4.000000,4.000000,4.000000,4.000000,4.000000,,,,,,,,,,,,,,,,,,,,,,,,,
1577422235.632183,121.000000,0.000000,4262.051270,4360.000000,4188.717773,4161.538574,4264.102539,450.000000,4.000000,,,,0.000000,4.000000,4.000000,4.000000,4.000000,4.000000,,,,,,,,,,,,,,,,,,,,,,,,,
1577422235.640082,122.000000,0.000000,4268.205078,4372.307617,4195.897461,4155.384766,4258.461426,450.000000,4.000000,,,,0.000000,4.000000,4.000000,4.000000,4.000000,4.000000,,,,,,,,,,,,,,,,,,,,,,,,,
1577422235.647982,123.000000,0.000000,4267.179688,4365.128418,4199.487305,4160.000000,4274.871582,16217.000000,4.000000,,,,0.000000,4.000000,4.000000,4.000000,4.000000,4.000000,,,,,,,,,,,,,,,,,,,,,,,,,
1577422235.655782,124.000000,0.000000,4278.974121,4374.358887,4230.769043,4183.589844,4308.205078,450.000000,4.000000,,,,0.000000,4.000000,4.000000,4.000000,4.000000,4.000000,,,,,,,,,,,,,,,,,,,,,,,,,
1577422235.663582,125.000000,0.000000,4288.205078,4374.358887,4214.358887,4154.358887,4281.025879,450.000000,4.000000,,,,0.000000,4.000000,4.000000,4.000000,4.000000,4.000000,,,,,,,,,,,,,,,,,,,,,,,,,
1577422235.671481,126.000000,0.000000,4287.179688,4356.922852,4191.282227,4147.692383,4254.358887,450.000000,4.000000,,,,0.000000,4.000000,4.000000,4.000000,4.000000,4.000000,,,,,,,,,,,,,,,,,,,,,,,,,
1577422235.679280,127.000000,0.000000,4295.384766,4360.512695,4206.153809,4154.358887,4270.769043,234.000000,4.000000,,,,0.000000,4.000000,4.000000,4.000000,4.000000,4.000000,,,,,,,,,,,,,,,,,,,,,,,,,
1577422235.687179,0.000000,0.000000,4274.358887,4372.307617,4207.179688,4136.922852,4266.666504,450.000000,4.000000,,,,0.000000,4.000000,4.000000,4.000000,4.000000,4.000000,,,,,,,,,,,,,,,,,,,,,,,,,
1577422235.694979,1.000000,0.000000,4263.589844,4385.641113,4209.230957,4160.512695,4264.102539,450.000000,4.000000,,,,0.000000,4.000000,4.000000,4.000000,4.000000,4.000000,,,,,,,,,,,,,,,,,,,,,,,,,
1577422235.702878,2.000000,0.000000,4275.384766,4373.846191,4198.974121,4147.179688,4244.102539,16179.000000,4.000000,,,,0.000000,4.000000,4.000000,4.000000,4.000000,4.000000,,,,,,,,,,,,,,,,,,,,,,,,,
1577422235.710677,3.000000,0.000000,4274.871582,4349.230957,4181.025879,4117.436035,4229.743652,450.000000,4.000000,,,,0.000000,4.000000,4.000000,4.000000,4.000000,4.000000,,,,,,,,,,,,,,,,,,,,,,,,,
1577422235.718576,4.000000,0.000000,4294.871582,4374.871582,4197.948730,4142.563965,4252.307617,16160.000000,4.000000,,,,0.000000,4.000000,4.000000,4.000000,4.000000,4.000000,,,,,,,,,,,,,,,,,,,,,,,,,
1577422235.726375,5.000000,0.000000,4300.512695,4383.077148,4198.461426,4148.717773,4234.358887,450.000000,4.000000,,,,0.000000,4.000000,4.000000,4.000000,4.000000,4.000000,,,,,,,,,,,,,,,,,,,,,,,,,
1577422235.734274,6.000000,0.000000,4300.512695,4373.333496,4184.615234,4154.358887,4227.692383,16175.000000,4.000000,,,,0.000000,4.000000,4.000000,4.000000,4.000000,4.000000,,,,,,,,,,,,,,,,,,,,,,,,,
1577422235.742173,7.000000,0.000000,4292.820313,4373.846191,4169.743652,4155.384766,4233.333496,450.000000,4.000000,,,,0.000000,4.000000,4.000000,4.000000,4.000000,4.000000,9.409649,4.666161,2.368704,4.654522,4.324677,12.089508,1.410935,0.654973,3.054453,1.508693,17.918413,3.616892,1.673364,2.726040,2.652376,5.229673,2.928804,1.505997,3.216215,2.788018,9.627477,4.115154,3.065949,4.228598,3.523834
1577422235.749973,8.000000,0.000000,4258.461426,4357.948730,4147.179688,4137.948730,4227.179688,450.000000,4.000000,,,,0.000000,4.000000,4.000000,4.000000,4.000000,4.000000,,,,,,,,,,,,,,,,,,,,,,,,,
1577422235.757872,9.000000,0.000000,4281.538574,4370.256348,4165.641113,4147.179688,4241.025879,16158.000000,4.000000,,,,0.000000,4.000000,4.000000,4.000000,4.000000,4.000000,,,,,,,,,,,,,,,,,,,,,,,,,
1577422235.765672,10.000000,0.000000,4310.256348,4371.794922,4184.615234,4148.205078,4226.666504,450.000000,4.000000,,,,0.000000,4.000000,4.000000,4.000000,4.000000,4.000000,,,,,,,,,,,,,,,,,,,,,,,,,
1577422235.773472,11.000000,0.000000,4332.307617,4375.897461,4196.922852,4170.769043,4252.820313,16201.000000,4.000000,,,,0.000000,4.000000,4.000000,4.000000,4.000000,4.000000,,,,,,,,,,,,,,,,,,,,,,,,,
1577422235.781370,12.000000,0.000000,4317.948730,4386.153809,4201.025879,4164.102539,4246.666504,450.000000,4.000000,,,,0.000000,4.000000,4.000000,4.000000,4.000000,4.000000,,,,,,,,,,,,,,,,,,,,,,,,,
1577422235.789270,13.000000,0.000000,4238.461426,4346.666504,4180.512695,4116.922852,4192.820313,450.000000,4.000000,,,,0.000000,4.000000,4.000000,4.000000,4.000000,4.000000,,,,,,,,,,,,,,,,,,,,,,,,,
1577422235.797069,14.000000,0.000000,4317.948730,4405.641113,4278.974121,4203.589844,4275.384766,450.000000,4.000000,,,,0.000000,4.000000,4.000000,4.000000,4.000000,4.000000,,,,,,,,,,,,,,,,,,,,,,,,,
1577422235.804968,15.000000,0.000000,4280.512695,4343.077148,4230.256348,4120.000000,4188.205078,16201.000000,4.000000,,,,0.000000,4.000000,4.000000,4.000000,4.000000,4.000000,,,,,,,,,,,,,,,,,,,,,,,,,
1577422235.812768,16.000000,0.000000,4234.871582,4284.615234,4165.128418,4049.230713,4197.948730,0.000000,4.000000,,,,0.000000,4.000000,4.000000,4.000000,4.000000,4.000000,,,,,,,,,,,,,,,,,,,,,,,,,
1577422235.820667,17.000000,0.000000,4575.384766,4569.230957,4425.641113,4253.846191,4435.897461,0.000000,4.000000,,,,0.000000,4.000000,4.000000,4.000000,4.000000,4.000000,,,,,,,,,,,,,,,,,,,,,,,,,
1577422235.828466,18.000000,0.000000,4179.487305,4254.358887,4168.205078,3936.923096,3994.871826,0.000000,4.000000,,,,0.000000,4.000000,4.000000,4.000000,4.000000,4.000000,,,,,,,,,,,,,,,,,,,,,,,,,
1577422235.836366,19.000000,0.000000,3871.281982,4045.641113,4087.179443,4020.512939,4029.743652,0.000000,4.000000,,,,0.000000,4.000000,4.000000,4.000000,4.000000,4.000000,,,,,,,,,,,,,,,,,,,,,,,,,
1577422235.844165,20.000000,0.000000,4487.179688,4547.692383,4523.589844,4446.666504,4503.077148,0.000000,4.000000,,,,0.000000,4.000000,4.000000,4.000000,4.000000,4.000000,,,,,,,,,,,,,,,,,,,,,,,,,
1577422235.852064,21.000000,0.000000,4260.512695,4345.128418,4229.743652,3949.230713,4004.615479,0.000000,4.000000,,,,0.000000,4.000000,4.000000,4.000000,4.000000,4.000000,,,,,,,,,,,,,,,,,,,,,,,,,
1577422235.859864,22.000000,0.000000,4017.948730,4211.794922,4158.461426,3918.974365,3978.974365,0.000000,4.000000,,,,0.000000,4.000000,4.000000,4.000000,4.000000,4.000000,,,,,,,,,,,,,,,,,,,,,,,,,
1577422235.867763,23.000000,0.000000,4330.256348,4472.820313,4414.871582,4202.051270,4278.974121,0.000000,4.000000,,,,0.000000,4.000000,4.000000,4.000000,4.000000,4.000000,8.819629,4.787884,3.623236,5.115412,4.012846,10.849683,1.388368,0.995357,2.842264,1.465769,16.230818,3.704968,2.305213,2.570061,2.497813,4.971004,3.026683,2.718706,3.450461,2.636949,10.027759,3.957644,4.187117,4.780218,3.488791
1577422235.875562,24.000000,0.000000,4235.384766,4371.282227,4287.179688,4043.589844,4103.589844,0.000000,4.000000,,,,0.000000,4.000000,4.000000,4.000000,4.000000,4.000000,,,,,,,,,,,,,,,,,,,,,,,,,
1577422235.883462,25.000000,0.000000,4237.436035,4397.436035,4311.794922,4123.589844,4169.743652,0.000000,4.000000,,,,0.000000,4.000000,4.000000,4.000000,4.000000,4.000000,,,,,,,,,,,,,,,,,,,,,,,,,
1577422235.891361,26.000000,0.000000,4296.410156,4447.179688,4328.205078,4153.846191,4204.102539,0.000000,4.000000,,,,0.000000,4.000000,4.000000,4.000000,4.000000,4.000000,,,,,,,,,,,,,,,,,,,,,,,,,
1577422235.899161,27.000000,0.000000,4240.000000,4384.102539,4258.461426,4104.615234,4164.615234,0.000000,4.000000,,,,0.000000,4.000000,4.000000,4.000000,4.000000,4.000000,,,,,,,,,,,,,,,,,,,,,,,,,
1577422235.907061,28.000000,0.000000,4324.615234,4455.897461,4317.436035,4197.436035,4277.948730,0.000000,4.000000,,,,0.000000,4.000000,4.000000,4.000000,4.000000,4.000000,,,,,,,,,,,,,,,,,,,,,,,,,
1577422235.914861,29.000000,0.000000,4375.897461,4491.282227,4301.538574,4173.333496,4253.846191,0.000000,4.000000,,,,0.000000,4.000000,4.000000,4.000000,4.000000,4.000000,,,,,,,,,,,,,,,,,,,,,,,,,
1577422235.922761,30.000000,0.000000,4151.282227,4289.743652,4113.333496,4040.512939,4087.692383,0.000000,4.000000,,,,0.000000,4.000000,4.000000,4.000000,4.000000,4.000000,,,,,,,,,,,,,,,,,,,,,,,,,
1577422235.930560,31.000000,0.000000,4407.179688,4499.487305,4340.512695,4325.128418,4375.384766,0.000000,4.000000,,,,0.000000,4.000000,4.000000,4.000000,4.000000,4.000000,,,,,,,,,,,,,,,,,,,,,,,,,
1577422235.938460,32.000000,0.000000,4515.897461,4548.717773,4364.615234,4243.077148,4302.563965,0.000000,4.000000,,,,0.000000,4.000000,4.000000,4.000000,4.000000,4.000000,,,,,,,,,,,,,,,,,,,,,,,,,
1577422235.946260,33.000000,0.000000,4153.333496,4234.871582,4148.717773,4017.948730,4080.000000,0.000000,4.000000,,,,0.000000,4.000000,4.000000,4.000000,4.000000,4.000000,,,,,,,,,,,,,,,,,,,,,,,,,
1577422235.954159,34.000000,0.000000,4383.589844,4415.897461,4392.307617,4290.769043,4390.769043,0.000000,4.000000,,,,0.000000,4.000000,4.000000,4.000000,4.000000,4.000000,,,,,,,,,,,,,,,,,,,,,,,,,
1577422235.961959,35.000000,0.000000,4332.820313,4335.384766,4286.666504,4112.820313,4217.948730,0.000000,4.000000,,,,0.000000,4.000000,4.000000,4.000000,4.000000,4.000000,,,,,,,,,,,,,,,,,,,,,,,,,
1577422235.969858,36.000000,0.000000,4182.051270,4221.538574,4180.512695,4086.153809,4160.512695,0.000000,4.000000,,,,0.000000,4.000000,4.000000,4.000000,4.000000,4.000000,,,,,,,,,,,,,,,,,,,,,,,,,
1577422235.977658,37.000000,0.000000,4318.974121,4330.256348,4243.077148,4220.512695,4269.743652,0.000000,4.000000,,,,0.000000,4.000000,4.000000,4.000000,4.000000,4.000000,,,,,,,,,,,,,,,,,,,,,,,,,
1577422235.985557,38.000000,0.000000,4213.333496,4231.282227,4132.820313,4117.436035,4157.436035,0.000000,4.000000,,,,0.000000,4.000000,4.000000,4.000000,4.000000,4.000000,,,,,,,,,,,,,,,,,,,,,,,,,
1577422235.993357,39.000000,0.000000,4270.769043,4285.128418,4189.230957,4204.102539,4270.256348,0.000000,4.000000,,,,0.000000,4.000000,4.000000,4.000000,4.000000,4.000000,8.328474,5.231257,5.454363,5.487044,3.749290,10.790648,1.525989,1.421747,2.607474,1.496101,16.608284,4.010261,3.067261,2.391218,2.372859,4.689354,3.425144,4.471138,3.487211,2.502228,10.212936,3.934210,5.645327,5.007069,3.507873
1577422236.001256,40.000000,0.000000,4225.641113,4249.230957,4100.512695,4098.974121,4195.897461,0.000000,4.000000,,,,0.000000,4.000000,4.000000,4.000000,4.000000,4.000000,,,,,,,,,,,,,,,,,,,,,,,,,
1577422236.009056,41.000000,0.000000,4154.871582,4200.512695,4025.641113,4046.153809,4140.512695,0.000000,4.000000,,,,0.000000,4.000000,4.000000,4.000000,4.000000,4.000000,,,,,,,,,,,,,,,,,,,,,,,,,
1577422236.016955,42.000000,0.000000,4222.051270,4253.333496,4074.871826,4119.487305,4196.410156,0.000000,4.000000,,,,0.000000,4.000000,4.000000,4.000000,4.000000,4.000000,,,,,,,,,,,,,,,,,,,,,,,,,
1577422236.024754,43.000000,0.000000,4196.410156,4235.897461,4071.794922,4095.897461,4171.282227,0.000000,4.000000,,,,0.000000,4.000000,4.000000,4.000000,4.000000,4.000000,,,,,,,,,,,,,,,,,,,,,,,,,
1577422236.032654,44.000000,0.000000,4186.666504,4249.743652,4085.641113,4090.256348,4171.282227,0.000000,4.000000,,,,0.000000,4.000000,4.000000,4.000000,4.000000,4.000000,,,,,,,,,,,,,,,,,,,,,,,,,
1577422236.040554,45.000000,0.000000,4183.077148,4261.025879,4089.230713,4078.974365,4166.666504,0.000000,4.000000,,,,0.000000,4.000000,4.000000,4.000000,4.000000,4.000000,,,,,,,,,,,,,,,,,,,,,,,,,
1577422236.048354,46.000000,0.000000,4198.461426,4282.563965,4127.179688,4095.384521,4203.589844,0.000000,4.000000,,,,0.000000,4.000000,4.000000,4.000000,4.000000,4.000000,,,,,,,,,,,,,,,,,,,,,,,,,
1577422236.056253,47.000000,0.000000,4246.153809,4332.307617,4183.589844,4113.846191,4232.307617,0.000000,4.000000,,,,0.000000,4.000000,4.000000,4.000000,4.000000,4.000000,,,,,,,,,,,,,,,,,,,,,,,,,
1577422236.064053,48.000000,0.000000,4226.153809,4330.256348,4182.563965,4094.871826,4202.563965,0.000000,4.000000,,,,0.000000,4.000000,4.000000,4.000000,4.000000,4.000000,,,,,,,,,,,,,,,,,,,,,,,,,
1577422236.071953,49.000000,0.000000,4196.410156,4337.948730,4208.205078,4106.153809,4194.358887,0.000000,4.000000,,,,0.000000,4.000000,4.000000,4.000000,4.000000,4.000000,,,,,,,,,,,,,,,,,,,,,,,,,
1577422236.079753,50.000000,0.000000,4210.769043,4358.974121,4257.948730,4111.282227,4204.102539,0.000000,4.000000,,,,0.000000,4.000000,4.000000,4.000000,4.000000,4.000000,,,,,,,,,,,,,,,,,,,,,,,,,
1577422236.087653,51.000000,0.000000,4238.974121,4355.384766,4275.897461,4092.307617,4224.615234,0.000000,4.000000,,,,0.000000,4.000000,4.000000,4.000000,4.000000,4.000000,,,,,,,,,,,,,,,,,,,,,,,,,
1577422236.095453,52.000000,0.000000,4271.794922,4378.974121,4310.769043,4121.538574,4245.641113,0.000000,4.000000,,,,0.000000,4.000000,4.000000,4.000000,4.000000,4.000000,,,,,,,,,,,,,,,,,,,,,,,,,
1577422236.103252,53.000000,0.000000,4255.384766,4381.538574,4328.205078,4128.717773,4224.615234,0.000000,4.000000,,,,0.000000,4.000000,4.000000,4.000000,4.000000,4.000000,,,,,,,,,,,,,,,,,,,,,,,,,
1577422236.111152,54.000000,0.000000,4218.461426,4358.461426,4327.179688,4102.051270,4201.538574,0.000000,4.000000,,,,0.000000,4.000000,4.000000,4.000000,4.000000,4.000000,,,,,,,,,,,,,,,,,,,,,,,,,
1577422236.119051,55.000000,0.000000,4223.589844,4364.102539,4333.846191,4091.281982,4198.974121,0.000000,4.000000,,,,0.000000,4.000000,4.000000,4.000000,4.000000,4.000000,8.153207,5.816519,7.479727,5.945129,4.948384,11.491517,1.780619,1.860681,2.509597,2.432658,18.149080,4.215679,3.800748,2.212502,2.921014,4.544078,3.924582,6.332852,3.418511,3.235050,10.360094,3.985332,7.034988,4.826278,4.660099
1577422236.126851,56.000000,0.000000,4229.230957,4376.922852,4315.897461,4079.487061,4197.436035,0.000000,4.000000,,,,0.000000,4.000000,4.000000,4.000000,4.000000,4.000000,,,,,,,,,,,,,,,,,,,,,,,,,
1577422236.134650,57.000000,0.000000,4243.077148,4403.077148,4327.179688,4103.589844,4205.128418,0.000000,4.000000,,,,0.000000,4.000000,4.000000,4.000000,4.000000,4.000000,,,,,,,,,,,,,,,,,,,,,,,,,
1577422236.142549,58.000000,0.000000,4236.922852,4393.333496,4335.897461,4103.589844,4194.871582,0.000000,4.000000,,,,0.000000,4.000000,4.000000,4.000000,4.000000,4.000000,,,,,,,,,,,,,,,,,,,,,,,,,
1577422236.150348,59.000000,0.000000,4185.128418,4348.717773,4311.794922,4056.923096,4163.589844,0.000000,4.000000,,,,0.000000,4.000000,4.000000,4.000000,4.000000,4.000000,,,,,,,,,,,,,,,,,,,,,,,,,
1577422236.158247,60.000000,0.000000,4198.974121,4384.102539,4336.410156,4080.000000,4189.743652,0.000000,4.000000,,,,0.000000,4.000000,4.000000,4.000000,4.000000,4.000000,,,,,,,,,,,,,,,,,,,,,,,,,
1577422236.166146,61.000000,0.000000,4266.153809,4437.948730,4363.077148,4118.461426,4244.615234,0.000000,4.000000,,,,0.000000,4.000000,4.000000,4.000000,4.000000,4.000000,,,,,,,,,,,,,,,,,,,,,,,,,
1577422236.173946,62.000000,0.000000,4265.641113,4423.589844,4345.641113,4097.948730,4227.692383,0.000000,4.000000,,,,0.000000,4.000000,4.000000,4.000000,4.000000,4.000000,,,,,,,,,,,,,,,,,,,,,,,,,
1577422236.181845,63.000000,0.000000,4242.051270,4404.615234,4323.589844,4076.410156,4196.410156,0.000000,4.000000,,,,0.000000,4.000000,4.000000,4.000000,4.000000,4.000000,,,,,,,,,,,,,,,,,,,,,,,,,
1577422236.189645,64.000000,0.000000,4260.000000,4421.025879,4324.102539,4107.692383,4230.769043,450.000000,4.000000,,,,0.000000,4.000000,4.000000,4.000000,4.000000,4.000000,,,,,,,,,,,,,,,,,,,,,,,,,
1577422236.197544,65.000000,0.000000,4290.769043,4440.512695,4337.436035,4155.384766,4272.307617,450.000000,4.000000,,,,0.000000,4.000000,4.000000,4.000000,4.000000,4.000000,,,,,,,,,,,,,,,,,,,,,,,,,
1577422236.205344,66.000000,0.000000,4284.102539,4418.461426,4302.563965,4112.820313,4246.153809,16151.000000,4.000000,,,,0.000000,4.000000,4.000000,4.000000,4.000000,4.000000,,,,,,,,,,,,,,,,,,,,,,,,,
1577422236.213243,67.000000,0.000000,4265.641113,4392.820313,4271.794922,4085.128174,4224.615234,450.000000,4.000000,,,,0.000000,4.000000,4.000000,4.000000,4.000000,4.000000,,,,,,,,,,,,,,,,,,,,,,,,,
1577422236.221042,68.000000,0.000000,4293.333496,4397.436035,4285.128418,4121.025879,4254.871582,16167.000000,4.000000,,,,0.000000,4.000000,4.000000,4.000000,4.000000,4.000000,,,,,,,,,,,,,,,,,,,,,,,,,
1577422236.228942,69.000000,0.000000,4305.128418,4373.846191,4272.307617,4089.230713,4246.666504,450.000000,4.000000,,,,0.000000,4.000000,4.000000,4.000000,4.000000,4.000000,,,,,,,,,,,,,,,,,,,,,,,,,
1577422236.236741,70.000000,0.000000,4275.897461,4338.974121,4260.000000,4078.974365,4216.410156,16214.000000,4.000000,,,,0.000000,4.000000,4.000000,4.000000,4.000000,4.000000,,,,,,,,,,,,,,,,,,,,,,,,,
1577422236.244640,71.000000,0.000000,4263.589844,4332.820313,4248.205078,4113.333496,4207.692383,450.000000,4.000000,,,,0.000000,4.000000,4.000000,4.000000,4.000000,4.000000,10.020032,6.377787,9.210211,6.756962,9.878353,15.095883,2.100549,2.283324,2.693332,5.633418,22.067677,4.247877,4.420980,2.056226,5.208221,5.400412,4.279417,7.772316,3.494549,6.292046,11.797347,4.093227,7.905596,4.314668,8.770186
1577422236.252440,72.000000,0.000000,4272.307617,4337.948730,4232.820313,4112.307617,4218.461426,450.000000,4.000000,,,,0.000000,4.000000,4.000000,4.000000,4.000000,4.000000,,,,,,,,,,,,,,,,,,,,,,,,,
1577422236.260339,73.000000,0.000000,4283.077148,4337.436035,4232.307617,4090.256348,4228.717773,16173.000000,4.000000,,,,0.000000,4.000000,4.000000,4.000000,4.000000,4.000000,,,,,,,,,,,,,,,,,,,,,,,,,
1577422236.268138,74.000000,0.000000,4290.769043,4331.794922,4223.589844,4079.487061,4210.769043,450.000000,4.000000,,,,0.000000,4.000000,4.000000,4.000000,4.000000,4.000000,,,,,,,,,,,,,,,,,,,,,,,,,
1577422236.276038,75.000000,0.000000,4323.589844,4356.410156,4243.077148,4123.077148,4243.077148,16153.000000,4.000000,,,,0.000000,4.000000,4.000000,4.000000,4.000000,4.000000,,,,,,,,,,,,,,,,,,,,,,,,,
1577422236.283837,76.000000,0.000000,4328.717773,4366.666504,4249.743652,4129.230957,4262.051270,450.000000,4.000000,,,,0.000000,4.000000,4.000000,4.000000,4.000000,4.000000,,,,,,,,,,,,,,,,,,,,,,,,,
1577422236.291736,77.000000,0.000000,4287.179688,4333.846191,4223.077148,4091.281982,4227.692383,450.000000,4.000000,,,,0.000000,4.000000,4.000000,4.000000,4.000000,4.000000,,,,,,,,,,,,,,,,,,,,,,,,,
1577422236.299535,78.000000,0.000000,4315.384766,4356.410156,4253.846191,4118.461426,4265.641113,450.000000,4.000000,,,,0.000000,4.000000,4.000000,4.000000,4.000000,4.000000,,,,,,,,,,,,,,,,,,,,,,,,,
1577422236.307434,79.000000,0.000000,4371.282227,4403.077148,4304.615234,4152.307617,4301.025879,16153.000000,4.000000,,,,0.000000,4.000000,4.000000,4.000000,4.000000,4.000000,,,,,,,,,,,,,,,,,,,,,,,,,
1577422236.315233,80.000000,0.000000,4370.769043,4397.436035,4305.641113,4152.307617,4288.205078,450.000000,4.000000,,,,0.000000,4.000000,4.000000,4.000000,4.000000,4.000000,,,,,,,,,,,,,,,,,,,,,,,,,
1577422236.323132,81.000000,0.000000,4354.871582,4395.384766,4300.512695,4140.000000,4272.820313,450.000000,4.000000,,,,0.000000,4.000000,4.000000,4.000000,4.000000,4.000000,,,,,,,,,,,,,,,,,,,,,,,,,
1577422236.331031,82.000000,0.000000,4334.358887,4407.179688,4307.179688,4121.538574,4241.025879,450.000000,4.000000,,,,0.000000,4.000000,4.000000,4.000000,4.000000,4.000000,,,,,,,,,,,,,,,,,,,,,,,,,
1577422236.338831,83.000000,0.000000,4304.102539,4399.487305,4286.153809,4111.794922,4212.307617,16153.000000,4.000000,,,,0.000000,4.000000,4.000000,4.000000,4.000000,4.000000,,,,,,,,,,,,,,,,,,,,,,,,,
1577422236.346731,84.000000,0.000000,4271.794922,4388.205078,4257.436035,4104.102539,4188.717773,450.000000,4.000000,,,,0.000000,4.000000,4.000000,4.000000,4.000000,4.000000,,,,,,,,,,,,,,,,,,,,,,,,,
1577422236.354530,85.000000,0.000000,4263.589844,4392.307617,4265.641113,4114.358887,4202.563965,450.000000,4.000000,,,,0.000000,4.000000,4.000000,4.000000,4.000000,4.000000,,,,,,,,,,,,,,,,,,,,,,,,,
1577422236.362430,86.000000,0.000000,4284.615234,4406.153809,4292.307617,4120.512695,4218.974121,450.000000,4.000000,,,,0.000000,4.000000,4.000000,4.000000,4.000000,4.000000,,,,,,,,,,,,,,,,,,,,,,,,,
1577422236.370229,87.000000,0.000000,4303.077148,4409.743652,4310.769043,4117.436035,4197.948730,16153.000000,4.000000,,,,0.000000,4.000000,4.000000,4.000000,4.000000,4.000000,15.832912,6.809220,10.192903,8.072830,19.980799,24.343163,2.478766,2.707895,3.189999,11.975505,31.376993,4.606180,4.932466,1.944856,9.944721,8.242359,4.326778,8.367666,3.973315,12.666985,15.717881,4.267720,7.948526,3.666022,17.042585
1577422236.378129,88.000000,0.000000,4332.307617,4417.948730,4332.820313,4149.230957,4217.948730,450.000000,4.000000,,,,0.000000,4.000000,4.000000,4.000000,4.000000,4.000000,,,,,,,,,,,,,,,,,,,,,,,,,
1577422236.385928,89.000000,0.000000,4334.358887,4429.743652,4344.102539,4172.820313,4236.410156,450.000000,4.000000,,,,0.000000,4.000000,4.000000,4.000000,4.000000,4.000000,,,,,,,,,,,,,,,,,,,,,,,,,
1577422236.393828,90.000000,0.000000,4303.077148,4417.948730,4330.769043,4158.461426,4234.358887,450.000000,4.000000,,,,0.000000,4.000000,4.000000,4.000000,4.000000,4.000000,,,,,,,,,,,,,,,,,,,,,,,,,
1577422236.401628,91.000000,0.000000,4295.384766,4387.692383,4306.153809,4132.307617,4228.717773,16153.000000,4.000000,,,,0.000000,4.000000,4.000000,4.000000,4.000000,4.000000,,,,,,,,,,,,,,,,,,,,,,,,,
1577422236.409527,92.000000,0.000000,4312.820313,4385.641113,4300.512695,4145.641113,4212.307617,450.000000,4.000000,,,,0.000000,4.000000,4.000000,4.000000,4.000000,4.000000,,,,,,,,,,,,,,,,,,,,,,,,,
1577422236.417326,93.000000,0.000000,4340.000000,4426.666504,4323.077148,4188.717773,4235.897461,450.000000,4.000000,,,,0.000000,4.000000,4.000000,4.000000,4.000000,4.000000,,,,,,,,,,,,,,,,,,,,,,,,,
1577422236.425226,94.000000,0.000000,4302.563965,4410.769043,4312.820313,4162.563965,4211.794922,450.000000,4.000000,,,,0.000000,4.000000,4.000000,4.000000,4.000000,4.000000,,,,,,,,,,,,,,,,,,,,,,,,,
1577422236.433025,95.000000,0.000000,4235.897461,4354.871582,4270.256348,4122.051270,4152.820313,16153.000000,4.000000,,,,0.000000,4.000000,4.000000,4.000000,4.000000,4.000000,,,,,,,,,,,,,,,,,,,,,,,,,
1577422236.440924,96.000000,0.000000,4263.589844,4373.846191,4270.256348,4165.641113,4177.948730,450.000000,4.000000,,,,0.000000,4.000000,4.000000,4.000000,4.000000,4.000000,,,,,,,,,,,,,,,,,,,,,,,,,
1577422236.448824,97.000000,0.000000,4286.666504,4386.153809,4275.897461,4178.974121,4196.922852,450.000000,4.000000,,,,0.000000,4.000000,4.000000,4.000000,4.000000,4.000000,,,,,,,,,,,,,,,,,,,,,,,,,
1577422236.456624,98.000000,0.000000,4271.282227,4358.974121,4252.307617,4136.922852,4193.333496,450.000000,4.000000,,,,0.000000,4.000000,4.000000,4.000000,4.000000,4.000000,,,,,,,,,,,,,,,,,,,,,,,,,
1577422236.464524,99.000000,0.000000,4260.512695,4347.692383,4227.692383,4130.256348,4185.128418,16153.000000,4.000000,,,,0.000000,4.000000,4.000000,4.000000,4.000000,4.000000,,,,,,,,,,,,,,,,,,,,,,,,,
1577422236.472323,100.000000,0.000000,4253.846191,4357.948730,4226.153809,4149.230957,4177.948730,450.000000,4.000000,,,,0.000000,4.000000,4.000000,4.000000,4.000000,4.000000,,,,,,,,,,,,,,,,,,,,,,,,,
1577422236.480223,101.000000,0.000000,4282.051270,4383.077148,4241.538574,4162.051270,4201.538574,450.000000,4.000000,,,,0.000000,4.000000,4.000000,4.000000,4.000000,4.000000,,,,,,,,,,,,,,,,,,,,,,,,,
1577422236.488023,102.000000,0.000000,4241.025879,4343.589844,4209.743652,4141.538574,4173.846191,450.000000,4.000000,,,,0.000000,4.000000,4.000000,4.000000,4.000000,4.000000,,,,,,,,,,,,,,,,,,,,,,,,,
1577422236.495923,103.000000,0.000000,4211.282227,4312.820313,4188.205078,4132.820313,4158.974121,16153.000000,4.000000,,,,0.000000,4.000000,4.000000,4.000000,4.000000,4.000000,25.623346,7.201922,10.200822,9.759068,34.379162,40.894211,2.967666,3.139389,3.889059,20.935232,48.822266,6.074588,5.367986,1.888795,16.756012,13.394230,4.078539,7.977961,4.910162,21.900776,21.937487,4.642114,7.110859,3.083772,28.824669
1577422236.503723,104.000000,0.000000,4274.358887,4350.769043,4208.205078,4158.461426,4206.153809,450.000000,4.000000,,,,0.000000,4.000000,4.000000,4.000000,4.000000,4.000000,,,,,,,,,,,,,,,,,,,,,,,,,
1577422236.511622,105.000000,0.000000,4291.794922,4358.974121,4198.974121,4184.102539,4229.743652,450.000000,4.000000,,,,0.000000,4.000000,4.000000,4.000000,4.000000,4.000000,,,,,,,,,,,,,,,,,,,,,,,,,
1577422236.519422,106.000000,0.000000,4285.641113,4352.820313,4189.230957,4192.820313,4228.205078,450.000000,4.000000,,,,0.000000,4.000000,4.000000,4.000000,4.000000,4.000000,,,,,,,,,,,,,,,,,,,,,,,,,
1577422236.527321,107.000000,0.000000,4275.384766,4338.974121,4191.282227,4169.230957,4210.769043,16153.000000,4.000000,,,,0.000000,4.000000,4.000000,4.000000,4.000000,4.000000,,,,,,,,,,,,,,,,,,,,,,,,,
1577422236.535121,108.000000,0.000000,4272.307617,4341.538574,4208.717773,4181.538574,4226.666504,450.000000,4.000000,,,,0.000000,4.000000,4.000000,4.000000,4.000000,4.000000,,,,,,,,,,,,,,,,,,,,,,,,,
1577422236.543021,109.000000,0.000000,4280.512695,4351.794922,4215.897461,4209.743652,4252.820313,450.000000,4.000000,,,,0.000000,4.000000,4.000000,4.000000,4.000000,4.000000,,,,,,,,,,,,,,,,,,,,,,,,,
1577422236.550820,110.000000,0.000000,4242.051270,4308.717773,4172.307617,4168.205078,4228.717773,450.000000,4.000000,,,,0.000000,4.000000,4.000000,4.000000,4.000000,4.000000,,,,,,,,,,,,,,,,,,,,,,,,,
1577422236.558720,111.000000,0.000000,4240.000000,4304.615234,4163.077148,4138.974121,4220.000000,16153.000000,4.000000,,,,0.000000,4.000000,4.000000,4.000000,4.000000,4.000000,,,,,,,,,,,,,,,,,,,,,,,,,
1577422236.566519,112.000000,0.000000,4254.358887,4329.743652,4184.615234,4162.563965,4225.641113,450.000000,4.000000,,,,0.000000,4.000000,4.000000,4.000000,4.000000,4.000000,,,,,,,,,,,,,,,,,,,,,,,,,
1577422236.574319,113.000000,0.000000,4243.589844,4322.051270,4204.102539,4190.256348,4229.230957,450.000000,4.000000,,,,0.000000,4.000000,4.000000,4.000000,4.000000,4.000000,,,,,,,,,,,,,,,,,,,,,,,,,
1577422236.582218,114.000000,0.000000,4260.512695,4324.102539,4233.333496,4203.589844,4250.769043,450.000000,4.000000,,,,0.000000,4.000000,4.000000,4.000000,4.000000,4.000000,,,,,,,,,,,,,,,,,,,,,,,,,
1577422236.590117,115.000000,0.000000,4268.717773,4316.410156,4214.871582,4191.282227,4260.000000,16153.000000,4.000000,,,,0.000000,4.000000,4.000000,4.000000,4.000000,4.000000,,,,,,,,,,,,,,,,,,,,,,,,,
1577422236.597916,116.000000,0.000000,4283.077148,4322.051270,4206.153809,4183.077148,4270.769043,450.000000,4.000000,,,,0.000000,4.000000,4.000000,4.000000,4.000000,4.000000,,,,,,,,,,,,,,,,,,,,,,,,,
1577422236.605816,117.000000,0.000000,4293.333496,4332.307617,4225.128418,4171.794922,4277.948730,450.000000,4.000000,,,,0.000000,4.000000,4.000000,4.000000,4.000000,4.000000,,,,,,,,,,,,,,,,,,,,,,,,,
1577422236.613615,118.000000,0.000000,4264.102539,4318.461426,4220.000000,4166.666504,4261.025879,450.000000,4.000000,,,,0.000000,4.000000,4.000000,4.000000,4.000000,4.000000,,,,,,,,,,,,,,,,,,,,,,,,,
1577422236.621514,119.000000,0.000000,4269.743652,4326.666504,4229.743652,4191.282227,4263.077148,16153.000000,4.000000,,,,0.000000,4.000000,4.000000,4.000000,4.000000,4.000000,37.587402,7.836213,9.365205,11.409757,49.652161,63.519180,3.684391,3.547464,4.560062,30.425657,75.797142,9.142559,5.794058,1.884263,24.042612,19.864483,3.795533,6.830406,6.083409,31.880030,28.817205,5.597571,5.709913,2.693522,41.358517
1577422236.629314,120.000000,0.000000,4283.589844,4330.256348,4224.615234,4173.333496,4272.820313,450.000000,4.000000,,,,0.000000,4.000000,4.000000,4.000000,4.000000,4.000000,,,,,,,,,,,,,,,,,,,,,,,,,
1577422236.637213,121.000000,0.000000,4277.436035,4337.436035,4218.974121,4162.051270,4265.128418,450.000000,4.000000,,,,0.000000,4.000000,4.000000,4.000000,4.000000,4.000000,,,,,,,,,,,,,,,,,,,,,,,,,
1577422236.645113,122.000000,0.000000,4274.871582,4346.153809,4223.077148,4180.000000,4251.282227,450.000000,4.000000,,,,0.000000,4.000000,4.000000,4.000000,4.000000,4.000000,,,,,,,,,,,,,,,,,,,,,,,,,
1577422236.652913,123.000000,0.000000,4278.461426,4336.410156,4216.922852,4168.717773,4259.487305,16153.000000,4.000000,,,,0.000000,4.000000,4.000000,4.000000,4.000000,4.000000,,,,,,,,,,,,,,,,,,,,,,,,,
1577422236.660713,124.000000,0.000000,4300.000000,4352.307617,4230.256348,4172.307617,4287.692383,450.000000,4.000000,,,,0.000000,4.000000,4.000000,4.000000,4.000000,4.000000,,,,,,,,,,,,,,,,,,,,,,,,,
1577422236.668612,125.000000,0.000000,4288.205078,4349.230957,4211.794922,4162.051270,4270.769043,450.000000,4.000000,,,,0.000000,4.000000,4.000000,4.000000,4.000000,4.000000,,,,,,,,,,,,,,,,,,,,,,,,,
1577422236.676411,126.000000,0.000000,4254.871582,4328.717773,4183.077148,4143.589844,4226.153809,450.000000,4.000000,,,,0.000000,4.000000,4.000000,4.000000,4.000000,4.000000,,,,,,,,,,,,,,,,,,,,,,,,,
1577422236.684310,127.000000,0.000000,4266.666504,4338.974121,4186.153809,4152.820313,4231.282227,234.000000,4.000000,,,,0.000000,4.000000,4.000000,4.000000,4.000000,4.000000,,,,,,,,,,,,,,,,,,,,,,,,,
1577422236.692110,0.000000,0.000000,4274.871582,4335.384766,4166.666504,4142.563965,4254.871582,450.000000,4.000000,,,,0.000000,4.000000,4.000000,4.000000,4.000000,4.000000,,,,,,,,,,,,,,,,,,,,,,,,,
1577422236.700009,1.000000,0.000000,4288.717773,4341.025879,4160.512695,4158.974121,4271.794922,450.000000,4.000000,,,,0.000000,4.000000,4.000000,4.000000,4.000000,4.000000,,,,,,,,,,,,,,,,,,,,,,,,,
1577422236.707808,2.000000,0.000000,4302.051270,4336.922852,4149.230957,4169.743652,4274.358887,16176.000000,4.000000,,,,0.000000,4.000000,4.000000,4.000000,4.000000,4.000000,,,,,,,,,,,,,,,,,,,,,,,,,
1577422236.715707,3.000000,0.000000,4263.589844,4307.692383,4110.769043,4140.512695,4241.538574,450.000000,4.000000,,,,0.000000,4.000000,4.000000,4.000000,4.000000,4.000000,,,,,,,,,,,,,,,,,,,,,,,,,
1577422236.723506,4.000000,0.000000,4247.179688,4316.922852,4104.615234,4134.358887,4221.538574,16199.000000,4.000000,,,,0.000000,4.000000,4.000000,4.000000,4.000000,4.000000,,,,,,,,,,,,,,,,,,,,,,,,,
1577422236.731405,5.000000,0.000000,4276.922852,4321.538574,4110.769043,4135.897461,4243.077148,450.000000,4.000000,,,,0.000000,4.000000,4.000000,4.000000,4.000000,4.000000,,,,,,,,,,,,,,,,,,,,,,,,,
1577422236.739304,6.000000,0.000000,4303.589844,4310.256348,4115.384766,4161.538574,4279.487305,16141.000000,4.000000,,,,0.000000,4.000000,4.000000,4.000000,4.000000,4.000000,,,,,,,,,,,,,,,,,,,,,,,,,
1577422236.747104,7.000000,0.000000,4280.000000,4285.641113,4078.974365,4152.307617,4260.000000,450.000000,4.000000,,,,0.000000,4.000000,4.000000,4.000000,4.000000,4.000000,48.361862,8.962582,8.110583,12.477655,61.063435,87.490067,4.666844,3.845889,4.944587,37.547497,108.570007,13.452565,6.234681,1.930206,29.555210,25.615265,3.785866,5.381562,7.072427,39.592953,34.248768,7.407783,4.275771,2.494835,50.773003
1577422236.755004,8.000000,0.000000,4223.589844,4257.436035,4021.538574,4107.179688,4205.641113,450.000000,4.000000,,,,0.000000,4.000000,4.000000,4.000000,4.000000,4.000000,,,,,,,,,,,,,,,,,,,,,,,,,
1577422236.762803,9.000000,0.000000,4241.538574,4286.666504,4038.974365,4134.871582,4226.153809,16145.000000,4.000000,,,,0.000000,4.000000,4.000000,4.000000,4.000000,4.000000,,,,,,,,,,,,,,,,,,,,,,,,,
1577422236.770703,10.000000,0.000000,4286.666504,4308.717773,4067.179443,4150.256348,4258.974121,450.000000,4.000000,,,,0.000000,4.000000,4.000000,4.000000,4.000000,4.000000,,,,,,,,,,,,,,,,,,,,,,,,,
1577422236.778502,11.000000,0.000000,4287.692383,4306.153809,4073.333252,4144.615234,4258.974121,16156.000000,4.000000,,,,0.000000,4.000000,4.000000,4.000000,4.000000,4.000000,,,,,,,,,,,,,,,,,,,,,,,,,
1577422236.786402,12.000000,0.000000,4285.641113,4316.410156,4076.923096,4157.948730,4253.846191,450.000000,4.000000,,,,0.000000,4.000000,4.000000,4.000000,4.000000,4.000000,,,,,,,,,,,,,,,,,,,,,,,,,
1577422236.794201,13.000000,0.000000,4263.589844,4303.077148,4067.692383,4131.794922,4239.487305,450.000000,4.000000,,,,0.000000,4.000000,4.000000,4.000000,4.000000,4.000000,,,,,,,,,,,,,,,,,,,,,,,,,
1577422236.802100,14.000000,0.000000,4261.538574,4307.179688,4092.307617,4122.051270,4261.538574,450.000000,4.000000,,,,0.000000,4.000000,4.000000,4.000000,4.000000,4.000000,,,,,,,,,,,,,,,,,,,,,,,,,
1577422236.809900,15.000000,0.000000,4282.563965,4329.743652,4110.256348,4135.897461,4256.922852,16156.000000,4.000000,,,,0.000000,4.000000,4.000000,4.000000,4.000000,4.000000,,,,,,,,,,,,,,,,,,,,,,,,,
1577422236.817799,16.000000,0.000000,4272.307617,4326.153809,4109.743652,4149.743652,4225.128418,0.000000,4.000000,,,,0.000000,4.000000,4.000000,4.000000,4.000000,4.000000,,,,,,,,,,,,,,,,,,,,,,,,,
1577422236.825598,17.000000,0.000000,4280.000000,4342.051270,4146.666504,4157.436035,4229.743652,0.000000,4.000000,,,,0.000000,4.000000,4.000000,4.000000,4.000000,4.000000,,,,,,,,,,,,,,,,,,,,,,,,,
1577422236.833498,18.000000,0.000000,4263.589844,4328.205078,4145.128418,4114.358887,4192.820313,0.000000,4.000000,,,,0.000000,4.000000,4.000000,4.000000,4.000000,4.000000,,,,,,,,,,,,,,,,,,,,,,,,,
1577422236.841297,19.000000,0.000000,4240.512695,4309.743652,4146.666504,4110.256348,4180.000000,0.000000,4.000000,,,,0.000000,4.000000,4.000000,4.000000,4.000000,4.000000,,,,,,,,,,,,,,,,,,,,,,,,,
1577422236.849196,20.000000,0.000000,4251.794922,4358.461426,4203.589844,4135.897461,4190.769043,0.000000,4.000000,,,,0.000000,4.000000,4.000000,4.000000,4.000000,4.000000,,,,,,,,,,,,,,,,,,,,,,,,,
1577422236.856995,21.000000,0.000000,4255.384766,4376.410156,4243.077148,4157.436035,4194.358887,0.000000,4.000000,,,,0.000000,4.000000,4.000000,4.000000,4.000000,4.000000,,,,,,,,,,,,,,,,,,,,,,,,,
1577422236.864894,22.000000,0.000000,4285.641113,4363.077148,4270.256348,4193.333496,4232.820313,0.000000,4.000000,,,,0.000000,4.000000,4.000000,4.000000,4.000000,4.000000,,,,,,,,,,,,,,,,,,,,,,,,,
1577422236.872693,23.000000,0.000000,4277.948730,4344.615234,4265.128418,4153.846191,4194.871582,0.000000,4.000000,,,,0.000000,4.000000,4.000000,4.000000,4.000000,4.000000,54.160217,10.628037,6.938527,12.582900,64.710533,105.922585,5.857620,3.931988,4.895731,39.891129,140.572189,17.838301,6.614514,2.021510,31.397264,28.573294,4.216361,4.117534,7.458240,42.462837,36.205307,9.984165,3.296150,2.407306,53.819691
1577422236.880592,24.000000,0.000000,4296.922852,4372.307617,4287.179688,4161.538574,4198.461426,0.000000,4.000000,,,,0.000000,4.000000,4.000000,4.000000,4.000000,4.000000,,,,,,,,,,,,,,,,,,,,,,,,,
1577422236.888492,25.000000,0.000000,4343.077148,4404.102539,4328.717773,4210.256348,4235.897461,0.000000,4.000000,,,,0.000000,4.000000,4.000000,4.000000,4.000000,4.000000,,,,,,,,,,,,,,,,,,,,,,,,,
1577422236.896292,26.000000,0.000000,4193.846191,4267.179688,4235.897461,4131.794922,4150.769043,0.000000,4.000000,,,,0.000000,4.000000,4.000000,4.000000,4.000000,4.000000,,,,,,,,,,,,,,,,,,,,,,,,,
1577422236.904192,27.000000,0.000000,4360.512695,4406.666504,4387.692383,4289.230957,4325.641113,0.000000,4.000000,,,,0.000000,4.000000,4.000000,4.000000,4.000000,4.000000,,,,,,,,,,,,,,,,,,,,,,,,,
1577422236.911991,28.000000,0.000000,4371.794922,4380.000000,4338.461426,4169.743652,4184.102539,0.000000,4.000000,,,,0.000000,4.000000,4.000000,4.000000,4.000000,4.000000,,,,,,,,,,,,,,,,,,,,,,,,,
1577422236.919891,29.000000,0.000000,3738.461426,3841.025635,3901.538574,3845.641113,3845.641113,0.000000,4.000000,,,,0.000000,4.000000,4.000000,4.000000,4.000000,4.000000,,,,,,,,,,,,,,,,,,,,,,,,,
1577422236.927691,30.000000,0.000000,4056.410156,4125.128418,4221.025879,4347.179688,4357.948730,0.000000,4.000000,,,,0.000000,4.000000,4.000000,4.000000,4.000000,4.000000,,,,,,,,,,,,,,,,,,,,,,,,,
1577422236.935590,31.000000,0.000000,4339.487305,4320.512695,4285.641113,4228.717773,4189.743652,0.000000,4.000000,,,,0.000000,4.000000,4.000000,4.000000,4.000000,4.000000,,,,,,,,,,,,,,,,,,,,,,,,,
1577422236.943390,32.000000,0.000000,3869.230713,3934.871826,3933.846191,3755.897461,3700.512939,0.000000,4.000000,,,,0.000000,4.000000,4.000000,4.000000,4.000000,4.000000,,,,,,,,,,,,,,,,,,,,,,,,,
1577422236.951289,33.000000,0.000000,4118.461426,4148.717773,4229.743652,4148.717773,4135.897461,0.000000,4.000000,,,,0.000000,4.000000,4.000000,4.000000,4.000000,4.000000,,,,,,,,,,,,,,,,,,,,,,,,,
1577422236.959089,34.000000,0.000000,4254.358887,4215.384766,4276.410156,4153.333496,4151.282227,0.000000,4.000000,,,,0.000000,4.000000,4.000000,4.000000,4.000000,4.000000,,,,,,,,,,,,,,,,,,,,,,,,,
1577422236.966989,35.000000,0.000000,4120.000000,4120.512695,4189.743652,4047.179443,4043.589844,0.000000,4.000000,,,,0.000000,4.000000,4.000000,4.000000,4.000000,4.000000,,,,,,,,,,,,,,,,,,,,,,,,,
1577422236.974788,36.000000,0.000000,4180.000000,4186.666504,4250.769043,4125.641113,4128.205078,0.000000,4.000000,,,,0.000000,4.000000,4.000000,4.000000,4.000000,4.000000,,,,,,,,,,,,,,,,,,,,,,,,,
1577422236.982688,37.000000,0.000000,4144.615234,4135.384766,4202.051270,4065.128174,4073.846191,0.000000,4.000000,,,,0.000000,4.000000,4.000000,4.000000,4.000000,4.000000,,,,,,,,,,,,,,,,,,,,,,,,,
1577422236.990487,38.000000,0.000000,4239.487305,4194.871582,4289.743652,4191.282227,4185.128418,0.000000,4.000000,,,,0.000000,4.000000,4.000000,4.000000,4.000000,4.000000,,,,,,,,,,,,,,,,,,,,,,,,,
1577422236.998386,39.000000,0.000000,4291.794922,4235.384766,4344.615234,4235.897461,4237.436035,0.000000,4.000000,,,,0.000000,4.000000,4.000000,4.000000,4.000000,4.000000,52.540806,12.468246,6.197093,11.668792,59.330322,113.725288,6.897882,3.737042,4.437902,36.668350,165.740860,20.739868,6.833362,2.139377,28.907465,27.623703,4.936552,3.310808,7.027011,39.525364,33.746468,12.813160,2.999510,2.344041,49.404594
1577422237.006186,40.000000,0.000000,4270.256348,4230.769043,4334.871582,4185.641113,4224.102539,0.000000,4.000000,,,,0.000000,4.000000,4.000000,4.000000,4.000000,4.000000,,,,,,,,,,,,,,,,,,,,,,,,,
1577422237.014085,41.000000,0.000000,4282.051270,4240.000000,4317.948730,4194.871582,4224.102539,0.000000,4.000000,,,,0.000000,4.000000,4.000000,4.000000,4.000000,4.000000,,,,,,,,,,,,,,,,,,,,,,,,,
1577422237.021985,42.000000,0.000000,4272.307617,4215.897461,4282.563965,4194.871582,4198.974121,0.000000,4.000000,,,,0.000000,4.000000,4.000000,4.000000,4.000000,4.000000,,,,,,,,,,,,,,,,,,,,,,,,,
1577422237.029785,43.000000,0.000000,4281.025879,4224.615234,4292.307617,4188.205078,4206.666504,0.000000,4.000000,,,,0.000000,4.000000,4.000000,4.000000,4.000000,4.000000,,,,,,,,,,,,,,,,,,,,,,,,,
1577422237.037585,44.000000,0.000000,4295.897461,4243.077148,4311.282227,4186.153809,4227.692383,0.000000,4.000000,,,,0.000000,4.000000,4.000000,4.000000,4.000000,4.000000,,,,,,,,,,,,,,,,,,,,,,,,,
1577422237.045484,45.000000,0.000000,4254.871582,4202.051270,4277.948730,4154.358887,4196.410156,0.000000,4.000000,,,,0.000000,4.000000,4.000000,4.000000,4.000000,4.000000,,,,,,,,,,,,,,,,,,,,,,,,,
1577422237.053384,46.000000,0.000000,4222.563965,4167.179688,4258.974121,4135.384766,4163.589844,0.000000,4.000000,,,,0.000000,4.000000,4.000000,4.000000,4.000000,4.000000,,,,,,,,,,,,,,,,,,,,,,,,,
1577422237.061184,47.000000,0.000000,4260.512695,4188.205078,4297.948730,4167.692383,4202.051270,0.000000,4.000000,,,,0.000000,4.000000,4.000000,4.000000,4.000000,4.000000,,,,,,,,,,,,,,,,,,,,,,,,,
1577422237.069084,48.000000,0.000000,4281.538574,4200.512695,4317.436035,4186.666504,4227.692383,0.000000,4.000000,,,,0.000000,4.000000,4.000000,4.000000,4.000000,4.000000,,,,,,,,,,,,,,,,,,,,,,,,,
1577422237.076884,49.000000,0.000000,4258.461426,4192.820313,4304.615234,4172.307617,4196.922852,0.000000,4.000000,,,,0.000000,4.000000,4.000000,4.000000,4.000000,4.000000,,,,,,,,,,,,,,,,,,,,,,,,,
1577422237.084783,50.000000,0.000000,4254.871582,4202.563965,4320.512695,4165.641113,4195.897461,0.000000,4.000000,,,,0.000000,4.000000,4.000000,4.000000,4.000000,4.000000,,,,,,,,,,,,,,,,,,,,,,,,,
1577422237.092583,51.000000,0.000000,4252.820313,4207.179688,4336.410156,4161.025879,4205.128418,0.000000,4.000000,,,,0.000000,4.000000,4.000000,4.000000,4.000000,4.000000,,,,,,,,,,,,,,,,,,,,,,,,,
1577422237.100483,52.000000,0.000000,4235.897461,4206.153809,4329.230957,4151.282227,4185.128418,0.000000,4.000000,,,,0.000000,4.000000,4.000000,4.000000,4.000000,4.000000,,,,,,,,,,,,,,,,,,,,,,,,,
1577422237.108283,53.000000,0.000000,4242.051270,4224.615234,4343.077148,4158.461426,4186.666504,0.000000,4.000000,,,,0.000000,4.000000,4.000000,4.000000,4.000000,4.000000,,,,,,,,,,,,,,,,,,,,,,,,,
1577422237.116182,54.000000,0.000000,4243.077148,4230.256348,4357.436035,4158.974121,4188.717773,0.000000,4.000000,,,,0.000000,4.000000,4.000000,4.000000,4.000000,4.000000,,,,,,,,,,,,,,,,,,,,,,,,,
1577422237.123982,55.000000,0.000000,4238.974121,4235.897461,4362.563965,4139.487305,4188.205078,0.000000,4.000000,,,,0.000000,4.000000,4.000000,4.000000,4.000000,4.000000,44.000652,14.035105,6.113182,10.120882,47.306141,109.266373,7.444461,3.366776,3.818303,29.358559,178.686035,21.161993,6.888205,2.298379,23.185394,23.087299,5.669976,2.968077,5.879681,32.201061,27.557608,15.153282,3.302922,2.247173,39.474594
1577422237.131882,56.000000,0.000000,4253.846191,4253.333496,4376.410156,4162.051270,4204.102539,0.000000,4.000000,,,,0.000000,4.000000,4.000000,4.000000,4.000000,4.000000,,,,,,,,,,,,,,,,,,,,,,,,,
1577422237.139681,57.000000,0.000000,4252.820313,4245.641113,4378.974121,4191.794922,4203.077148,0.000000,4.000000,,,,0.000000,4.000000,4.000000,4.000000,4.000000,4.000000,,,,,,,,,,,,,,,,,,,,,,,,,
1577422237.147581,58.000000,0.000000,4248.205078,4243.589844,4383.077148,4161.538574,4198.461426,0.000000,4.000000,,,,0.000000,4.000000,4.000000,4.000000,4.000000,4.000000,,,,,,,,,,,,,,,,,,,,,,,,,
1577422237.155380,59.000000,0.000000,4253.333496,4254.871582,4390.256348,4143.589844,4193.846191,0.000000,4.000000,,,,0.000000,4.000000,4.000000,4.000000,4.000000,4.000000,,,,,,,,,,,,,,,,,,,,,,,,,
1577422237.163280,60.000000,0.000000,4248.205078,4253.333496,4373.333496,4190.256348,4185.641113,0.000000,4.000000,,,,0.000000,4.000000,4.000000,4.000000,4.000000,4.000000,,,,,,,,,,,,,,,,,,,,,,,,,
1577422237.171079,61.000000,0.000000,4260.000000,4269.743652,4367.179688,4218.461426,4202.563965,0.000000,4.000000,,,,0.000000,4.000000,4.000000,4.000000,4.000000,4.000000,,,,,,,,,,,,,,,,,,,,,,,,,
1577422237.178979,62.000000,0.000000,4289.230957,4297.948730,4383.589844,4196.410156,4230.256348,0.000000,4.000000,,,,0.000000,4.000000,4.000000,4.000000,4.000000,4.000000,,,,,,,,,,,,,,,,,,,,,,,,,
1577422237.186778,63.000000,0.000000,4288.205078,4282.051270,4368.205078,4192.307617,4230.769043,0.000000,4.000000,,,,0.000000,4.000000,4.000000,4.000000,4.000000,4.000000,,,,,,,,,,,,,,,,,,,,,,,,,
1577422237.194677,64.000000,0.000000,4257.948730,4249.743652,4318.974121,4187.179688,4200.000000,450.000000,4.000000,,,,0.000000,4.000000,4.000000,4.000000,4.000000,4.000000,,,,,,,,,,,,,,,,,,,,,,,,,
1577422237.202477,65.000000,0.000000,4256.410156,4265.641113,4295.384766,4172.307617,4199.487305,450.000000,4.000000,,,,0.000000,4.000000,4.000000,4.000000,4.000000,4.000000,,,,,,,,,,,,,,,,,,,,,,,,,
1577422237.210376,66.000000,0.000000,4273.333496,4278.461426,4295.897461,4175.897461,4222.051270,16305.000000,4.000000,,,,0.000000,4.000000,4.000000,4.000000,4.000000,4.000000,,,,,,,,,,,,,,,,,,,,,,,,,
1577422237.218175,67.000000,0.000000,4265.128418,4244.102539,4276.922852,4160.000000,4208.717773,450.000000,4.000000,,,,0.000000,4.000000,4.000000,4.000000,4.000000,4.000000,,,,,,,,,,,,,,,,,,,,,,,,,
1577422237.226075,68.000000,0.000000,4249.743652,4221.025879,4249.230957,4147.692383,4190.769043,16258.000000,4.000000,,,,0.000000,4.000000,4.000000,4.000000,4.000000,4.000000,,,,,,,,,,,,,,,,,,,,,,,,,
1577422237.233874,69.000000,0.000000,4260.512695,4242.051270,4247.692383,4168.717773,4205.641113,450.000000,4.000000,,,,0.000000,4.000000,4.000000,4.000000,4.000000,4.000000,,,,,,,,,,,,,,,,,,,,,,,,,
1577422237.241773,70.000000,0.000000,4272.307617,4249.230957,4258.974121,4184.615234,4219.487305,16228.000000,4.000000,,,,0.000000,4.000000,4.000000,4.000000,4.000000,4.000000,,,,,,,,,,,,,,,,,,,,,,,,,
1577422237.249572,71.000000,0.000000,4261.025879,4202.563965,4254.358887,4171.282227,4212.307617,450.000000,4.000000,,,,0.000000,4.000000,4.000000,4.000000,4.000000,4.000000,33.771671,15.937657,6.851422,8.677320,34.321972,97.426323,8.055932,3.192313,3.448163,21.531145,178.126175,19.818583,6.764095,2.611263,17.030642,17.263773,6.537222,2.891768,4.375526,24.374800,20.912354,17.031023,3.833896,2.105341,28.933531
1577422237.257471,72.000000,0.000000,4255.384766,4159.487305,4243.077148,4140.512695,4207.179688,450.000000,4.000000,,,,0.000000,4.000000,4.000000,4.000000,4.000000,4.000000,,,,,,,,,,,,,,,,,,,,,,,,,
1577422237.265271,73.000000,0.000000,4279.487305,4162.051270,4239.487305,4120.000000,4217.436035,16241.000000,4.000000,,,,0.000000,4.000000,4.000000,4.000000,4.000000,4.000000,,,,,,,,,,,,,,,,,,,,,,,,,
1577422237.273170,74.000000,0.000000,4309.743652,4164.615234,4224.102539,4129.743652,4221.025879,450.000000,4.000000,,,,0.000000,4.000000,4.000000,4.000000,4.000000,4.000000,,,,,,,,,,,,,,,,,,,,,,,,,
1577422237.280969,75.000000,0.000000,4324.615234,4124.615234,4185.641113,4129.230957,4211.282227,16296.000000,4.000000,,,,0.000000,4.000000,4.000000,4.000000,4.000000,4.000000,,,,,,,,,,,,,,,,,,,,,,,,,
1577422237.288868,76.000000,0.000000,4370.769043,4107.692383,4173.846191,4112.307617,4240.512695,450.000000,4.000000,,,,0.000000,4.000000,4.000000,4.000000,4.000000,4.000000,,,,,,,,,,,,,,,,,,,,,,,,,
1577422237.296667,77.000000,0.000000,4462.563965,4145.128418,4205.641113,4129.743652,4304.615234,450.000000,4.000000,,,,0.000000,4.000000,4.000000,4.000000,4.000000,4.000000,,,,,,,,,,,,,,,,,,,,,,,,,
1577422237.304566,78.000000,0.000000,4527.179688,4152.307617,4215.897461,4160.512695,4338.974121,450.000000,4.000000,,,,0.000000,4.000000,4.000000,4.000000,4.000000,4.000000,,,,,,,,,,,,,,,,,,,,,,,,,
1577422237.312365,79.000000,0.000000,4553.333496,4130.769043,4204.615234,4154.358887,4353.333496,16296.000000,4.000000,,,,0.000000,4.000000,4.000000,4.000000,4.000000,4.000000,,,,,,,,,,,,,,,,,,,,,,,,,
1577422237.320264,80.000000,0.000000,4576.410156,4137.948730,4209.743652,4134.358887,4375.897461,450.000000,4.000000,,,,0.000000,4.000000,4.000000,4.000000,4.000000,4.000000,,,,,,,,,,,,,,,,,,,,,,,,,
1577422237.328063,81.000000,0.000000,4589.230957,4140.000000,4214.871582,4151.282227,4392.307617,450.000000,4.000000,,,,0.000000,4.000000,4.000000,4.000000,4.000000,4.000000,,,,,,,,,,,,,,,,,,,,,,,,,
1577422237.335762,82.000000,0.000000,4582.563965,4112.820313,4206.666504,4166.666504,4387.692383,450.000000,4.000000,,,,0.000000,4.000000,4.000000,4.000000,4.000000,4.000000,,,,,,,,,,,,,,,,,,,,,,,,,
1577422237.343661,83.000000,0.000000,4564.102539,4085.641113,4194.358887,4152.307617,4367.692383,16296.000000,4.000000,,,,0.000000,4.000000,4.000000,4.000000,4.000000,4.000000,,,,,,,,,,,,,,,,,,,,,,,,,
1577422237.351461,84.000000,0.000000,4535.897461,4071.794922,4190.769043,4161.538574,4349.230957,450.000000,4.000000,,,,0.000000,4.000000,4.000000,4.000000,4.000000,4.000000,,,,,,,,,,,,,,,,,,,,,,,,,
1577422237.359361,85.000000,0.000000,4521.025879,4067.692383,4205.128418,4197.436035,4338.461426,450.000000,4.000000,,,,0.000000,4.000000,4.000000,4.000000,4.000000,4.000000,,,,,,,,,,,,,,,,,,,,,,,,,
1577422237.367160,86.000000,0.000000,4520.000000,4049.230713,4221.025879,4203.077148,4330.256348,450.000000,4.000000,,,,0.000000,4.000000,4.000000,4.000000,4.000000,4.000000,,,,,,,,,,,,,,,,,,,,,,,,,
1577422237.375059,87.000000,0.000000,4496.922852,4009.230713,4216.410156,4193.333496,4312.307617,16296.000000,4.000000,,,,0.000000,4.000000,4.000000,4.000000,4.000000,4.000000,29.268442,19.184790,8.418386,8.047138,26.454727,86.085541,9.831251,3.635166,3.701168,17.012184,171.556824,18.757607,6.540571,3.221897,13.501292,13.344111,8.003082,2.826987,2.950559,20.381119,18.176517,19.195154,4.188894,1.946097,23.130791
1577422237.382959,88.000000,0.000000,4449.743652,3978.461426,4195.384766,4186.666504,4277.436035,450.000000,4.000000,,,,0.000000,4.000000,4.000000,4.000000,4.000000,4.000000,,,,,,,,,,,,,,,,,,,,,,,,,
1577422237.390760,89.000000,0.000000,4423.077148,3970.256348,4186.666504,4182.563965,4263.589844,450.000000,4.000000,,,,0.000000,4.000000,4.000000,4.000000,4.000000,4.000000,,,,,,,,,,,,,,,,,,,,,,,,,
1577422237.398560,90.000000,0.000000,4420.000000,3976.923096,4190.769043,4208.205078,4267.692383,450.000000,4.000000,,,,0.000000,4.000000,4.000000,4.000000,4.000000,4.000000,,,,,,,,,,,,,,,,,,,,,,,,,
1577422237.406459,91.000000,0.000000,4391.282227,3974.358887,4171.794922,4213.846191,4243.077148,16296.000000,4.000000,,,,0.000000,4.000000,4.000000,4.000000,4.000000,4.000000,,,,,,,,,,,,,,,,,,,,,,,,,
1577422237.414258,92.000000,0.000000,4351.794922,3965.641113,4137.436035,4190.256348,4216.922852,450.000000,4.000000,,,,0.000000,4.000000,4.000000,4.000000,4.000000,4.000000,,,,,,,,,,,,,,,,,,,,,,,,,
1577422237.422158,93.000000,0.000000,4329.230957,3971.281982,4122.563965,4203.077148,4215.384766,450.000000,4.000000,,,,0.000000,4.000000,4.000000,4.000000,4.000000,4.000000,,,,,,,,,,,,,,,,,,,,,,,,,
1577422237.429957,94.000000,0.000000,4315.384766,3982.564209,4120.512695,4224.102539,4215.897461,450.000000,4.000000,,,,0.000000,4.000000,4.000000,4.000000,4.000000,4.000000,,,,,,,,,,,,,,,,,,,,,,,,,
1577422237.437856,95.000000,0.000000,4299.487305,3972.820557,4109.743652,4218.461426,4198.974121,16296.000000,4.000000,,,,0.000000,4.000000,4.000000,4.000000,4.000000,4.000000,,,,,,,,,,,,,,,,,,,,,,,,,
1577422237.445756,96.000000,0.000000,4278.461426,3959.487061,4094.871826,4220.000000,4176.922852,450.000000,4.000000,,,,0.000000,4.000000,4.000000,4.000000,4.000000,4.000000,,,,,,,,,,,,,,,,,,,,,,,,,
1577422237.453556,97.000000,0.000000,4257.948730,3973.846191,4086.666748,4212.820313,4171.282227,450.000000,4.000000,,,,0.000000,4.000000,4.000000,4.000000,4.000000,4.000000,,,,,,,,,,,,,,,,,,,,,,,,,
1577422237.461456,98.000000,0.000000,4237.948730,3984.615479,4084.615479,4187.179688,4162.563965,450.000000,4.000000,,,,0.000000,4.000000,4.000000,4.000000,4.000000,4.000000,,,,,,,,,,,,,,,,,,,,,,,,,
1577422237.469255,99.000000,0.000000,4218.974121,3970.256348,4080.512939,4197.948730,4145.128418,16296.000000,4.000000,,,,0.000000,4.000000,4.000000,4.000000,4.000000,4.000000,,,,,,,,,,,,,,,,,,,,,,,,,
1577422237.477155,100.000000,0.000000,4204.102539,3975.897461,4084.102539,4228.717773,4141.538574,450.000000,4.000000,,,,0.000000,4.000000,4.000000,4.000000,4.000000,4.000000,,,,,,,,,,,,,,,,,,,,,,,,,
1577422237.484955,101.000000,0.000000,4196.410156,4002.564209,4098.974121,4221.538574,4146.153809,450.000000,4.000000,,,,0.000000,4.000000,4.000000,4.000000,4.000000,4.000000,,,,,,,,,,,,,,,,,,,,,,,,,
1577422237.492755,102.000000,0.000000,4186.666504,4006.153809,4097.948730,4193.846191,4135.897461,450.000000,4.000000,,,,0.000000,4.000000,4.000000,4.000000,4.000000,4.000000,,,,,,,,,,,,,,,,,,,,,,,,,
1577422237.500454,103.000000,0.000000,4176.922852,4014.358887,4092.820557,4192.820313,4126.666504,16296.000000,4.000000,,,,0.000000,4.000000,4.000000,4.000000,4.000000,4.000000,36.289467,24.249161,10.586968,8.538295,26.861004,82.136185,13.571040,4.848190,4.675843,17.766142,163.437546,19.993620,6.301273,4.170149,14.205891,13.534767,10.376823,2.677574,1.923580,22.525558,22.350796,22.296583,4.212467,1.827016,24.863205
1577422237.508354,104.000000,0.000000,4180.512695,4059.487061,4112.820313,4221.025879,4140.000000,450.000000,4.000000,,,,0.000000,4.000000,4.000000,4.000000,4.000000,4.000000,,,,,,,,,,,,,,,,,,,,,,,,,
1577422237.516153,105.000000,0.000000,4170.769043,4082.564209,4119.487305,4226.666504,4136.410156,450.000000,4.000000,,,,0.000000,4.000000,4.000000,4.000000,4.000000,4.000000,,,,,,,,,,,,,,,,,,,,,,,,,
1577422237.524053,106.000000,0.000000,4146.153809,4064.615479,4094.871826,4198.461426,4108.205078,450.000000,4.000000,,,,0.000000,4.000000,4.000000,4.000000,4.000000,4.000000,,,,,,,,,,,,,,,,,,,,,,,,,
1577422237.531853,107.000000,0.000000,4146.666504,4073.333252,4091.794922,4193.846191,4120.000000,16296.000000,4.000000,,,,0.000000,4.000000,4.000000,4.000000,4.000000,4.000000,,,,,,,,,,,,,,,,,,,,,,,,,
1577422237.539752,108.000000,0.000000,4162.051270,4104.615234,4108.205078,4227.179688,4146.666504,450.000000,4.000000,,,,0.000000,4.000000,4.000000,4.000000,4.000000,4.000000,,,,,,,,,,,,,,,,,,,,,,,,,
1577422237.547552,109.000000,0.000000,4149.230957,4101.538574,4093.846191,4223.589844,4127.179688,450.000000,4.000000,,,,0.000000,4.000000,4.000000,4.000000,4.000000,4.000000,,,,,,,,,,,,,,,,,,,,,,,,,
1577422237.555451,110.000000,0.000000,4133.333496,4082.051270,4081.538574,4183.077148,4107.692383,450.000000,4.000000,,,,0.000000,4.000000,4.000000,4.000000,4.000000,4.000000,,,,,,,,,,,,,,,,,,,,,,,,,
1577422237.563251,111.000000,0.000000,4139.487305,4078.461426,4112.307617,4185.641113,4124.615234,16296.000000,4.000000,,,,0.000000,4.000000,4.000000,4.000000,4.000000,4.000000,,,,,,,,,,,,,,,,,,,,,,,,,
1577422237.571050,112.000000,0.000000,4142.051270,4087.692383,4150.769043,4225.128418,4133.846191,450.000000,4.000000,,,,0.000000,4.000000,4.000000,4.000000,4.000000,4.000000,,,,,,,,,,,,,,,,,,,,,,,,,
1577422237.578751,113.000000,0.000000,4132.820313,4085.641113,4156.922852,4232.820313,4118.461426,450.000000,4.000000,,,,0.000000,4.000000,4.000000,4.000000,4.000000,4.000000,,,,,,,,,,,,,,,,,,,,,,,,,
1577422237.586651,114.000000,0.000000,4126.666504,4066.153809,4139.487305,4212.307617,4112.820313,450.000000,4.000000,,,,0.000000,4.000000,4.000000,4.000000,4.000000,4.000000,,,,,,,,,,,,,,,,,,,,,,,,,
1577422237.594452,115.000000,0.000000,4129.230957,4063.589844,4121.538574,4204.615234,4122.563965,16296.000000,4.000000,,,,0.000000,4.000000,4.000000,4.000000,4.000000,4.000000,,,,,,,,,,,,,,,,,,,,,,,,,
1577422237.602253,116.000000,0.000000,4120.000000,4074.358887,4093.333252,4186.666504,4109.743652,450.000000,4.000000,,,,0.000000,4.000000,4.000000,4.000000,4.000000,4.000000,,,,,,,,,,,,,,,,,,,,,,,,,
1577422237.610054,117.000000,0.000000,4101.538574,4069.743652,4058.974365,4171.282227,4090.769287,450.000000,4.000000,,,,0.000000,4.000000,4.000000,4.000000,4.000000,4.000000,,,,,,,,,,,,,,,,,,,,,,,,,
1577422237.617953,118.000000,0.000000,4103.589844,4068.718018,4042.564209,4189.230957,4094.871826,450.000000,4.000000,,,,0.000000,4.000000,4.000000,4.000000,4.000000,4.000000,,,,,,,,,,,,,,,,,,,,,,,,,
1577422237.625752,119.000000,0.000000,4114.871582,4082.564209,4036.923096,4196.922852,4108.717773,16296.000000,4.000000,,,,0.000000,4.000000,4.000000,4.000000,4.000000,4.000000,57.298588,30.391947,12.858409,9.848032,34.136902,85.497612,18.906773,6.535449,6.099710,22.866379,157.973831,23.971859,6.073054,5.305290,18.429163,17.924719,13.420199,2.510747,1.390275,29.743330,33.938847,26.092258,3.959072,1.798647,32.820404
1577422237.633652,120.000000,0.000000,4112.820313,4088.718018,4029.230713,4196.410156,4114.871582,450.000000,4.000000,,,,0.000000,4.000000,4.000000,4.000000,4.000000,4.000000,,,,,,,,,,,,,,,,,,,,,,,,,
1577422237.641551,121.000000,0.000000,4106.153809,4089.230713,4019.487061,4214.358887,4106.666504,450.000000,4.000000,,,,0.000000,4.000000,4.000000,4.000000,4.000000,4.000000,,,,,,,,,,,,,,,,,,,,,,,,,
1577422237.649351,122.000000,0.000000,4104.102539,4100.512695,4006.666748,4215.384766,4093.333252,450.000000,4.000000,,,,0.000000,4.000000,4.000000,4.000000,4.000000,4.000000,,,,,,,,,,,,,,,,,,,,,,,,,
1577422237.657151,123.000000,0.000000,4102.563965,4114.871582,4000.000000,4163.589844,4083.076904,16296.000000,4.000000,,,,0.000000,4.000000,4.000000,4.000000,4.000000,4.000000,,,,,,,,,,,,,,,,,,,,,,,,,
1577422237.664850,124.000000,0.000000,4101.025879,4124.615234,4002.051270,4129.230957,4081.025635,450.000000,4.000000,,,,0.000000,4.000000,4.000000,4.000000,4.000000,4.000000,,,,,,,,,,,,,,,,,,,,,,,,,
1577422237.672649,125.000000,0.000000,4108.205078,4137.436035,4013.846191,4184.615234,4092.307617,450.000000,4.000000,,,,0.000000,4.000000,4.000000,4.000000,4.000000,4.000000,,,,,,,,,,,,,,,,,,,,,,,,,
1577422237.680349,126.000000,0.000000,4117.436035,4144.102539,4029.230713,4234.358887,4099.487305,450.000000,4.000000,,,,0.000000,4.000000,4.000000,4.000000,4.000000,4.000000,,,,,,,,,,,,,,,,,,,,,,,,,
1577422237.688148,127.000000,0.000000,4111.794922,4130.769043,4030.769287,4203.589844,4091.794922,234.000000,4.000000,,,,0.000000,4.000000,4.000000,4.000000,4.000000,4.000000,,,,,,,,,,,,,,,,,,,,,,,,,
1577422237.695847,0.000000,0.000000,4102.563965,4124.102539,4023.589844,4166.666504,4083.589844,450.000000,4.000000,,,,0.000000,4.000000,4.000000,4.000000,4.000000,4.000000,,,,,,,,,,,,,,,,,,,,,,,,,
1577422237.703646,1.000000,0.000000,4106.666504,4139.487305,4031.794922,4168.205078,4086.153809,450.000000,4.000000,,,,0.000000,4.000000,4.000000,4.000000,4.000000,4.000000,,,,,,,,,,,,,,,,,,,,,,,,,
1577422237.711345,2.000000,0.000000,4124.102539,4146.153809,4049.743652,4196.922852,4107.692383,16227.000000,4.000000,,,,0.000000,4.000000,4.000000,4.000000,4.000000,4.000000,,,,,,,,,,,,,,,,,,,,,,,,,
1577422237.719144,3.000000,0.000000,4135.384766,4136.922852,4055.897461,4224.615234,4124.102539,450.000000,4.000000,,,,0.000000,4.000000,4.000000,4.000000,4.000000,4.000000,,,,,,,,,,,,,,,,,,,,,,,,,
1577422237.726843,4.000000,0.000000,4120.000000,4135.384766,4051.794922,4206.153809,4112.307617,16208.000000,4.000000,,,,0.000000,4.000000,4.000000,4.000000,4.000000,4.000000,,,,,,,,,,,,,,,,,,,,,,,,,
1577422237.734743,5.000000,0.000000,4099.487305,4137.948730,4049.743652,4183.077148,4096.922852,450.000000,4.000000,,,,0.000000,4.000000,4.000000,4.000000,4.000000,4.000000,,,,,,,,,,,,,,,,,,,,,,,,,
1577422237.742542,6.000000,0.000000,4095.384521,4125.641113,4043.589844,4181.025879,4088.718018,16178.000000,4.000000,,,,0.000000,4.000000,4.000000,4.000000,4.000000,4.000000,,,,,,,,,,,,,,,,,,,,,,,,,
1577422237.750442,7.000000,0.000000,4100.512695,4123.077148,4036.410156,4176.922852,4089.230713,450.000000,4.000000,,,,0.000000,4.000000,4.000000,4.000000,4.000000,4.000000,90.098038,36.099255,14.555775,11.195752,43.317383,93.405487,24.341036,8.098532,7.412583,29.115419,153.634750,29.168974,5.821853,6.305457,23.594925,24.390036,16.298840,2.422379,1.232662,38.197956,50.183037,29.591925,3.614961,1.856440,42.394878
1577422237.758241,8.000000,0.000000,4116.410156,4147.692383,4054.871826,4206.666504,4107.179688,450.000000,4.000000,,,,0.000000,4.000000,4.000000,4.000000,4.000000,4.000000,,,,,,,,,,,,,,,,,,,,,,,,,
1577422237.766141,9.000000,0.000000,4114.871582,4150.769043,4078.461426,4224.102539,4109.230957,16180.000000,4.000000,,,,0.000000,4.000000,4.000000,4.000000,4.000000,4.000000,,,,,,,,,,,,,,,,,,,,,,,,,
1577422237.773941,10.000000,0.000000,4090.256348,4135.384766,4093.333252,4172.307617,4086.666748,450.000000,4.000000,,,,0.000000,4.000000,4.000000,4.000000,4.000000,4.000000,,,,,,,,,,,,,,,,,,,,,,,,,
1577422237.781840,11.000000,0.000000,4094.358887,4145.128418,4131.794922,4162.563965,4087.692383,16218.000000,4.000000,,,,0.000000,4.000000,4.000000,4.000000,4.000000,4.000000,,,,,,,,,,,,,,,,,,,,,,,,,
1577422237.789639,12.000000,0.000000,4116.922852,4160.512695,4175.897461,4201.025879,4112.307617,450.000000,4.000000,,,,0.000000,4.000000,4.000000,4.000000,4.000000,4.000000,,,,,,,,,,,,,,,,,,,,,,,,,
1577422237.797539,13.000000,0.000000,4107.692383,4162.563965,4192.307617,4177.436035,4109.743652,450.000000,4.000000,,,,0.000000,4.000000,4.000000,4.000000,4.000000,4.000000,,,,,,,,,,,,,,,,,,,,,,,,,
1577422237.805338,14.000000,0.000000,4079.487061,4160.000000,4192.820313,4152.820313,4081.538574,450.000000,4.000000,,,,0.000000,4.000000,4.000000,4.000000,4.000000,4.000000,,,,,,,,,,,,,,,,,,,,,,,,,
1577422237.813237,15.000000,0.000000,4068.718018,4154.358887,4210.256348,4172.820313,4069.230713,16218.000000,4.000000,,,,0.000000,4.000000,4.000000,4.000000,4.000000,4.000000,,,,,,,,,,,,,,,,,,,,,,,,,
1577422237.821037,16.000000,0.000000,4077.435791,4168.717773,4261.538574,4184.102539,4073.846191,0.000000,4.000000,,,,0.000000,4.000000,4.000000,4.000000,4.000000,4.000000,,,,,,,,,,,,,,,,,,,,,,,,,
1577422237.828936,17.000000,0.000000,4089.230713,4190.256348,4313.846191,4180.000000,4080.512939,0.000000,4.000000,,,,0.000000,4.000000,4.000000,4.000000,4.000000,4.000000,,,,,,,,,,,,,,,,,,,,,,,,,
1577422237.836735,18.000000,0.000000,4087.179443,4185.128418,4327.179688,4177.436035,4081.025635,0.000000,4.000000,,,,0.000000,4.000000,4.000000,4.000000,4.000000,4.000000,,,,,,,,,,,,,,,,,,,,,,,,,
1577422237.844634,19.000000,0.000000,4079.487061,4187.692383,4326.666504,4161.025879,4075.897461,0.000000,4.000000,,,,0.000000,4.000000,4.000000,4.000000,4.000000,4.000000,,,,,,,,,,,,,,,,,,,,,,,,,
1577422237.852433,20.000000,0.000000,4090.769287,4221.538574,4355.897461,4148.717773,4091.281982,0.000000,4.000000,,,,0.000000,4.000000,4.000000,4.000000,4.000000,4.000000,,,,,,,,,,,,,,,,,,,,,,,,,
1577422237.860132,21.000000,0.000000,4101.025879,4231.282227,4385.641113,4164.615234,4106.153809,0.000000,4.000000,,,,0.000000,4.000000,4.000000,4.000000,4.000000,4.000000,,,,,,,,,,,,,,,,,,,,,,,,,
1577422237.867931,22.000000,0.000000,4098.461426,4211.794922,4395.384766,4176.410156,4098.461426,0.000000,4.000000,,,,0.000000,4.000000,4.000000,4.000000,4.000000,4.000000,,,,,,,,,,,,,,,,,,,,,,,,,
1577422237.875631,23.000000,0.000000,4107.692383,4211.282227,4410.769043,4175.897461,4100.000000,0.000000,4.000000,,,,0.000000,4.000000,4.000000,4.000000,4.000000,4.000000,127.574020,39.620705,15.138429,11.762303,48.854225,98.268822,28.004288,8.861572,8.030080,32.930969,146.077484,33.061317,5.548575,6.809684,26.774149,29.740431,17.906326,2.465708,1.263005,43.467918,66.781662,31.431385,3.375086,1.933305,48.343586
1577422237.883430,24.000000,0.000000,4113.846191,4220.512695,4436.410156,4177.948730,4109.230957,0.000000,4.000000,,,,0.000000,4.000000,4.000000,4.000000,4.000000,4.000000,,,,,,,,,,,,,,,,,,,,,,,,,
1577422237.891129,25.000000,0.000000,4113.846191,4222.051270,4464.102539,4183.589844,4115.897461,0.000000,4.000000,,,,0.000000,4.000000,4.000000,4.000000,4.000000,4.000000,,,,,,,,,,,,,,,,,,,,,,,,,
1577422237.899029,26.000000,0.000000,4113.333496,4216.922852,4486.666504,4176.922852,4113.846191,0.000000,4.000000,,,,0.000000,4.000000,4.000000,4.000000,4.000000,4.000000,,,,,,,,,,,,,,,,,,,,,,,,,
1577422237.906828,27.000000,0.000000,4105.641113,4204.615234,4502.563965,4157.948730,4103.077148,0.000000,4.000000,,,,0.000000,4.000000,4.000000,4.000000,4.000000,4.000000,,,,,,,,,,,,,,,,,,,,,,,,,
1577422237.914728,28.000000,0.000000,4102.051270,4195.384766,4515.897461,4155.897461,4104.615234,0.000000,4.000000,,,,0.000000,4.000000,4.000000,4.000000,4.000000,4.000000,,,,,,,,,,,,,,,,,,,,,,,,,
1577422237.922527,29.000000,0.000000,4103.077148,4188.717773,4512.307617,4161.025879,4102.051270,0.000000,4.000000,,,,0.000000,4.000000,4.000000,4.000000,4.000000,4.000000,,,,,,,,,,,,,,,,,,,,,,,,,
1577422237.930427,30.000000,0.000000,4095.897461,4173.333496,4490.256348,4174.871582,4092.307617,0.000000,4.000000,,,,0.000000,4.000000,4.000000,4.000000,4.000000,4.000000,,,,,,,,,,,,,,,,,,,,,,,,,
1577422237.938227,31.000000,0.000000,4088.718018,4164.102539,4476.410156,4175.897461,4091.281982,0.000000,4.000000,,,,0.000000,4.000000,4.000000,4.000000,4.000000,4.000000,,,,,,,,,,,,,,,,,,,,,,,,,
1577422237.946126,32.000000,0.000000,4089.230713,4164.615234,4469.230957,4152.820313,4091.794922,0.000000,4.000000,,,,0.000000,4.000000,4.000000,4.000000,4.000000,4.000000,,,,,,,,,,,,,,,,,,,,,,,,,
1577422237.953926,33.000000,0.000000,4080.000000,4154.871582,4453.333496,4133.846191,4082.564209,0.000000,4.000000,,,,0.000000,4.000000,4.000000,4.000000,4.000000,4.000000,,,,,,,,,,,,,,,,,,,,,,,,,
1577422237.961825,34.000000,0.000000,4057.948730,4145.128418,4435.897461,4131.282227,4067.692383,0.000000,4.000000,,,,0.000000,4.000000,4.000000,4.000000,4.000000,4.000000,,,,,,,,,,,,,,,,,,,,,,,,,
1577422237.969624,35.000000,0.000000,4065.128174,4151.794922,4417.948730,4153.333496,4077.948730,0.000000,4.000000,,,,0.000000,4.000000,4.000000,4.000000,4.000000,4.000000,,,,,,,,,,,,,,,,,,,,,,,,,
1577422237.977524,36.000000,0.000000,4091.794922,4156.922852,4388.717773,4149.743652,4098.974121,0.000000,4.000000,,,,0.000000,4.000000,4.000000,4.000000,4.000000,4.000000,,,,,,,,,,,,,,,,,,,,,,,,,
1577422237.985323,37.000000,0.000000,4097.948730,4146.666504,4354.358887,4108.717773,4096.410156,0.000000,4.000000,,,,0.000000,4.000000,4.000000,4.000000,4.000000,4.000000,,,,,,,,,,,,,,,,,,,,,,,,,
1577422237.993122,38.000000,0.000000,4114.871582,4149.743652,4343.589844,4126.153809,4109.230957,0.000000,4.000000,,,,0.000000,4.000000,4.000000,4.000000,4.000000,4.000000,,,,,,,,,,,,,,,,,,,,,,,,,
1577422238.000821,39.000000,0.000000,4165.641113,4166.153809,4359.487305,4193.846191,4149.230957,0.000000,4.000000,,,,0.000000,4.000000,4.000000,4.000000,4.000000,4.000000,159.026794,39.649414,14.322336,11.089795,47.716904,95.756821,28.561954,8.461100,7.650018,32.332771,134.773529,33.525112,5.357529,6.606891,26.322367,31.530273,17.423124,2.651735,1.419043,43.006420,78.680412,30.540823,3.277327,1.954114,47.675819
1577422238.008720,40.000000,0.000000,4190.256348,4170.769043,4364.102539,4206.153809,4168.717773,0.000000,4.000000,,,,0.000000,4.000000,4.000000,4.000000,4.000000,4.000000,,,,,,,,,,,,,,,,,,,,,,,,,
1577422238.016620,41.000000,0.000000,4174.871582,4166.153809,4349.743652,4197.436035,4164.615234,0.000000,4.000000,,,,0.000000,4.000000,4.000000,4.000000,4.000000,4.000000,,,,,,,,,,,,,,,,,,,,,,,,,
1577422238.024421,42.000000,0.000000,4148.205078,4136.410156,4334.871582,4175.897461,4143.077148,0.000000,4.000000,,,,0.000000,4.000000,4.000000,4.000000,4.000000,4.000000,,,,,,,,,,,,,,,,,,,,,,,,,
1577422238.032221,43.000000,0.000000,4123.077148,4092.820557,4336.410156,4120.512695,4116.922852,0.000000,4.000000,,,,0.000000,4.000000,4.000000,4.000000,4.000000,4.000000,,,,,,,,,,,,,,,,,,,,,,,,,
1577422238.040120,44.000000,0.000000,4115.384766,4076.410156,4342.051270,4119.487305,4111.282227,0.000000,4.000000,,,,0.000000,4.000000,4.000000,4.000000,4.000000,4.000000,,,,,,,,,,,,,,,,,,,,,,,,,
1577422238.048019,45.000000,0.000000,4106.153809,4058.461426,4322.051270,4139.487305,4104.102539,0.000000,4.000000,,,,0.000000,4.000000,4.000000,4.000000,4.000000,4.000000,,,,,,,,,,,,,,,,,,,,,,,,,
1577422238.055819,46.000000,0.000000,4105.641113,4032.307617,4300.000000,4129.230957,4103.077148,0.000000,4.000000,,,,0.000000,4.000000,4.000000,4.000000,4.000000,4.000000,,,,,,,,,,,,,,,,,,,,,,,,,
1577422238.063619,47.000000,0.000000,4119.487305,4027.179443,4285.128418,4130.256348,4111.794922,0.000000,4.000000,,,,0.000000,4.000000,4.000000,4.000000,4.000000,4.000000,,,,,,,,,,,,,,,,,,,,,,,,,
1577422238.071318,48.000000,0.000000,4108.205078,4022.051270,4245.641113,4123.077148,4100.512695,0.000000,4.000000,,,,0.000000,4.000000,4.000000,4.000000,4.000000,4.000000,,,,,,,,,,,,,,,,,,,,,,,,,
1577422238.079218,49.000000,0.000000,4088.718018,4011.281982,4198.461426,4111.794922,4084.615479,0.000000,4.000000,,,,0.000000,4.000000,4.000000,4.000000,4.000000,4.000000,,,,,,,,,,,,,,,,,,,,,,,,,
1577422238.087018,50.000000,0.000000,4077.948730,4012.307617,4157.436035,4131.282227,4074.871826,0.000000,4.000000,,,,0.000000,4.000000,4.000000,4.000000,4.000000,4.000000,,,,,,,,,,,,,,,,,,,,,,,,,
1577422238.094918,51.000000,0.000000,4060.512939,4011.794922,4118.974121,4119.487305,4061.025635,0.000000,4.000000,,,,0.000000,4.000000,4.000000,4.000000,4.000000,4.000000,,,,,,,,,,,,,,,,,,,,,,,,,
1577422238.102717,52.000000,0.000000,4054.871826,4004.615479,4102.563965,4072.820557,4053.846191,0.000000,4.000000,,,,0.000000,4.000000,4.000000,4.000000,4.000000,4.000000,,,,,,,,,,,,,,,,,,,,,,,,,
1577422238.110617,53.000000,0.000000,4084.102539,4022.051270,4106.153809,4109.230957,4075.384521,0.000000,4.000000,,,,0.000000,4.000000,4.000000,4.000000,4.000000,4.000000,,,,,,,,,,,,,,,,,,,,,,,,,
1577422238.118416,54.000000,0.000000,4111.282227,4055.384521,4102.563965,4176.410156,4102.051270,0.000000,4.000000,,,,0.000000,4.000000,4.000000,4.000000,4.000000,4.000000,,,,,,,,,,,,,,,,,,,,,,,,,
1577422238.126216,55.000000,0.000000,4104.615234,4054.358887,4084.615479,4155.384766,4102.051270,0.000000,4.000000,,,,0.000000,4.000000,4.000000,4.000000,4.000000,4.000000,176.931488,35.945827,12.273612,9.259064,40.141216,84.622520,25.885719,7.019374,6.375486,27.446709,119.197189,30.249249,5.277237,5.746037,22.334547,29.321085,14.850423,2.898640,1.758983,36.927441,83.378517,26.763134,3.271218,1.890101,40.504150
1577422238.133915,56.000000,0.000000,4096.410156,4034.871826,4067.692383,4100.000000,4095.897461,0.000000,4.000000,,,,0.000000,4.000000,4.000000,4.000000,4.000000,4.000000,,,,,,,,,,,,,,,,,,,,,,,,,
1577422238.141815,57.000000,0.000000,4105.641113,4054.358887,4066.153809,4100.000000,4101.025879,0.000000,4.000000,,,,0.000000,4.000000,4.000000,4.000000,4.000000,4.000000,,,,,,,,,,,,,,,,,,,,,,,,,
1577422238.149614,58.000000,0.000000,4117.436035,4093.333252,4076.410156,4140.512695,4110.769043,0.000000,4.000000,,,,0.000000,4.000000,4.000000,4.000000,4.000000,4.000000,,,,,,,,,,,,,,,,,,,,,,,,,
1577422238.157513,59.000000,0.000000,4117.948730,4098.974121,4075.384521,4174.871582,4109.230957,0.000000,4.000000,,,,0.000000,4.000000,4.000000,4.000000,4.000000,4.000000,,,,,,,,,,,,,,,,,,,,,,,,,
1577422238.165413,60.000000,0.000000,4120.512695,4093.846191,4068.205078,4144.615234,4105.128418,0.000000,4.000000,,,,0.000000,4.000000,4.000000,4.000000,4.000000,4.000000,,,,,,,,,,,,,,,,,,,,,,,,,
1577422238.173214,61.000000,0.000000,4128.717773,4114.358887,4071.281982,4096.410156,4114.358887,0.000000,4.000000,,,,0.000000,4.000000,4.000000,4.000000,4.000000,4.000000,,,,,,,,,,,,,,,,,,,,,,,,,
1577422238.181014,62.000000,0.000000,4124.615234,4134.358887,4071.794922,4147.179688,4112.820313,0.000000,4.000000,,,,0.000000,4.000000,4.000000,4.000000,4.000000,4.000000,,,,,,,,,,,,,,,,,,,,,,,,,
1577422238.188913,63.000000,0.000000,4113.333496,4125.641113,4060.512939,4189.743652,4101.538574,0.000000,4.000000,,,,0.000000,4.000000,4.000000,4.000000,4.000000,4.000000,,,,,,,,,,,,,,,,,,,,,,,,,
1577422238.196813,64.000000,0.000000,4112.307617,4117.436035,4050.769287,4125.641113,4104.615234,450.000000,4.000000,,,,0.000000,4.000000,4.000000,4.000000,4.000000,4.000000,,,,,,,,,,,,,,,,,,,,,,,,,
1577422238.204613,65.000000,0.000000,4102.051270,4120.000000,4038.974365,4094.358887,4097.948730,450.000000,4.000000,,,,0.000000,4.000000,4.000000,4.000000,4.000000,4.000000,,,,,,,,,,,,,,,,,,,,,,,,,
1577422238.212413,66.000000,0.000000,4080.000000,4113.846191,4027.179443,4137.948730,4078.974365,16222.000000,4.000000,,,,0.000000,4.000000,4.000000,4.000000,4.000000,4.000000,,,,,,,,,,,,,,,,,,,,,,,,,
1577422238.220212,67.000000,0.000000,4092.307617,4125.128418,4045.641113,4145.128418,4094.358887,450.000000,4.000000,,,,0.000000,4.000000,4.000000,4.000000,4.000000,4.000000,,,,,,,,,,,,,,,,,,,,,,,,,
1577422238.228011,68.000000,0.000000,4122.563965,4150.256348,4070.256348,4120.000000,4122.563965,16202.000000,4.000000,,,,0.000000,4.000000,4.000000,4.000000,4.000000,4.000000,,,,,,,,,,,,,,,,,,,,,,,,,
1577422238.235711,69.000000,0.000000,4124.102539,4156.922852,4075.384521,4142.563965,4121.025879,450.000000,4.000000,,,,0.000000,4.000000,4.000000,4.000000,4.000000,4.000000,,,,,,,,,,,,,,,,,,,,,,,,,
1577422238.243510,70.000000,0.000000,4125.128418,4148.205078,4080.000000,4172.820313,4116.410156,16168.000000,4.000000,,,,0.000000,4.000000,4.000000,4.000000,4.000000,4.000000,,,,,,,,,,,,,,,,,,,,,,,,,
1577422238.251209,71.000000,0.000000,4150.256348,4152.820313,4093.333252,4163.589844,4142.051270,450.000000,4.000000,,,,0.000000,4.000000,4.000000,4.000000,4.000000,4.000000,175.857864,29.523329,9.588511,6.787272,28.704412,67.966911,21.103933,5.021531,4.618320,19.938070,99.247032,24.855431,5.268357,4.517723,16.187902,23.961849,11.001004,3.105323,2.339041,27.382345,79.533653,21.029297,3.244316,1.752986,29.298168
1577422238.259109,72.000000,0.000000,4171.282227,4172.820313,4100.512695,4147.179688,4166.666504,450.000000,4.000000,,,,0.000000,4.000000,4.000000,4.000000,4.000000,4.000000,,,,,,,,,,,,,,,,,,,,,,,,,
1577422238.266909,73.000000,0.000000,4157.948730,4173.846191,4087.692383,4139.487305,4149.743652,16190.000000,4.000000,,,,0.000000,4.000000,4.000000,4.000000,4.000000,4.000000,,,,,,,,,,,,,,,,,,,,,,,,,
1577422238.274709,74.000000,0.000000,4138.461426,4154.358887,4076.923096,4140.000000,4127.179688,450.000000,4.000000,,,,0.000000,4.000000,4.000000,4.000000,4.000000,4.000000,,,,,,,,,,,,,,,,,,,,,,,,,
1577422238.282408,75.000000,0.000000,4139.487305,4147.692383,4081.025635,4119.487305,4132.820313,16206.000000,4.000000,,,,0.000000,4.000000,4.000000,4.000000,4.000000,4.000000,,,,,,,,,,,,,,,,,,,,,,,,,
1577422238.290206,76.000000,0.000000,4138.461426,4156.410156,4072.307617,4085.128174,4135.384766,450.000000,4.000000,,,,0.000000,4.000000,4.000000,4.000000,4.000000,4.000000,,,,,,,,,,,,,,,,,,,,,,,,,
1577422238.297905,77.000000,0.000000,4125.641113,4145.641113,4049.743652,4093.846191,4121.025879,450.000000,4.000000,,,,0.000000,4.000000,4.000000,4.000000,4.000000,4.000000,,,,,,,,,,,,,,,,,,,,,,,,,
1577422238.305704,78.000000,0.000000,4137.436035,4137.948730,4055.384521,4142.563965,4129.743652,450.000000,4.000000,,,,0.000000,4.000000,4.000000,4.000000,4.000000,4.000000,,,,,,,,,,,,,,,,,,,,,,,,,
1577422238.313403,79.000000,0.000000,4165.641113,4160.512695,4076.410156,4160.000000,4158.974121,16206.000000,4.000000,,,,0.000000,4.000000,4.000000,4.000000,4.000000,4.000000,,,,,,,,,,,,,,,,,,,,,,,,,
1577422238.321303,80.000000,0.000000,4152.307617,4155.384766,4054.871826,4098.974121,4146.153809,450.000000,4.000000,,,,0.000000,4.000000,4.000000,4.000000,4.000000,4.000000,,,,,,,,,,,,,,,,,,,,,,,,,
1577422238.329103,81.000000,0.000000,4128.205078,4129.230957,4031.281982,4068.718018,4125.641113,450.000000,4.000000,,,,0.000000,4.000000,4.000000,4.000000,4.000000,4.000000,,,,,,,,,,,,,,,,,,,,,,,,,
1577422238.337002,82.000000,0.000000,4150.256348,4144.102539,4057.948730,4134.871582,4150.256348,450.000000,4.000000,,,,0.000000,4.000000,4.000000,4.000000,4.000000,4.000000,,,,,,,,,,,,,,,,,,,,,,,,,
1577422238.344802,83.000000,0.000000,4156.410156,4154.871582,4073.333252,4163.077148,4150.256348,16206.000000,4.000000,,,,0.000000,4.000000,4.000000,4.000000,4.000000,4.000000,,,,,,,,,,,,,,,,,,,,,,,,,
1577422238.352701,84.000000,0.000000,4125.128418,4128.717773,4058.974365,4102.563965,4117.436035,450.000000,4.000000,,,,0.000000,4.000000,4.000000,4.000000,4.000000,4.000000,,,,,,,,,,,,,,,,,,,,,,,,,
1577422238.360501,85.000000,0.000000,4140.000000,4138.974121,4088.718018,4080.000000,4136.410156,450.000000,4.000000,,,,0.000000,4.000000,4.000000,4.000000,4.000000,4.000000,,,,,,,,,,,,,,,,,,,,,,,,,
1577422238.368400,86.000000,0.000000,4178.974121,4165.128418,4135.897461,4116.922852,4170.256348,450.000000,4.000000,,,,0.000000,4.000000,4.000000,4.000000,4.000000,4.000000,,,,,,,,,,,,,,,,,,,,,,,,,
1577422238.376200,87.000000,0.000000,4166.153809,4142.051270,4135.897461,4115.384766,4154.358887,16206.000000,4.000000,,,,0.000000,4.000000,4.000000,4.000000,4.000000,4.000000,156.734070,22.139753,7.018654,4.405363,17.019653,50.586231,15.860125,3.112420,2.901682,12.178107,78.346741,19.793444,5.257221,3.308865,9.840095,17.403675,7.105559,3.239460,3.130173,17.501856,68.898331,14.898784,3.160233,1.598130,17.634220
1577422238.384099,88.000000,0.000000,4151.282227,4122.051270,4133.333496,4109.230957,4141.025879,450.000000,4.000000,,,,0.000000,4.000000,4.000000,4.000000,4.000000,4.000000,,,,,,,,,,,,,,,,,,,,,,,,,
1577422238.391898,89.000000,0.000000,4171.794922,4144.615234,4157.948730,4125.128418,4164.102539,450.000000,4.000000,,,,0.000000,4.000000,4.000000,4.000000,4.000000,4.000000,,,,,,,,,,,,,,,,,,,,,,,,,
1577422238.399797,90.000000,0.000000,4177.436035,4160.512695,4165.641113,4106.666504,4164.615234,450.000000,4.000000,,,,0.000000,4.000000,4.000000,4.000000,4.000000,4.000000,,,,,,,,,,,,,,,,,,,,,,,,,
1577422238.407597,91.000000,0.000000,4156.410156,4149.230957,4153.846191,4086.666748,4134.871582,16206.000000,4.000000,,,,0.000000,4.000000,4.000000,4.000000,4.000000,4.000000,,,,,,,,,,,,,,,,,,,,,,,,,
1577422238.415496,92.000000,0.000000,4154.358887,4146.666504,4167.692383,4115.384766,4140.000000,450.000000,4.000000,,,,0.000000,4.000000,4.000000,4.000000,4.000000,4.000000,,,,,,,,,,,,,,,,,,,,,,,,,
1577422238.423296,93.000000,0.000000,4162.563965,4153.846191,4189.743652,4140.000000,4158.974121,450.000000,4.000000,,,,0.000000,4.000000,4.000000,4.000000,4.000000,4.000000,,,,,,,,,,,,,,,,,,,,,,,,,
1577422238.430995,94.000000,0.000000,4150.769043,4147.692383,4190.769043,4102.563965,4148.717773,450.000000,4.000000,,,,0.000000,4.000000,4.000000,4.000000,4.000000,4.000000,,,,,,,,,,,,,,,,,,,,,,,,,
1577422238.438794,95.000000,0.000000,4150.769043,4141.538574,4199.487305,4082.051270,4147.179688,16206.000000,4.000000,,,,0.000000,4.000000,4.000000,4.000000,4.000000,4.000000,,,,,,,,,,,,,,,,,,,,,,,,,
1577422238.446493,96.000000,0.000000,4165.641113,4149.230957,4214.871582,4117.436035,4161.025879,450.000000,4.000000,,,,0.000000,4.000000,4.000000,4.000000,4.000000,4.000000,,,,,,,,,,,,,,,,,,,,,,,,,
1577422238.454292,97.000000,0.000000,4162.051270,4160.512695,4210.769043,4136.410156,4161.538574,450.000000,4.000000,,,,0.000000,4.000000,4.000000,4.000000,4.000000,4.000000,,,,,,,,,,,,,,,,,,,,,,,,,
1577422238.461992,98.000000,0.000000,4150.769043,4165.128418,4198.461426,4109.743652,4150.256348,450.000000,4.000000,,,,0.000000,4.000000,4.000000,4.000000,4.000000,4.000000,,,,,,,,,,,,,,,,,,,,,,,,,
1577422238.469891,99.000000,0.000000,4151.282227,4165.641113,4192.820313,4093.846191,4147.692383,16206.000000,4.000000,,,,0.000000,4.000000,4.000000,4.000000,4.000000,4.000000,,,,,,,,,,,,,,,,,,,,,,,,,
1577422238.477691,100.000000,0.000000,4146.666504,4178.974121,4177.948730,4116.410156,4145.641113,450.000000,4.000000,,,,0.000000,4.000000,4.000000,4.000000,4.000000,4.000000,,,,,,,,,,,,,,,,,,,,,,,,,
1577422238.485591,101.000000,0.000000,4126.666504,4199.487305,4148.717773,4090.769287,4125.641113,450.000000,4.000000,,,,0.000000,4.000000,4.000000,4.000000,4.000000,4.000000,,,,,,,,,,,,,,,,,,,,,,,,,
1577422238.493390,102.000000,0.000000,4126.153809,4202.563965,4141.538574,4044.102539,4123.589844,450.000000,4.000000,,,,0.000000,4.000000,4.000000,4.000000,4.000000,4.000000,,,,,,,,,,,,,,,,,,,,,,,,,
1577422238.501290,103.000000,0.000000,4150.769043,4205.641113,4168.717773,4085.128174,4153.846191,16206.000000,4.000000,,,,0.000000,4.000000,4.000000,4.000000,4.000000,4.000000,125.106354,15.624641,5.141250,2.721084,8.069229,37.416965,11.605259,1.794539,1.640818,6.152295,61.202866,17.158426,5.055501,2.420946,4.925657,11.586483,4.237714,3.337310,3.990349,9.971590,54.652706,9.866468,3.017285,1.491714,8.545887
1577422238.509090,104.000000,0.000000,4158.461426,4215.897461,4185.128418,4132.820313,4166.666504,450.000000,4.000000,,,,0.000000,4.000000,4.000000,4.000000,4.000000,4.000000,,,,,,,,,,,,,,,,,,,,,,,,,
1577422238.516989,105.000000,0.000000,4150.256348,4212.307617,4186.153809,4098.461426,4156.410156,450.000000,4.000000,,,,0.000000,4.000000,4.000000,4.000000,4.000000,4.000000,,,,,,,,,,,,,,,,,,,,,,,,,
1577422238.524789,106.000000,0.000000,4152.820313,4203.077148,4200.512695,4072.820557,4152.307617,450.000000,4.000000,,,,0.000000,4.000000,4.000000,4.000000,4.000000,4.000000,,,,,,,,,,,,,,,,,,,,,,,,,
1577422238.532688,107.000000,0.000000,4153.846191,4208.717773,4204.615234,4087.692383,4149.743652,16206.000000,4.000000,,,,0.000000,4.000000,4.000000,4.000000,4.000000,4.000000,,,,,,,,,,,,,,,,,,,,,,,,,
1577422238.540488,108.000000,0.000000,4137.948730,4219.487305,4202.563965,4085.128174,4136.410156,450.000000,4.000000,,,,0.000000,4.000000,4.000000,4.000000,4.000000,4.000000,,,,,,,,,,,,,,,,,,,,,,,,,
1577422238.548387,109.000000,0.000000,4137.948730,4217.436035,4229.230957,4101.025879,4147.179688,450.000000,4.000000,,,,0.000000,4.000000,4.000000,4.000000,4.000000,4.000000,,,,,,,,,,,,,,,,,,,,,,,,,
1577422238.556186,110.000000,0.000000,4164.102539,4208.717773,4248.717773,4128.717773,4181.538574,450.000000,4.000000,,,,0.000000,4.000000,4.000000,4.000000,4.000000,4.000000,,,,,,,,,,,,,,,,,,,,,,,,,
1577422238.564086,111.000000,0.000000,4167.179688,4202.051270,4233.333496,4101.025879,4180.512695,16206.000000,4.000000,,,,0.000000,4.000000,4.000000,4.000000,4.000000,4.000000,,,,,,,,,,,,,,,,,,,,,,,,,
1577422238.571885,112.000000,0.000000,4147.692383,4198.974121,4232.820313,4074.871826,4160.512695,450.000000,4.000000,,,,0.000000,4.000000,4.000000,4.000000,4.000000,4.000000,,,,,,,,,,,,,,,,,,,,,,,,,
1577422238.579784,113.000000,0.000000,4153.333496,4204.615234,4268.717773,4109.743652,4172.307617,450.000000,4.000000,,,,0.000000,4.000000,4.000000,4.000000,4.000000,4.000000,,,,,,,,,,,,,,,,,,,,,,,,,
1577422238.587584,114.000000,0.000000,4169.230957,4208.205078,4294.871582,4134.871582,4187.179688,450.000000,4.000000,,,,0.000000,4.000000,4.000000,4.000000,4.000000,4.000000,,,,,,,,,,,,,,,,,,,,,,,,,
1577422238.595283,115.000000,0.000000,4162.563965,4193.846191,4295.384766,4120.512695,4178.461426,16206.000000,4.000000,,,,0.000000,4.000000,4.000000,4.000000,4.000000,4.000000,,,,,,,,,,,,,,,,,,,,,,,,,
1577422238.603083,116.000000,0.000000,4161.538574,4181.538574,4303.077148,4105.641113,4173.846191,450.000000,4.000000,,,,0.000000,4.000000,4.000000,4.000000,4.000000,4.000000,,,,,,,,,,,,,,,,,,,,,,,,,
1577422238.610782,117.000000,0.000000,4175.384766,4186.153809,4328.717773,4118.461426,4188.717773,450.000000,4.000000,,,,0.000000,4.000000,4.000000,4.000000,4.000000,4.000000,,,,,,,,,,,,,,,,,,,,,,,,,
1577422238.618682,118.000000,0.000000,4181.025879,4184.615234,4347.179688,4147.692383,4201.538574,450.000000,4.000000,,,,0.000000,4.000000,4.000000,4.000000,4.000000,4.000000,,,,,,,,,,,,,,,,,,,,,,,,,
1577422238.626482,119.000000,0.000000,4176.410156,4167.692383,4342.051270,4125.641113,4192.307617,16206.000000,4.000000,,,,0.000000,4.000000,4.000000,4.000000,4.000000,4.000000,89.265282,11.211364,4.239635,1.945139,3.041883,30.195553,8.921232,1.240399,0.971857,2.687328,48.490093,17.341558,4.592900,1.955888,2.121039,7.682985,2.884088,3.461420,4.712857,5.963867,40.177036,6.801185,2.900573,1.475914,3.324702
1577422238.634381,120.000000,0.000000,4167.179688,4151.794922,4325.128418,4082.051270,4176.410156,450.000000,4.000000,,,,0.000000,4.000000,4.000000,4.000000,4.000000,4.000000,,,,,,,,,,,,,,,,,,,,,,,,,
1577422238.642181,121.000000,0.000000,4138.974121,4133.333496,4298.974121,4081.538574,4150.256348,450.000000,4.000000,,,,0.000000,4.000000,4.000000,4.000000,4.000000,4.000000,,,,,,,,,,,,,,,,,,,,,,,,,
1577422238.650081,122.000000,0.000000,4110.256348,4115.897461,4278.974121,4086.153809,4121.538574,450.000000,4.000000,,,,0.000000,4.000000,4.000000,4.000000,4.000000,4.000000,,,,,,,,,,,,,,,,,,,,,,,,,
1577422238.657881,123.000000,0.000000,4133.846191,4147.179688,4308.205078,4083.589844,4143.077148,16206.000000,4.000000,,,,0.000000,4.000000,4.000000,4.000000,4.000000,4.000000,,,,,,,,,,,,,,,,,,,,,,,,,
1577422238.665681,124.000000,0.000000,4165.128418,4201.025879,4341.025879,4105.128418,4175.384766,450.000000,4.000000,,,,0.000000,4.000000,4.000000,4.000000,4.000000,4.000000,,,,,,,,,,,,,,,,,,,,,,,,,
1577422238.673380,125.000000,0.000000,4143.077148,4220.000000,4330.769043,4123.077148,4162.563965,450.000000,4.000000,,,,0.000000,4.000000,4.000000,4.000000,4.000000,4.000000,,,,,,,,,,,,,,,,,,,,,,,,,
1577422238.681279,126.000000,0.000000,4125.128418,4236.922852,4337.436035,4103.077148,4144.615234,450.000000,4.000000,,,,0.000000,4.000000,4.000000,4.000000,4.000000,4.000000,,,,,,,,,,,,,,,,,,,,,,,,,
1577422238.689079,127.000000,0.000000,4146.666504,4273.846191,4371.282227,4087.692383,4158.461426,234.000000,4.000000,,,,0.000000,4.000000,4.000000,4.000000,4.000000,4.000000,,,,,,,,,,,,,,,,,,,,,,,,,
1577422238.696879,0.000000,0.000000,4178.974121,4318.461426,4398.974121,4120.512695,4186.666504,450.000000,4.000000,,,,0.000000,4.000000,4.000000,4.000000,4.000000,4.000000,,,,,,,,,,,,,,,,,,,,,,,,,
1577422238.704578,1.000000,0.000000,4198.461426,4357.436035,4428.717773,4161.025879,4202.051270,450.000000,4.000000,,,,0.000000,4.000000,4.000000,4.000000,4.000000,4.000000,,,,,,,,,,,,,,,,,,,,,,,,,
1577422238.712477,2.000000,0.000000,4197.948730,4371.794922,4454.871582,4148.205078,4198.974121,16221.000000,4.000000,,,,0.000000,4.000000,4.000000,4.000000,4.000000,4.000000,,,,,,,,,,,,,,,,,,,,,,,,,
1577422238.720277,3.000000,0.000000,4182.051270,4368.717773,4449.743652,4111.282227,4180.512695,450.000000,4.000000,,,,0.000000,4.000000,4.000000,4.000000,4.000000,4.000000,,,,,,,,,,,,,,,,,,,,,,,,,
1577422238.728176,4.000000,0.000000,4174.358887,4383.589844,4442.051270,4109.743652,4170.256348,16191.000000,4.000000,,,,0.000000,4.000000,4.000000,4.000000,4.000000,4.000000,,,,,,,,,,,,,,,,,,,,,,,,,
1577422238.735976,5.000000,0.000000,4201.538574,4414.871582,4474.358887,4137.948730,4192.307617,450.000000,4.000000,,,,0.000000,4.000000,4.000000,4.000000,4.000000,4.000000,,,,,,,,,,,,,,,,,,,,,,,,,
1577422238.743875,6.000000,0.000000,4221.025879,4415.897461,4502.051270,4156.922852,4200.512695,16162.000000,4.000000,,,,0.000000,4.000000,4.000000,4.000000,4.000000,4.000000,,,,,,,,,,,,,,,,,,,,,,,,,
1577422238.751674,7.000000,0.000000,4210.769043,4413.846191,4494.871582,4149.230957,4190.256348,450.000000,4.000000,,,,0.000000,4.000000,4.000000,4.000000,4.000000,4.000000,57.815315,9.092599,4.188952,1.873845,1.234229,27.892475,7.535697,1.263244,0.758222,1.359567,41.042656,19.196133,3.959812,1.798847,1.076776,5.861274,2.837258,3.664465,5.132037,4.950833,28.178593,5.657767,2.911286,1.547743,1.363069
1577422238.759574,8.000000,0.000000,4222.563965,4441.025879,4497.948730,4152.820313,4212.307617,450.000000,4.000000,,,,0.000000,4.000000,4.000000,4.000000,4.000000,4.000000,,,,,,,,,,,,,,,,,,,,,,,,,
1577422238.767373,9.000000,0.000000,4252.307617,4454.358887,4523.589844,4167.692383,4245.128418,16182.000000,4.000000,,,,0.000000,4.000000,4.000000,4.000000,4.000000,4.000000,,,,,,,,,,,,,,,,,,,,,,,,,
1577422238.775072,10.000000,0.000000,4246.666504,4433.333496,4528.717773,4164.615234,4238.974121,450.000000,4.000000,,,,0.000000,4.000000,4.000000,4.000000,4.000000,4.000000,,,,,,,,,,,,,,,,,,,,,,,,,
1577422238.782872,11.000000,0.000000,4202.563965,4408.205078,4500.000000,4146.666504,4193.846191,16210.000000,4.000000,,,,0.000000,4.000000,4.000000,4.000000,4.000000,4.000000,,,,,,,,,,,,,,,,,,,,,,,,,
1577422238.790571,12.000000,0.000000,4197.948730,4423.589844,4504.102539,4150.256348,4189.230957,450.000000,4.000000,,,,0.000000,4.000000,4.000000,4.000000,4.000000,4.000000,,,,,,,,,,,,,,,,,,,,,,,,,
1577422238.798371,13.000000,0.000000,4239.487305,4451.282227,4543.589844,4169.743652,4236.922852,450.000000,4.000000,,,,0.000000,4.000000,4.000000,4.000000,4.000000,4.000000,,,,,,,,,,,,,,,,,,,,,,,,,
1577422238.806070,14.000000,0.000000,4245.128418,4431.794922,4536.922852,4155.897461,4245.641113,450.000000,4.000000,,,,0.000000,4.000000,4.000000,4.000000,4.000000,4.000000,,,,,,,,,,,,,,,,,,,,,,,,,
1577422238.813870,15.000000,0.000000,4222.051270,4403.589844,4506.666504,4141.025879,4222.051270,16210.000000,4.000000,,,,0.000000,4.000000,4.000000,4.000000,4.000000,4.000000,,,,,,,,,,,,,,,,,,,,,,,,,
1577422238.821569,16.000000,0.000000,4223.077148,4407.692383,4514.358887,4140.000000,4221.025879,0.000000,4.000000,,,,0.000000,4.000000,4.000000,4.000000,4.000000,4.000000,,,,,,,,,,,,,,,,,,,,,,,,,
1577422238.829368,17.000000,0.000000,4237.436035,4416.922852,4534.871582,4147.692383,4236.922852,0.000000,4.000000,,,,0.000000,4.000000,4.000000,4.000000,4.000000,4.000000,,,,,,,,,,,,,,,,,,,,,,,,,
1577422238.837067,18.000000,0.000000,4251.282227,4421.538574,4561.025879,4177.436035,4257.948730,0.000000,4.000000,,,,0.000000,4.000000,4.000000,4.000000,4.000000,4.000000,,,,,,,,,,,,,,,,,,,,,,,,,
1577422238.844866,19.000000,0.000000,4250.256348,4427.179688,4580.512695,4177.948730,4261.538574,0.000000,4.000000,,,,0.000000,4.000000,4.000000,4.000000,4.000000,4.000000,,,,,,,,,,,,,,,,,,,,,,,,,
1577422238.852566,20.000000,0.000000,4234.871582,4440.000000,4565.128418,4146.153809,4252.307617,0.000000,4.000000,,,,0.000000,4.000000,4.000000,4.000000,4.000000,4.000000,,,,,,,,,,,,,,,,,,,,,,,,,
1577422238.860365,21.000000,0.000000,4222.051270,4466.153809,4530.769043,4125.641113,4243.077148,0.000000,4.000000,,,,0.000000,4.000000,4.000000,4.000000,4.000000,4.000000,,,,,,,,,,,,,,,,,,,,,,,,,
1577422238.868064,22.000000,0.000000,4214.358887,4487.692383,4538.974121,4118.461426,4225.128418,0.000000,4.000000,,,,0.000000,4.000000,4.000000,4.000000,4.000000,4.000000,,,,,,,,,,,,,,,,,,,,,,,,,
1577422238.875963,23.000000,0.000000,4226.153809,4520.000000,4642.563965,4133.846191,4232.307617,0.000000,4.000000,,,,0.000000,4.000000,4.000000,4.000000,4.000000,4.000000,34.910442,8.629274,4.529208,2.095819,0.997616,27.888481,6.864896,1.497218,0.755054,1.098913,37.541744,20.797579,3.381534,1.744729,0.918725,5.364268,3.457997,3.907114,5.184683,5.457236,19.663467,5.706408,3.043906,1.674440,1.054374
1577422238.883763,24.000000,0.000000,4244.615234,4556.922852,4789.743652,4155.384766,4256.410156,0.000000,4.000000,,,,0.000000,4.000000,4.000000,4.000000,4.000000,4.000000,,,,,,,,,,,,,,,,,,,,,,,,,
1577422238.891663,25.000000,0.000000,4233.846191,4554.871582,4880.000000,4138.974121,4247.692383,0.000000,4.000000,,,,0.000000,4.000000,4.000000,4.000000,4.000000,4.000000,,,,,,,,,,,,,,,,,,,,,,,,,
1577422238.899462,26.000000,0.000000,4223.589844,4545.128418,4928.717773,4128.205078,4242.051270,0.000000,4.000000,,,,0.000000,4.000000,4.000000,4.000000,4.000000,4.000000,,,,,,,,,,,,,,,,,,,,,,,,,
1577422238.907362,27.000000,0.000000,4238.974121,4547.179688,4974.358887,4136.922852,4262.563965,0.000000,4.000000,,,,0.000000,4.000000,4.000000,4.000000,4.000000,4.000000,,,,,,,,,,,,,,,,,,,,,,,,,
1577422238.915161,28.000000,0.000000,4237.948730,4541.538574,5008.205078,4124.615234,4265.641113,0.000000,4.000000,,,,0.000000,4.000000,4.000000,4.000000,4.000000,4.000000,,,,,,,,,,,,,,,,,,,,,,,,,
1577422238.923061,29.000000,0.000000,4223.589844,4543.077148,5042.051270,4129.743652,4250.256348,0.000000,4.000000,,,,0.000000,4.000000,4.000000,4.000000,4.000000,4.000000,,,,,,,,,,,,,,,,,,,,,,,,,
1577422238.930861,30.000000,0.000000,4238.461426,4558.461426,5056.410156,4161.025879,4253.846191,0.000000,4.000000,,,,0.000000,4.000000,4.000000,4.000000,4.000000,4.000000,,,,,,,,,,,,,,,,,,,,,,,,,
1577422238.938760,31.000000,0.000000,4262.051270,4570.769043,5010.769043,4176.922852,4273.333496,0.000000,4.000000,,,,0.000000,4.000000,4.000000,4.000000,4.000000,4.000000,,,,,,,,,,,,,,,,,,,,,,,,,
1577422238.946559,32.000000,0.000000,4253.333496,4559.487305,4944.615234,4138.974121,4264.102539,0.000000,4.000000,,,,0.000000,4.000000,4.000000,4.000000,4.000000,4.000000,,,,,,,,,,,,,,,,,,,,,,,,,
1577422238.954459,33.000000,0.000000,4246.153809,4550.769043,4913.846191,4112.820313,4253.333496,0.000000,4.000000,,,,0.000000,4.000000,4.000000,4.000000,4.000000,4.000000,,,,,,,,,,,,,,,,,,,,,,,,,
1577422238.962258,34.000000,0.000000,4257.436035,4560.000000,4889.743652,4159.487305,4261.025879,0.000000,4.000000,,,,0.000000,4.000000,4.000000,4.000000,4.000000,4.000000,,,,,,,,,,,,,,,,,,,,,,,,,
1577422238.970157,35.000000,0.000000,4258.974121,4555.897461,4846.153809,4185.128418,4262.563965,0.000000,4.000000,,,,0.000000,4.000000,4.000000,4.000000,4.000000,4.000000,,,,,,,,,,,,,,,,,,,,,,,,,
1577422238.977957,36.000000,0.000000,4261.025879,4541.538574,4810.769043,4151.282227,4273.846191,0.000000,4.000000,,,,0.000000,4.000000,4.000000,4.000000,4.000000,4.000000,,,,,,,,,,,,,,,,,,,,,,,,,
1577422238.985656,37.000000,0.000000,4266.666504,4545.641113,4780.000000,4144.102539,4279.487305,0.000000,4.000000,,,,0.000000,4.000000,4.000000,4.000000,4.000000,4.000000,,,,,,,,,,,,,,,,,,,,,,,,,
1577422238.993455,38.000000,0.000000,4271.282227,4556.922852,4755.897461,4184.102539,4278.974121,0.000000,4.000000,,,,0.000000,4.000000,4.000000,4.000000,4.000000,4.000000,,,,,,,,,,,,,,,,,,,,,,,,,
1577422239.001255,39.000000,0.000000,4269.230957,4538.461426,4735.384766,4160.512695,4281.538574,0.000000,4.000000,,,,0.000000,4.000000,4.000000,4.000000,4.000000,4.000000,21.825678,8.927719,4.899734,2.278741,1.092795,29.423378,6.608710,1.676002,0.798715,1.086814,36.798580,21.054846,3.127454,1.662025,0.975151,5.363496,4.111514,4.104593,4.935834,6.234304,14.618628,6.142940,3.249438,1.803867,1.129452
1577422239.008954,40.000000,0.000000,4255.897461,4511.794922,4701.538574,4113.846191,4266.153809,0.000000,4.000000,,,,0.000000,4.000000,4.000000,4.000000,4.000000,4.000000,,,,,,,,,,,,,,,,,,,,,,,,,
1577422239.016653,41.000000,0.000000,4249.230957,4494.871582,4667.179688,4152.307617,4252.307617,0.000000,4.000000,,,,0.000000,4.000000,4.000000,4.000000,4.000000,4.000000,,,,,,,,,,,,,,,,,,,,,,,,,
1577422239.024452,42.000000,0.000000,4251.794922,4470.256348,4649.743652,4175.897461,4250.256348,0.000000,4.000000,,,,0.000000,4.000000,4.000000,4.000000,4.000000,4.000000,,,,,,,,,,,,,,,,,,,,,,,,,
1577422239.032151,43.000000,0.000000,4262.563965,4458.974121,4646.153809,4150.256348,4261.538574,0.000000,4.000000,,,,0.000000,4.000000,4.000000,4.000000,4.000000,4.000000,,,,,,,,,,,,,,,,,,,,,,,,,
1577422239.040051,44.000000,0.000000,4258.461426,4440.000000,4624.615234,4153.333496,4262.051270,0.000000,4.000000,,,,0.000000,4.000000,4.000000,4.000000,4.000000,4.000000,,,,,,,,,,,,,,,,,,,,,,,,,
1577422239.047851,45.000000,0.000000,4226.153809,4391.282227,4589.743652,4149.743652,4229.743652,0.000000,4.000000,,,,0.000000,4.000000,4.000000,4.000000,4.000000,4.000000,,,,,,,,,,,,,,,,,,,,,,,,,
1577422239.055651,46.000000,0.000000,4207.179688,4367.692383,4560.512695,4118.461426,4214.871582,0.000000,4.000000,,,,0.000000,4.000000,4.000000,4.000000,4.000000,4.000000,,,,,,,,,,,,,,,,,,,,,,,,,
1577422239.063350,47.000000,0.000000,4224.102539,4371.282227,4510.769043,4125.128418,4233.846191,0.000000,4.000000,,,,0.000000,4.000000,4.000000,4.000000,4.000000,4.000000,,,,,,,,,,,,,,,,,,,,,,,,,
1577422239.071250,48.000000,0.000000,4246.666504,4359.487305,4446.153809,4149.230957,4245.641113,0.000000,4.000000,,,,0.000000,4.000000,4.000000,4.000000,4.000000,4.000000,,,,,,,,,,,,,,,,,,,,,,,,,
1577422239.079049,49.000000,0.000000,4248.717773,4353.333496,4432.820313,4146.666504,4242.051270,0.000000,4.000000,,,,0.000000,4.000000,4.000000,4.000000,4.000000,4.000000,,,,,,,,,,,,,,,,,,,,,,,,,
1577422239.086949,50.000000,0.000000,4236.922852,4363.077148,4458.461426,4141.538574,4233.846191,0.000000,4.000000,,,,0.000000,4.000000,4.000000,4.000000,4.000000,4.000000,,,,,,,,,,,,,,,,,,,,,,,,,
1577422239.094748,51.000000,0.000000,4247.179688,4369.230957,4433.846191,4142.563965,4241.025879,0.000000,4.000000,,,,0.000000,4.000000,4.000000,4.000000,4.000000,4.000000,,,,,,,,,,,,,,,,,,,,,,,,,
1577422239.102648,52.000000,0.000000,4273.333496,4374.871582,4360.000000,4154.358887,4254.871582,0.000000,4.000000,,,,0.000000,4.000000,4.000000,4.000000,4.000000,4.000000,,,,,,,,,,,,,,,,,,,,,,,,,
1577422239.110447,53.000000,0.000000,4275.897461,4384.102539,4309.230957,4170.769043,4253.846191,0.000000,4.000000,,,,0.000000,4.000000,4.000000,4.000000,4.000000,4.000000,,,,,,,,,,,,,,,,,,,,,,,,,
1577422239.118347,54.000000,0.000000,4271.794922,4384.102539,4283.077148,4174.871582,4260.000000,0.000000,4.000000,,,,0.000000,4.000000,4.000000,4.000000,4.000000,4.000000,,,,,,,,,,,,,,,,,,,,,,,,,
1577422239.126147,55.000000,0.000000,4277.948730,4374.358887,4225.641113,4151.282227,4268.717773,0.000000,4.000000,,,,0.000000,4.000000,4.000000,4.000000,4.000000,4.000000,16.306204,9.060769,5.114067,2.326901,1.240692,34.806995,6.656245,1.772080,0.858193,1.120699,44.349701,20.432928,3.444395,1.613340,1.090269,5.458479,4.416949,4.149545,4.537735,6.812366,11.898688,6.303721,3.460315,1.922539,1.279810
1577422239.134046,56.000000,0.000000,4285.641113,4380.000000,4167.179688,4154.358887,4274.358887,0.000000,4.000000,,,,0.000000,4.000000,4.000000,4.000000,4.000000,4.000000,,,,,,,,,,,,,,,,,,,,,,,,,
1577422239.141845,57.000000,0.000000,4288.205078,4386.153809,4134.871582,4190.256348,4276.922852,0.000000,4.000000,,,,0.000000,4.000000,4.000000,4.000000,4.000000,4.000000,,,,,,,,,,,,,,,,,,,,,,,,,
1577422239.149545,58.000000,0.000000,4281.025879,4370.769043,4091.794922,4180.000000,4264.615234,0.000000,4.000000,,,,0.000000,4.000000,4.000000,4.000000,4.000000,4.000000,,,,,,,,,,,,,,,,,,,,,,,,,
1577422239.157344,59.000000,0.000000,4281.538574,4372.820313,4068.718018,4148.717773,4262.563965,0.000000,4.000000,,,,0.000000,4.000000,4.000000,4.000000,4.000000,4.000000,,,,,,,,,,,,,,,,,,,,,,,,,
1577422239.165243,60.000000,0.000000,4282.051270,4389.230957,4071.794922,4141.025879,4264.615234,0.000000,4.000000,,,,0.000000,4.000000,4.000000,4.000000,4.000000,4.000000,,,,,,,,,,,,,,,,,,,,,,,,,
1577422239.173043,61.000000,0.000000,4265.128418,4392.820313,4058.974365,4150.769043,4249.230957,0.000000,4.000000,,,,0.000000,4.000000,4.000000,4.000000,4.000000,4.000000,,,,,,,,,,,,,,,,,,,,,,,,,
1577422239.180742,62.000000,0.000000,4245.641113,4406.153809,4040.000000,4146.153809,4234.358887,0.000000,4.000000,,,,0.000000,4.000000,4.000000,4.000000,4.000000,4.000000,,,,,,,,,,,,,,,,,,,,,,,,,
1577422239.188642,63.000000,0.000000,4240.000000,4435.897461,4028.205078,4121.025879,4225.128418,0.000000,4.000000,,,,0.000000,4.000000,4.000000,4.000000,4.000000,4.000000,,,,,,,,,,,,,,,,,,,,,,,,,
1577422239.196442,64.000000,0.000000,4258.974121,4475.384766,4043.076904,4142.563965,4245.128418,450.000000,4.000000,,,,0.000000,4.000000,4.000000,4.000000,4.000000,4.000000,,,,,,,,,,,,,,,,,,,,,,,,,
1577422239.204342,65.000000,0.000000,4268.717773,4504.102539,4091.794922,4181.025879,4265.641113,450.000000,4.000000,,,,0.000000,4.000000,4.000000,4.000000,4.000000,4.000000,,,,,,,,,,,,,,,,,,,,,,,,,
1577422239.212142,66.000000,0.000000,4255.384766,4518.974121,4142.563965,4165.641113,4257.948730,16224.000000,4.000000,,,,0.000000,4.000000,4.000000,4.000000,4.000000,4.000000,,,,,,,,,,,,,,,,,,,,,,,,,
1577422239.219942,67.000000,0.000000,4266.153809,4547.692383,4180.000000,4154.871582,4270.769043,450.000000,4.000000,,,,0.000000,4.000000,4.000000,4.000000,4.000000,4.000000,,,,,,,,,,,,,,,,,,,,,,,,,
1577422239.227641,68.000000,0.000000,4296.410156,4560.000000,4217.948730,4166.153809,4283.589844,16183.000000,4.000000,,,,0.000000,4.000000,4.000000,4.000000,4.000000,4.000000,,,,,,,,,,,,,,,,,,,,,,,,,
1577422239.235440,69.000000,0.000000,4312.307617,4550.256348,4286.153809,4138.461426,4286.153809,450.000000,4.000000,,,,0.000000,4.000000,4.000000,4.000000,4.000000,4.000000,,,,,,,,,,,,,,,,,,,,,,,,,
1577422239.243140,70.000000,0.000000,4298.461426,4567.179688,4333.846191,4096.410156,4283.077148,16151.000000,4.000000,,,,0.000000,4.000000,4.000000,4.000000,4.000000,4.000000,,,,,,,,,,,,,,,,,,,,,,,,,
1577422239.250939,71.000000,0.000000,4277.436035,4603.077148,4302.051270,4069.743652,4252.820313,450.000000,4.000000,,,,0.000000,4.000000,4.000000,4.000000,4.000000,4.000000,14.290127,8.399837,5.012411,2.253489,1.417392,47.007259,7.002920,1.817413,0.939643,1.160725,64.318565,20.538492,4.409224,1.806912,1.256101,5.537305,4.284081,3.963992,4.162515,6.999391,10.179785,5.869165,3.616351,2.028888,1.476403
1577422239.258638,72.000000,0.000000,4276.410156,4612.307617,4255.384766,4040.512939,4244.102539,450.000000,4.000000,,,,0.000000,4.000000,4.000000,4.000000,4.000000,4.000000,,,,,,,,,,,,,,,,,,,,,,,,,
1577422239.266437,73.000000,0.000000,4260.512695,4604.615234,4212.820313,4007.179443,4231.282227,16166.000000,4.000000,,,,0.000000,4.000000,4.000000,4.000000,4.000000,4.000000,,,,,,,,,,,,,,,,,,,,,,,,,
1577422239.274136,74.000000,0.000000,4234.358887,4612.820313,4152.307617,4002.564209,4207.692383,450.000000,4.000000,,,,0.000000,4.000000,4.000000,4.000000,4.000000,4.000000,,,,,,,,,,,,,,,,,,,,,,,,,
1577422239.281936,75.000000,0.000000,4289.230957,4649.230957,4155.384766,4064.102539,4270.769043,16209.000000,4.000000,,,,0.000000,4.000000,4.000000,4.000000,4.000000,4.000000,,,,,,,,,,,,,,,,,,,,,,,,,
1577422239.289635,76.000000,0.000000,4385.641113,4692.307617,4216.922852,4127.692383,4362.563965,450.000000,4.000000,,,,0.000000,4.000000,4.000000,4.000000,4.000000,4.000000,,,,,,,,,,,,,,,,,,,,,,,,,
1577422239.297534,77.000000,0.000000,4390.256348,4696.410156,4204.615234,4118.461426,4371.282227,450.000000,4.000000,,,,0.000000,4.000000,4.000000,4.000000,4.000000,4.000000,,,,,,,,,,,,,,,,,,,,,,,,,
1577422239.305334,78.000000,0.000000,4344.615234,4676.410156,4141.025879,4101.538574,4334.358887,450.000000,4.000000,,,,0.000000,4.000000,4.000000,4.000000,4.000000,4.000000,,,,,,,,,,,,,,,,,,,,,,,,,
1577422239.313233,79.000000,0.000000,4361.025879,4677.948730,4128.205078,4136.410156,4346.666504,16209.000000,4.000000,,,,0.000000,4.000000,4.000000,4.000000,4.000000,4.000000,,,,,,,,,,,,,,,,,,,,,,,,,
1577422239.321033,80.000000,0.000000,4378.461426,4668.717773,4109.230957,4125.128418,4373.846191,450.000000,4.000000,,,,0.000000,4.000000,4.000000,4.000000,4.000000,4.000000,,,,,,,,,,,,,,,,,,,,,,,,,
1577422239.328932,81.000000,0.000000,4334.358887,4612.307617,4070.769287,4063.589844,4333.846191,450.000000,4.000000,,,,0.000000,4.000000,4.000000,4.000000,4.000000,4.000000,,,,,,,,,,,,,,,,,,,,,,,,,
1577422239.336732,82.000000,0.000000,4311.282227,4560.512695,4127.692383,4078.461426,4309.743652,450.000000,4.000000,,,,0.000000,4.000000,4.000000,4.000000,4.000000,4.000000,,,,,,,,,,,,,,,,,,,,,,,,,
1577422239.344631,83.000000,0.000000,4332.307617,4533.846191,4280.000000,4128.717773,4326.666504,16209.000000,4.000000,,,,0.000000,4.000000,4.000000,4.000000,4.000000,4.000000,,,,,,,,,,,,,,,,,,,,,,,,,
1577422239.352431,84.000000,0.000000,4330.256348,4495.897461,4420.512695,4108.717773,4317.436035,450.000000,4.000000,,,,0.000000,4.000000,4.000000,4.000000,4.000000,4.000000,,,,,,,,,,,,,,,,,,,,,,,,,
1577422239.360330,85.000000,0.000000,4310.769043,4469.743652,4474.871582,4057.435791,4313.846191,450.000000,4.000000,,,,0.000000,4.000000,4.000000,4.000000,4.000000,4.000000,,,,,,,,,,,,,,,,,,,,,,,,,
1577422239.368129,86.000000,0.000000,4296.922852,4456.922852,4433.333496,4056.923096,4307.692383,450.000000,4.000000,,,,0.000000,4.000000,4.000000,4.000000,4.000000,4.000000,,,,,,,,,,,,,,,,,,,,,,,,,
1577422239.375829,87.000000,0.000000,4294.358887,4438.974121,4385.128418,4094.358887,4298.461426,16209.000000,4.000000,,,,0.000000,4.000000,4.000000,4.000000,4.000000,4.000000,12.687433,6.923591,4.564297,2.108610,1.592399,66.411644,7.713321,1.843052,1.042312,1.180947,100.322609,22.631430,5.985208,2.422722,1.460323,5.628309,3.799497,3.524223,3.927445,6.717313,8.620457,4.882303,3.663031,2.105029,1.674056
1577422239.383628,88.000000,0.000000,4290.256348,4429.230957,4377.436035,4095.384521,4296.922852,450.000000,4.000000,,,,0.000000,4.000000,4.000000,4.000000,4.000000,4.000000,,,,,,,,,,,,,,,,,,,,,,,,,
1577422239.391328,89.000000,0.000000,4263.077148,4419.487305,4351.282227,4058.461426,4269.743652,450.000000,4.000000,,,,0.000000,4.000000,4.000000,4.000000,4.000000,4.000000,,,,,,,,,,,,,,,,,,,,,,,,,
1577422239.399127,90.000000,0.000000,4277.948730,4409.230957,4329.743652,4066.666748,4285.128418,450.000000,4.000000,,,,0.000000,4.000000,4.000000,4.000000,4.000000,4.000000,,,,,,,,,,,,,,,,,,,,,,,,,
1577422239.406826,91.000000,0.000000,4301.538574,4373.333496,4303.077148,4086.153809,4301.538574,16209.000000,4.000000,,,,0.000000,4.000000,4.000000,4.000000,4.000000,4.000000,,,,,,,,,,,,,,,,,,,,,,,,,
1577422239.414625,92.000000,0.000000,4262.563965,4329.743652,4233.846191,4046.666748,4250.256348,450.000000,4.000000,,,,0.000000,4.000000,4.000000,4.000000,4.000000,4.000000,,,,,,,,,,,,,,,,,,,,,,,,,
1577422239.422325,93.000000,0.000000,4265.128418,4360.000000,4237.436035,4071.281982,4256.922852,450.000000,4.000000,,,,0.000000,4.000000,4.000000,4.000000,4.000000,4.000000,,,,,,,,,,,,,,,,,,,,,,,,,
1577422239.430124,94.000000,0.000000,4329.743652,4405.128418,4314.871582,4145.641113,4318.461426,450.000000,4.000000,,,,0.000000,4.000000,4.000000,4.000000,4.000000,4.000000,,,,,,,,,,,,,,,,,,,,,,,,,
1577422239.437823,95.000000,0.000000,4346.153809,4377.948730,4333.333496,4149.230957,4321.538574,16209.000000,4.000000,,,,0.000000,4.000000,4.000000,4.000000,4.000000,4.000000,,,,,,,,,,,,,,,,,,,,,,,,,
1577422239.445622,96.000000,0.000000,4331.282227,4351.282227,4321.538574,4151.794922,4304.615234,450.000000,4.000000,,,,0.000000,4.000000,4.000000,4.000000,4.000000,4.000000,,,,,,,,,,,,,,,,,,,,,,,,,
1577422239.453322,97.000000,0.000000,4348.717773,4374.358887,4357.948730,4163.077148,4323.077148,450.000000,4.000000,,,,0.000000,4.000000,4.000000,4.000000,4.000000,4.000000,,,,,,,,,,,,,,,,,,,,,,,,,
1577422239.461221,98.000000,0.000000,4348.205078,4366.153809,4372.307617,4108.717773,4313.333496,450.000000,4.000000,,,,0.000000,4.000000,4.000000,4.000000,4.000000,4.000000,,,,,,,,,,,,,,,,,,,,,,,,,
1577422239.469021,99.000000,0.000000,4333.333496,4331.282227,4337.948730,4080.512939,4283.589844,16209.000000,4.000000,,,,0.000000,4.000000,4.000000,4.000000,4.000000,4.000000,,,,,,,,,,,,,,,,,,,,,,,,,
1577422239.476920,100.000000,0.000000,4341.025879,4336.410156,4317.436035,4142.051270,4290.256348,450.000000,4.000000,,,,0.000000,4.000000,4.000000,4.000000,4.000000,4.000000,,,,,,,,,,,,,,,,,,,,,,,,,
1577422239.484720,101.000000,0.000000,4308.205078,4332.820313,4266.153809,4123.589844,4258.461426,450.000000,4.000000,,,,0.000000,4.000000,4.000000,4.000000,4.000000,4.000000,,,,,,,,,,,,,,,,,,,,,,,,,
1577422239.492619,102.000000,0.000000,4250.769043,4309.230957,4174.871582,4024.102539,4188.205078,450.000000,4.000000,,,,0.000000,4.000000,4.000000,4.000000,4.000000,4.000000,,,,,,,,,,,,,,,,,,,,,,,,,
1577422239.500419,103.000000,0.000000,4268.205078,4334.871582,4152.307617,4022.051270,4194.871582,16209.000000,4.000000,,,,0.000000,4.000000,4.000000,4.000000,4.000000,4.000000,11.310959,5.292826,3.970049,1.961124,1.735415,88.178757,8.870935,1.887071,1.155902,1.173483,150.355804,27.590208,8.206106,3.526603,1.694881,5.913432,3.440332,3.041352,3.834051,6.042825,7.424118,3.844530,3.660520,2.136865,1.822333
1577422239.508318,104.000000,0.000000,4320.000000,4371.794922,4181.025879,4076.410156,4246.666504,450.000000,4.000000,,,,0.000000,4.000000,4.000000,4.000000,4.000000,4.000000,,,,,,,,,,,,,,,,,,,,,,,,,
1577422239.516118,105.000000,0.000000,4296.410156,4350.256348,4147.179688,4060.000000,4226.666504,450.000000,4.000000,,,,0.000000,4.000000,4.000000,4.000000,4.000000,4.000000,,,,,,,,,,,,,,,,,,,,,,,,,
1577422239.524017,106.000000,0.000000,4228.205078,4316.410156,4072.820557,3984.615479,4163.077148,450.000000,4.000000,,,,0.000000,4.000000,4.000000,4.000000,4.000000,4.000000,,,,,,,,,,,,,,,,,,,,,,,,,
1577422239.531817,107.000000,0.000000,4227.179688,4326.666504,4072.307617,3988.205078,4170.256348,16209.000000,4.000000,,,,0.000000,4.000000,4.000000,4.000000,4.000000,4.000000,,,,,,,,,,,,,,,,,,,,,,,,,
1577422239.539716,108.000000,0.000000,4316.922852,4376.922852,4169.743652,4110.769043,4264.615234,450.000000,4.000000,,,,0.000000,4.000000,4.000000,4.000000,4.000000,4.000000,,,,,,,,,,,,,,,,,,,,,,,,,
1577422239.547515,109.000000,0.000000,4395.897461,4410.256348,4271.794922,4177.948730,4348.205078,450.000000,4.000000,,,,0.000000,4.000000,4.000000,4.000000,4.000000,4.000000,,,,,,,,,,,,,,,,,,,,,,,,,
1577422239.555315,110.000000,0.000000,4374.358887,4384.102539,4311.282227,4118.461426,4333.333496,450.000000,4.000000,,,,0.000000,4.000000,4.000000,4.000000,4.000000,4.000000,,,,,,,,,,,,,,,,,,,,,,,,,
1577422239.563014,111.000000,0.000000,4308.205078,4340.000000,4326.153809,4067.179443,4274.871582,16209.000000,4.000000,,,,0.000000,4.000000,4.000000,4.000000,4.000000,4.000000,,,,,,,,,,,,,,,,,,,,,,,,,
1577422239.570713,112.000000,0.000000,4281.538574,4336.922852,4358.461426,4085.641113,4261.538574,450.000000,4.000000,,,,0.000000,4.000000,4.000000,4.000000,4.000000,4.000000,,,,,,,,,,,,,,,,,,,,,,,,,
1577422239.578512,113.000000,0.000000,4288.717773,4358.974121,4398.974121,4064.615479,4267.692383,450.000000,4.000000,,,,0.000000,4.000000,4.000000,4.000000,4.000000,4.000000,,,,,,,,,,,,,,,,,,,,,,,,,
1577422239.586212,114.000000,0.000000,4293.846191,4356.410156,4437.948730,4022.051270,4268.717773,450.000000,4.000000,,,,0.000000,4.000000,4.000000,4.000000,4.000000,4.000000,,,,,,,,,,,,,,,,,,,,,,,,,
1577422239.594112,115.000000,0.000000,4298.974121,4346.666504,4484.102539,4055.384521,4277.436035,16209.000000,4.000000,,,,0.000000,4.000000,4.000000,4.000000,4.000000,4.000000,,,,,,,,,,,,,,,,,,,,,,,,,
1577422239.601912,116.000000,0.000000,4322.563965,4365.641113,4537.948730,4097.948730,4291.282227,450.000000,4.000000,,,,0.000000,4.000000,4.000000,4.000000,4.000000,4.000000,,,,,,,,,,,,,,,,,,,,,,,,,
1577422239.609811,117.000000,0.000000,4332.820313,4367.692383,4586.153809,4071.794922,4304.615234,450.000000,4.000000,,,,0.000000,4.000000,4.000000,4.000000,4.000000,4.000000,,,,,,,,,,,,,,,,,,,,,,,,,
1577422239.617611,118.000000,0.000000,4322.563965,4337.948730,4650.256348,4046.153809,4293.846191,450.000000,4.000000,,,,0.000000,4.000000,4.000000,4.000000,4.000000,4.000000,,,,,,,,,,,,,,,,,,,,,,,,,
1577422239.625511,119.000000,0.000000,4338.461426,4333.333496,4733.333496,4102.563965,4298.974121,16209.000000,4.000000,,,,0.000000,4.000000,4.000000,4.000000,4.000000,4.000000,10.947714,4.109459,3.633661,1.900485,1.848708,104.864906,10.524851,2.009377,1.263253,1.151929,210.382309,36.621040,11.383414,5.197395,1.974101,6.714540,4.049730,2.994097,3.819613,5.202637,6.934556,3.361719,3.892208,2.143726,1.908720
1577422239.633311,120.000000,0.000000,4365.128418,4332.820313,4781.025879,4110.256348,4331.794922,450.000000,4.000000,,,,0.000000,4.000000,4.000000,4.000000,4.000000,4.000000,,,,,,,,,,,,,,,,,,,,,,,,,
1577422239.641211,121.000000,0.000000,4384.102539,4308.717773,4797.436035,4045.641113,4336.922852,450.000000,4.000000,,,,0.000000,4.000000,4.000000,4.000000,4.000000,4.000000,,,,,,,,,,,,,,,,,,,,,,,,,
1577422239.649010,122.000000,0.000000,4403.077148,4295.384766,4817.436035,4075.897461,4357.948730,450.000000,4.000000,,,,0.000000,4.000000,4.000000,4.000000,4.000000,4.000000,,,,,,,,,,,,,,,,,,,,,,,,,
1577422239.656810,123.000000,0.000000,4406.153809,4292.820313,4773.333496,4134.358887,4369.230957,16209.000000,4.000000,,,,0.000000,4.000000,4.000000,4.000000,4.000000,4.000000,,,,,,,,,,,,,,,,,,,,,,,,,
1577422239.664510,124.000000,0.000000,4381.025879,4281.538574,4645.641113,4073.846191,4335.384766,450.000000,4.000000,,,,0.000000,4.000000,4.000000,4.000000,4.000000,4.000000,,,,,,,,,,,,,,,,,,,,,,,,,
1577422239.672309,125.000000,0.000000,4364.615234,4271.794922,4553.333496,4021.025635,4333.333496,450.000000,4.000000,,,,0.000000,4.000000,4.000000,4.000000,4.000000,4.000000,,,,,,,,,,,,,,,,,,,,,,,,,
1577422239.680008,126.000000,0.000000,4374.871582,4280.000000,4525.641113,4085.128174,4341.025879,450.000000,4.000000,,,,0.000000,4.000000,4.000000,4.000000,4.000000,4.000000,,,,,,,,,,,,,,,,,,,,,,,,,
1577422239.687807,127.000000,0.000000,4365.128418,4274.358887,4458.461426,4104.102539,4327.692383,234.000000,4.000000,,,,0.000000,4.000000,4.000000,4.000000,4.000000,4.000000,,,,,,,,,,,,,,,,,,,,,,,,,
1577422239.695506,0.000000,0.000000,4328.205078,4236.922852,4338.461426,4043.076904,4304.615234,450.000000,4.000000,,,,0.000000,4.000000,4.000000,4.000000,4.000000,4.000000,,,,,,,,,,,,,,,,,,,,,,,,,
1577422239.703405,1.000000,0.000000,4326.153809,4228.205078,4261.538574,4043.589844,4292.307617,450.000000,4.000000,,,,0.000000,4.000000,4.000000,4.000000,4.000000,4.000000,,,,,,,,,,,,,,,,,,,,,,,,,
1577422239.711205,2.000000,0.000000,4342.051270,4228.205078,4235.897461,4088.205078,4307.692383,16218.000000,4.000000,,,,0.000000,4.000000,4.000000,4.000000,4.000000,4.000000,,,,,,,,,,,,,,,,,,,,,,,,,
1577422239.719104,3.000000,0.000000,4335.384766,4189.230957,4208.205078,4126.666504,4306.666504,450.000000,4.000000,,,,0.000000,4.000000,4.000000,4.000000,4.000000,4.000000,,,,,,,,,,,,,,,,,,,,,,,,,
1577422239.726903,4.000000,0.000000,4334.358887,4152.820313,4172.307617,4130.769043,4301.025879,16197.000000,4.000000,,,,0.000000,4.000000,4.000000,4.000000,4.000000,4.000000,,,,,,,,,,,,,,,,,,,,,,,,,
1577422239.734803,5.000000,0.000000,4320.512695,4121.538574,4157.948730,4093.846191,4287.692383,450.000000,4.000000,,,,0.000000,4.000000,4.000000,4.000000,4.000000,4.000000,,,,,,,,,,,,,,,,,,,,,,,,,
1577422239.742602,6.000000,0.000000,4327.179688,4118.974121,4230.256348,4121.025879,4284.615234,16151.000000,4.000000,,,,0.000000,4.000000,4.000000,4.000000,4.000000,4.000000,,,,,,,,,,,,,,,,,,,,,,,,,
1577422239.750302,7.000000,0.000000,4347.179688,4130.769043,4308.717773,4142.051270,4301.025879,450.000000,4.000000,,,,0.000000,4.000000,4.000000,4.000000,4.000000,4.000000,12.228276,3.991587,3.958989,2.001121,1.994361,113.256546,12.625154,2.315844,1.363890,1.156453,269.958008,51.798038,15.885959,7.456966,2.347899,8.278796,6.522422,3.862323,3.828628,4.529078,7.727982,4.110231,4.723747,2.168667,1.995007
1577422239.758101,8.000000,0.000000,4308.205078,4103.077148,4317.948730,4082.051270,4273.846191,450.000000,4.000000,,,,0.000000,4.000000,4.000000,4.000000,4.000000,4.000000,,,,,,,,,,,,,,,,,,,,,,,,,
1577422239.765801,9.000000,0.000000,4282.563965,4098.461426,4335.384766,4078.461426,4247.179688,16162.000000,4.000000,,,,0.000000,4.000000,4.000000,4.000000,4.000000,4.000000,,,,,,,,,,,,,,,,,,,,,,,,,
1577422239.773600,10.000000,0.000000,4303.077148,4141.538574,4376.410156,4117.436035,4264.102539,450.000000,4.000000,,,,0.000000,4.000000,4.000000,4.000000,4.000000,4.000000,,,,,,,,,,,,,,,,,,,,,,,,,
1577422239.781299,11.000000,0.000000,4300.000000,4167.179688,4410.256348,4092.820557,4260.512695,16205.000000,4.000000,,,,0.000000,4.000000,4.000000,4.000000,4.000000,4.000000,,,,,,,,,,,,,,,,,,,,,,,,,
1577422239.789099,12.000000,0.000000,4292.820313,4186.153809,4436.410156,4057.435791,4253.846191,450.000000,4.000000,,,,0.000000,4.000000,4.000000,4.000000,4.000000,4.000000,,,,,,,,,,,,,,,,,,,,,,,,,
1577422239.796798,13.000000,0.000000,4337.948730,4241.025879,4454.358887,4113.846191,4293.846191,450.000000,4.000000,,,,0.000000,4.000000,4.000000,4.000000,4.000000,4.000000,,,,,,,,,,,,,,,,,,,,,,,,,
1577422239.804597,14.000000,0.000000,4371.794922,4267.692383,4440.512695,4184.102539,4320.000000,450.000000,4.000000,,,,0.000000,4.000000,4.000000,4.000000,4.000000,4.000000,,,,,,,,,,,,,,,,,,,,,,,,,
1577422239.812296,15.000000,0.000000,4369.230957,4273.333496,4400.000000,4160.512695,4319.487305,16205.000000,4.000000,,,,0.000000,4.000000,4.000000,4.000000,4.000000,4.000000,,,,,,,,,,,,,,,,,,,,,,,,,
1577422239.820096,16.000000,0.000000,4358.461426,4301.025879,4347.179688,4118.461426,4306.666504,0.000000,4.000000,,,,0.000000,4.000000,4.000000,4.000000,4.000000,4.000000,,,,,,,,,,,,,,,,,,,,,,,,,
1577422239.827795,17.000000,0.000000,4315.897461,4304.102539,4284.615234,4122.051270,4262.563965,0.000000,4.000000,,,,0.000000,4.000000,4.000000,4.000000,4.000000,4.000000,,,,,,,,,,,,,,,,,,,,,,,,,
1577422239.835594,18.000000,0.000000,4297.436035,4316.922852,4262.051270,4132.820313,4247.692383,0.000000,4.000000,,,,0.000000,4.000000,4.000000,4.000000,4.000000,4.000000,,,,,,,,,,,,,,,,,,,,,,,,,
1577422239.843293,19.000000,0.000000,4298.974121,4338.974121,4271.282227,4129.230957,4248.717773,0.000000,4.000000,,,,0.000000,4.000000,4.000000,4.000000,4.000000,4.000000,,,,,,,,,,,,,,,,,,,,,,,,,
1577422239.851092,20.000000,0.000000,4284.102539,4347.692383,4287.692383,4132.820313,4238.974121,0.000000,4.000000,,,,0.000000,4.000000,4.000000,4.000000,4.000000,4.000000,,,,,,,,,,,,,,,,,,,,,,,,,
1577422239.858792,21.000000,0.000000,4274.871582,4369.743652,4309.230957,4091.281982,4235.897461,0.000000,4.000000,,,,0.000000,4.000000,4.000000,4.000000,4.000000,4.000000,,,,,,,,,,,,,,,,,,,,,,,,,
1577422239.866591,22.000000,0.000000,4258.461426,4381.025879,4317.948730,4057.435791,4219.487305,0.000000,4.000000,,,,0.000000,4.000000,4.000000,4.000000,4.000000,4.000000,,,,,,,,,,,,,,,,,,,,,,,,,
1577422239.874290,23.000000,0.000000,4237.436035,4369.743652,4315.897461,4109.743652,4209.743652,0.000000,4.000000,,,,0.000000,4.000000,4.000000,4.000000,4.000000,4.000000,14.484973,5.393590,5.118618,2.385186,2.268570,108.744156,14.841628,2.878458,1.493710,1.238066,329.796570,74.237892,21.565924,10.175570,2.876706,10.758675,11.300121,5.845130,3.921493,4.360708,9.552003,6.667089,6.345527,2.342583,2.190283
1577422239.882189,24.000000,0.000000,4222.563965,4362.051270,4311.794922,4122.563965,4205.128418,0.000000,4.000000,,,,0.000000,4.000000,4.000000,4.000000,4.000000,4.000000,,,,,,,,,,,,,,,,,,,,,,,,,
1577422239.889989,25.000000,0.000000,4242.051270,4378.974121,4334.871582,4087.692383,4219.487305,0.000000,4.000000,,,,0.000000,4.000000,4.000000,4.000000,4.000000,4.000000,,,,,,,,,,,,,,,,,,,,,,,,,
1577422239.897888,26.000000,0.000000,4289.230957,4406.666504,4381.538574,4119.487305,4270.256348,0.000000,4.000000,,,,0.000000,4.000000,4.000000,4.000000,4.000000,4.000000,,,,,,,,,,,,,,,,,,,,,,,,,
1577422239.905688,27.000000,0.000000,4278.974121,4390.769043,4388.205078,4142.051270,4267.179688,0.000000,4.000000,,,,0.000000,4.000000,4.000000,4.000000,4.000000,4.000000,,,,,,,,,,,,,,,,,,,,,,,,,
1577422239.913587,28.000000,0.000000,4233.846191,4347.692383,4382.563965,4125.128418,4225.641113,0.000000,4.000000,,,,0.000000,4.000000,4.000000,4.000000,4.000000,4.000000,,,,,,,,,,,,,,,,,,,,,,,,,
1577422239.921387,29.000000,0.000000,4251.794922,4353.846191,4428.205078,4141.025879,4254.358887,0.000000,4.000000,,,,0.000000,4.000000,4.000000,4.000000,4.000000,4.000000,,,,,,,,,,,,,,,,,,,,,,,,,
1577422239.929286,30.000000,0.000000,4292.820313,4370.256348,4475.897461,4165.128418,4295.897461,0.000000,4.000000,,,,0.000000,4.000000,4.000000,4.000000,4.000000,4.000000,,,,,,,,,,,,,,,,,,,,,,,,,
1577422239.937085,31.000000,0.000000,4281.538574,4327.692383,4469.743652,4152.307617,4287.692383,0.000000,4.000000,,,,0.000000,4.000000,4.000000,4.000000,4.000000,4.000000,,,,,,,,,,,,,,,,,,,,,,,,,
1577422239.944985,32.000000,0.000000,4262.563965,4281.025879,4454.871582,4146.666504,4276.922852,0.000000,4.000000,,,,0.000000,4.000000,4.000000,4.000000,4.000000,4.000000,,,,,,,,,,,,,,,,,,,,,,,,,
1577422239.952784,33.000000,0.000000,4265.641113,4260.000000,4447.179688,4172.307617,4276.922852,0.000000,4.000000,,,,0.000000,4.000000,4.000000,4.000000,4.000000,4.000000,,,,,,,,,,,,,,,,,,,,,,,,,
1577422239.960484,34.000000,0.000000,4254.871582,4226.666504,4401.025879,4168.717773,4265.641113,0.000000,4.000000,,,,0.000000,4.000000,4.000000,4.000000,4.000000,4.000000,,,,,,,,,,,,,,,,,,,,,,,,,
1577422239.968283,35.000000,0.000000,4232.820313,4187.179688,4345.128418,4126.153809,4237.436035,0.000000,4.000000,,,,0.000000,4.000000,4.000000,4.000000,4.000000,4.000000,,,,,,,,,,,,,,,,,,,,,,,,,
1577422239.975982,36.000000,0.000000,4238.974121,4165.641113,4328.205078,4129.230957,4237.948730,0.000000,4.000000,,,,0.000000,4.000000,4.000000,4.000000,4.000000,4.000000,,,,,,,,,,,,,,,,,,,,,,,,,
1577422239.983781,37.000000,0.000000,4254.358887,4172.307617,4315.897461,4141.025879,4254.358887,0.000000,4.000000,,,,0.000000,4.000000,4.000000,4.000000,4.000000,4.000000,,,,,,,,,,,,,,,,,,,,,,,,,
1577422239.991581,38.000000,0.000000,4247.692383,4211.282227,4293.846191,4090.769287,4239.487305,0.000000,4.000000,,,,0.000000,4.000000,4.000000,4.000000,4.000000,4.000000,,,,,,,,,,,,,,,,,,,,,,,,,
