title:lv_test1, start timestamp:2019-12-28T15:26:03.166295+03:00, stop timestamp:2019-12-28T15:27:54.776788+03:00, headset type:INSIGHT, headset serial:A2D200FB, headset firmware:930, subject name:Qasim, channels:44, sampling rate:eeg_128;pow_8, samples:14319     , version:2.0
Timestamp,EEG.Counter,EEG.Interpolated,EEG.AF3,EEG.T7,EEG.Pz,EEG.T8,EEG.AF4,EEG.RawCq,EEG.Battery,MarkerIndex,MarkerType,MarkerValueInt,EEG.MarkerHardware,CQ.AF3,CQ.T7,CQ.Pz,CQ.T8,CQ.AF4,POW.AF3.Theta,POW.AF3.Alpha,POW.AF3.BetaL,POW.AF3.BetaH,POW.AF3.Gamma,POW.T7.Theta,POW.T7.Alpha,POW.T7.BetaL,POW.T7.BetaH,POW.T7.Gamma,POW.Pz.Theta,POW.Pz.Alpha,POW.Pz.BetaL,POW.Pz.BetaH,POW.Pz.Gamma,POW.T8.Theta,POW.T8.Alpha,POW.T8.BetaL,POW.T8.BetaH,POW.T8.Gamma,POW.AF4.Theta,POW.AF4.Alpha,POW.AF4.BetaL,POW.AF4.BetaH,POW.AF4.Gamma
1577535963.166295,30.000000,0.000000,4219.487305,4383.077148,4136.410156,4167.179688,4186.153809,0.000000,2.000000,,,,0.000000,4.000000,4.000000,4.000000,2.000000,4.000000,18.498037,4.076185,4.125366,1.158824,1.004294,1.173868,2.120253,1.841784,2.520748,2.818905,2.498517,1.878630,0.923870,0.741588,0.932068,1.822759,2.601639,1.017240,2.432949,3.434502,6.382516,2.921394,3.973321,1.321250,0.907857
1577535963.174191,31.000000,0.000000,4231.282227,4399.487305,4164.102539,4178.461426,4208.717773,0.000000,2.000000,,,,0.000000,4.000000,4.000000,4.000000,2.000000,4.000000,,,,,,,,,,,,,,,,,,,,,,,,,
1577535963.182087,32.000000,0.000000,4238.461426,4427.179688,4133.333496,4136.410156,4206.666504,0.000000,2.000000,,,,0.000000,4.000000,4.000000,4.000000,2.000000,4.000000,,,,,,,,,,,,,,,,,,,,,,,,,
1577535963.189884,33.000000,0.000000,4222.051270,4411.282227,4138.974121,4156.922852,4187.179688,0.000000,2.000000,,,,0.000000,4.000000,4.000000,4.000000,2.000000,4.000000,,,,,,,,,,,,,,,,,,,,,,,,,
1577535963.197781,34.000000,0.000000,4228.717773,4393.333496,4158.461426,4193.333496,4195.897461,0.000000,2.000000,,,,0.000000,4.000000,4.000000,4.000000,2.000000,4.000000,,,,,,,,,,,,,,,,,,,,,,,,,
1577535963.205578,35.000000,0.000000,4232.307617,4412.307617,4139.487305,4176.922852,4197.436035,0.000000,2.000000,,,,0.000000,4.000000,4.000000,4.000000,2.000000,4.000000,,,,,,,,,,,,,,,,,,,,,,,,,
1577535963.213474,36.000000,0.000000,4216.410156,4426.153809,4148.205078,4158.461426,4189.230957,0.000000,2.000000,,,,0.000000,4.000000,4.000000,4.000000,2.000000,4.000000,,,,,,,,,,,,,,,,,,,,,,,,,
1577535963.221271,37.000000,0.000000,4205.128418,4407.179688,4129.743652,4120.512695,4183.589844,0.000000,2.000000,,,,0.000000,4.000000,4.000000,4.000000,2.000000,4.000000,,,,,,,,,,,,,,,,,,,,,,,,,
1577535963.229168,38.000000,0.000000,4216.410156,4416.410156,4147.692383,4169.743652,4194.871582,0.000000,2.000000,,,,0.000000,4.000000,4.000000,4.000000,2.000000,4.000000,,,,,,,,,,,,,,,,,,,,,,,,,
1577535963.236964,39.000000,0.000000,4255.384766,4443.589844,4177.436035,4208.205078,4227.692383,0.000000,2.000000,,,,0.000000,4.000000,4.000000,4.000000,2.000000,4.000000,,,,,,,,,,,,,,,,,,,,,,,,,
1577535963.244860,40.000000,0.000000,4252.307617,4430.769043,4150.769043,4167.692383,4223.589844,0.000000,2.000000,,,,0.000000,4.000000,4.000000,4.000000,2.000000,4.000000,,,,,,,,,,,,,,,,,,,,,,,,,
1577535963.252657,41.000000,0.000000,4219.487305,4406.153809,4152.307617,4166.153809,4204.615234,0.000000,2.000000,,,,0.000000,4.000000,4.000000,4.000000,2.000000,4.000000,,,,,,,,,,,,,,,,,,,,,,,,,
1577535963.260553,42.000000,0.000000,4230.256348,4403.077148,4145.128418,4148.205078,4214.358887,0.000000,2.000000,,,,0.000000,4.000000,4.000000,4.000000,2.000000,4.000000,,,,,,,,,,,,,,,,,,,,,,,,,
1577535963.268350,43.000000,0.000000,4243.077148,4418.461426,4143.077148,4164.615234,4214.358887,0.000000,2.000000,,,,0.000000,4.000000,4.000000,4.000000,2.000000,4.000000,,,,,,,,,,,,,,,,,,,,,,,,,
1577535963.276246,44.000000,0.000000,4239.487305,4435.897461,4152.307617,4189.743652,4207.692383,0.000000,2.000000,,,,0.000000,4.000000,4.000000,4.000000,2.000000,4.000000,,,,,,,,,,,,,,,,,,,,,,,,,
1577535963.284043,45.000000,0.000000,4238.461426,4404.615234,4135.384766,4154.358887,4207.179688,0.000000,2.000000,,,,0.000000,4.000000,4.000000,4.000000,2.000000,4.000000,,,,,,,,,,,,,,,,,,,,,,,,,
1577535963.291939,46.000000,0.000000,4219.487305,4379.487305,4144.102539,4169.230957,4199.487305,0.000000,2.000000,,,,0.000000,4.000000,4.000000,4.000000,2.000000,4.000000,20.213459,3.860291,4.444127,1.332442,1.075807,1.414651,2.100856,2.081682,2.578854,3.015466,2.547183,1.401598,0.971181,0.830365,0.915803,2.019334,2.597460,0.919478,2.353686,3.408192,6.586012,2.663783,4.240165,1.388739,0.955419
1577535963.299736,47.000000,0.000000,4214.358887,4431.282227,4137.948730,4177.948730,4202.563965,0.000000,2.000000,,,,0.000000,4.000000,4.000000,4.000000,2.000000,4.000000,,,,,,,,,,,,,,,,,,,,,,,,,
1577535963.307632,48.000000,0.000000,4230.256348,4450.256348,4146.666504,4181.538574,4220.000000,0.000000,2.000000,,,,0.000000,4.000000,4.000000,4.000000,2.000000,4.000000,,,,,,,,,,,,,,,,,,,,,,,,,
1577535963.315429,49.000000,0.000000,4240.512695,4413.846191,4167.179688,4181.025879,4229.230957,0.000000,2.000000,,,,0.000000,4.000000,4.000000,4.000000,2.000000,4.000000,,,,,,,,,,,,,,,,,,,,,,,,,
1577535963.323325,50.000000,0.000000,4234.358887,4406.153809,4127.692383,4132.307617,4215.384766,0.000000,2.000000,,,,0.000000,4.000000,4.000000,4.000000,2.000000,4.000000,,,,,,,,,,,,,,,,,,,,,,,,,
1577535963.331122,51.000000,0.000000,4224.102539,4414.871582,4135.897461,4163.077148,4203.077148,0.000000,2.000000,,,,0.000000,4.000000,4.000000,4.000000,2.000000,4.000000,,,,,,,,,,,,,,,,,,,,,,,,,
1577535963.339018,52.000000,0.000000,4231.794922,4414.358887,4150.256348,4189.743652,4210.256348,0.000000,2.000000,,,,0.000000,4.000000,4.000000,4.000000,2.000000,4.000000,,,,,,,,,,,,,,,,,,,,,,,,,
1577535963.346814,53.000000,0.000000,4226.153809,4411.794922,4137.948730,4170.769043,4201.025879,0.000000,2.000000,,,,0.000000,4.000000,4.000000,4.000000,2.000000,4.000000,,,,,,,,,,,,,,,,,,,,,,,,,
1577535963.354710,54.000000,0.000000,4223.077148,4410.256348,4169.230957,4170.769043,4198.974121,0.000000,2.000000,,,,0.000000,4.000000,4.000000,4.000000,2.000000,4.000000,,,,,,,,,,,,,,,,,,,,,,,,,
1577535963.362607,55.000000,0.000000,4238.974121,4412.307617,4158.461426,4131.282227,4208.205078,0.000000,2.000000,,,,0.000000,4.000000,4.000000,4.000000,2.000000,4.000000,,,,,,,,,,,,,,,,,,,,,,,,,
1577535963.370404,56.000000,0.000000,4233.333496,4418.974121,4151.282227,4148.205078,4200.000000,0.000000,2.000000,,,,0.000000,4.000000,4.000000,4.000000,2.000000,4.000000,,,,,,,,,,,,,,,,,,,,,,,,,
1577535963.378300,57.000000,0.000000,4241.025879,4433.333496,4163.077148,4191.282227,4205.128418,0.000000,2.000000,,,,0.000000,4.000000,4.000000,4.000000,2.000000,4.000000,,,,,,,,,,,,,,,,,,,,,,,,,
1577535963.386097,58.000000,0.000000,4268.205078,4427.692383,4165.641113,4191.794922,4225.128418,0.000000,2.000000,,,,0.000000,4.000000,4.000000,4.000000,2.000000,4.000000,,,,,,,,,,,,,,,,,,,,,,,,,
1577535963.393994,59.000000,0.000000,4271.282227,4413.846191,4183.077148,4189.743652,4235.897461,0.000000,2.000000,,,,0.000000,4.000000,4.000000,4.000000,2.000000,4.000000,,,,,,,,,,,,,,,,,,,,,,,,,
1577535963.401791,60.000000,0.000000,4260.000000,4427.692383,4153.333496,4145.641113,4229.743652,0.000000,2.000000,,,,0.000000,4.000000,4.000000,4.000000,2.000000,4.000000,,,,,,,,,,,,,,,,,,,,,,,,,
1577535963.409687,61.000000,0.000000,4260.000000,4435.384766,4155.897461,4166.666504,4229.230957,0.000000,2.000000,,,,0.000000,4.000000,4.000000,4.000000,2.000000,4.000000,,,,,,,,,,,,,,,,,,,,,,,,,
1577535963.417484,62.000000,0.000000,4270.256348,4410.769043,4169.230957,4195.384766,4241.538574,0.000000,2.000000,,,,0.000000,4.000000,4.000000,4.000000,2.000000,4.000000,19.970369,3.478573,4.607893,1.653677,1.198649,1.632399,2.068024,2.196287,2.533018,3.254367,2.358239,1.005381,1.009491,0.953345,0.960516,2.335691,2.317888,0.850086,2.264004,3.494473,6.705176,2.244375,4.159858,1.514545,1.058943
1577535963.425381,63.000000,0.000000,4249.743652,4392.820313,4128.205078,4140.000000,4216.410156,0.000000,2.000000,,,,0.000000,4.000000,4.000000,4.000000,2.000000,4.000000,,,,,,,,,,,,,,,,,,,,,,,,,
1577535963.433177,64.000000,0.000000,4222.563965,4417.948730,4131.794922,4146.666504,4185.641113,450.000000,2.000000,,,,0.000000,4.000000,4.000000,4.000000,2.000000,4.000000,,,,,,,,,,,,,,,,,,,,,,,,,
1577535963.441073,65.000000,0.000000,4242.051270,4433.846191,4137.948730,4167.692383,4202.563965,450.000000,2.000000,,,,0.000000,4.000000,4.000000,4.000000,2.000000,4.000000,,,,,,,,,,,,,,,,,,,,,,,,,
1577535963.448870,66.000000,0.000000,4249.230957,4395.384766,4144.102539,4178.974121,4214.358887,16226.000000,2.000000,,,,0.000000,4.000000,4.000000,4.000000,2.000000,4.000000,,,,,,,,,,,,,,,,,,,,,,,,,
1577535963.456766,67.000000,0.000000,4226.153809,4387.692383,4153.333496,4174.871582,4199.487305,450.000000,2.000000,,,,0.000000,4.000000,4.000000,4.000000,2.000000,4.000000,,,,,,,,,,,,,,,,,,,,,,,,,
1577535963.464563,68.000000,0.000000,4222.563965,4432.820313,4126.666504,4135.897461,4191.282227,16173.000000,2.000000,,,,0.000000,4.000000,4.000000,4.000000,2.000000,4.000000,,,,,,,,,,,,,,,,,,,,,,,,,
1577535963.472459,69.000000,0.000000,4230.769043,4445.641113,4144.615234,4161.538574,4201.025879,450.000000,2.000000,,,,0.000000,4.000000,4.000000,4.000000,2.000000,4.000000,,,,,,,,,,,,,,,,,,,,,,,,,
1577535963.480256,70.000000,0.000000,4237.948730,4415.384766,4146.153809,4166.153809,4212.820313,16122.000000,2.000000,,,,0.000000,4.000000,4.000000,4.000000,2.000000,4.000000,,,,,,,,,,,,,,,,,,,,,,,,,
1577535963.488152,71.000000,0.000000,4227.179688,4403.589844,4127.179688,4161.025879,4202.051270,450.000000,2.000000,,,,0.000000,4.000000,4.000000,4.000000,2.000000,4.000000,,,,,,,,,,,,,,,,,,,,,,,,,
1577535963.496049,72.000000,0.000000,4221.538574,4421.538574,4149.743652,4181.025879,4194.358887,450.000000,2.000000,,,,0.000000,4.000000,4.000000,4.000000,2.000000,4.000000,,,,,,,,,,,,,,,,,,,,,,,,,
1577535963.503846,73.000000,0.000000,4244.615234,4427.692383,4147.179688,4142.051270,4212.820313,195.000000,2.000000,,,,0.000000,4.000000,4.000000,4.000000,2.000000,4.000000,,,,,,,,,,,,,,,,,,,,,,,,,
1577535963.511743,74.000000,0.000000,4257.948730,4415.897461,4165.128418,4173.333496,4229.743652,450.000000,2.000000,,,,0.000000,4.000000,4.000000,4.000000,2.000000,4.000000,,,,,,,,,,,,,,,,,,,,,,,,,
1577535963.519540,75.000000,0.000000,4249.230957,4410.769043,4162.051270,4211.282227,4215.897461,16210.000000,2.000000,,,,0.000000,4.000000,4.000000,4.000000,2.000000,4.000000,,,,,,,,,,,,,,,,,,,,,,,,,
1577535963.527437,76.000000,0.000000,4235.897461,4412.820313,4125.128418,4184.615234,4187.692383,450.000000,2.000000,,,,0.000000,4.000000,4.000000,4.000000,2.000000,4.000000,,,,,,,,,,,,,,,,,,,,,,,,,
1577535963.535234,77.000000,0.000000,4237.948730,4427.692383,4149.230957,4182.563965,4194.871582,450.000000,2.000000,,,,0.000000,4.000000,4.000000,4.000000,2.000000,4.000000,,,,,,,,,,,,,,,,,,,,,,,,,
1577535963.543130,78.000000,0.000000,4243.589844,4432.820313,4147.179688,4148.205078,4211.794922,450.000000,2.000000,,,,0.000000,4.000000,4.000000,4.000000,2.000000,4.000000,18.313173,3.149328,4.623631,2.053634,1.324201,1.769645,2.051690,2.109286,2.420222,3.481706,2.005669,0.734447,1.007349,1.072154,1.033316,2.688853,1.844471,0.753866,2.187966,3.640038,6.974313,1.812794,3.741685,1.652100,1.182526
1577535963.550927,79.000000,0.000000,4232.307617,4418.974121,4143.589844,4155.384766,4198.974121,16210.000000,2.000000,,,,0.000000,4.000000,4.000000,4.000000,2.000000,4.000000,,,,,,,,,,,,,,,,,,,,,,,,,
1577535963.558824,80.000000,0.000000,4229.743652,4415.384766,4149.743652,4185.641113,4194.358887,450.000000,2.000000,,,,0.000000,4.000000,4.000000,4.000000,2.000000,4.000000,,,,,,,,,,,,,,,,,,,,,,,,,
1577535963.566620,81.000000,0.000000,4238.974121,4407.179688,4134.871582,4161.025879,4205.128418,450.000000,2.000000,,,,0.000000,4.000000,4.000000,4.000000,2.000000,4.000000,,,,,,,,,,,,,,,,,,,,,,,,,
1577535963.574417,82.000000,0.000000,4246.153809,4399.487305,4156.410156,4156.410156,4211.282227,450.000000,2.000000,,,,0.000000,4.000000,4.000000,4.000000,2.000000,4.000000,,,,,,,,,,,,,,,,,,,,,,,,,
1577535963.582114,83.000000,0.000000,4248.205078,4413.333496,4140.512695,4141.538574,4205.641113,16210.000000,2.000000,,,,0.000000,4.000000,4.000000,4.000000,2.000000,4.000000,,,,,,,,,,,,,,,,,,,,,,,,,
1577535963.590010,84.000000,0.000000,4231.282227,4415.384766,4127.179688,4168.205078,4189.743652,450.000000,2.000000,,,,0.000000,4.000000,4.000000,4.000000,2.000000,4.000000,,,,,,,,,,,,,,,,,,,,,,,,,
1577535963.597807,85.000000,0.000000,4225.128418,4405.128418,4145.641113,4186.153809,4187.692383,450.000000,2.000000,,,,0.000000,4.000000,4.000000,4.000000,2.000000,4.000000,,,,,,,,,,,,,,,,,,,,,,,,,
1577535963.605604,86.000000,0.000000,4227.692383,4412.820313,4129.230957,4131.282227,4183.077148,450.000000,2.000000,,,,0.000000,4.000000,4.000000,4.000000,2.000000,4.000000,,,,,,,,,,,,,,,,,,,,,,,,,
1577535963.613300,87.000000,0.000000,4224.102539,4431.794922,4149.743652,4154.358887,4179.487305,16210.000000,2.000000,,,,0.000000,4.000000,4.000000,4.000000,2.000000,4.000000,,,,,,,,,,,,,,,,,,,,,,,,,
1577535963.621197,88.000000,0.000000,4240.512695,4434.871582,4160.000000,4194.358887,4198.461426,450.000000,2.000000,,,,0.000000,4.000000,4.000000,4.000000,2.000000,4.000000,,,,,,,,,,,,,,,,,,,,,,,,,
1577535963.628994,89.000000,0.000000,4244.102539,4415.384766,4153.333496,4207.179688,4205.128418,450.000000,2.000000,,,,0.000000,4.000000,4.000000,4.000000,2.000000,4.000000,,,,,,,,,,,,,,,,,,,,,,,,,
1577535963.636790,90.000000,0.000000,4246.666504,4418.974121,4174.358887,4196.922852,4210.769043,450.000000,2.000000,,,,0.000000,4.000000,4.000000,4.000000,2.000000,4.000000,,,,,,,,,,,,,,,,,,,,,,,,,
1577535963.644487,91.000000,0.000000,4253.846191,4433.333496,4157.948730,4141.538574,4215.384766,16210.000000,2.000000,,,,0.000000,4.000000,4.000000,4.000000,2.000000,4.000000,,,,,,,,,,,,,,,,,,,,,,,,,
1577535963.652383,92.000000,0.000000,4226.153809,4411.282227,4147.692383,4165.641113,4196.922852,450.000000,2.000000,,,,0.000000,4.000000,4.000000,4.000000,2.000000,4.000000,,,,,,,,,,,,,,,,,,,,,,,,,
1577535963.660280,93.000000,0.000000,4208.717773,4391.282227,4140.512695,4195.897461,4181.538574,450.000000,2.000000,,,,0.000000,4.000000,4.000000,4.000000,2.000000,4.000000,,,,,,,,,,,,,,,,,,,,,,,,,
1577535963.668077,94.000000,0.000000,4207.179688,4414.871582,4140.000000,4182.051270,4173.333496,450.000000,2.000000,,,,0.000000,4.000000,4.000000,4.000000,2.000000,4.000000,16.271502,3.078059,4.551435,2.427097,1.410579,1.806890,2.073543,1.830330,2.286948,3.632362,1.641651,0.590523,0.956718,1.157833,1.089479,2.986380,1.322462,0.616925,2.125654,3.777839,7.495887,1.537367,3.159626,1.751341,1.284990
1577535963.675974,95.000000,0.000000,4211.282227,4447.179688,4157.436035,4173.333496,4180.000000,16210.000000,2.000000,,,,0.000000,4.000000,4.000000,4.000000,2.000000,4.000000,,,,,,,,,,,,,,,,,,,,,,,,,
1577535963.683771,96.000000,0.000000,4221.538574,4426.666504,4118.974121,4126.666504,4184.615234,450.000000,2.000000,,,,0.000000,4.000000,4.000000,4.000000,2.000000,4.000000,,,,,,,,,,,,,,,,,,,,,,,,,
1577535963.691568,97.000000,0.000000,4209.230957,4390.256348,4127.692383,4153.333496,4174.358887,450.000000,2.000000,,,,0.000000,4.000000,4.000000,4.000000,2.000000,4.000000,,,,,,,,,,,,,,,,,,,,,,,,,
1577535963.699464,98.000000,0.000000,4213.846191,4410.256348,4167.692383,4193.846191,4187.179688,450.000000,2.000000,,,,0.000000,4.000000,4.000000,4.000000,2.000000,4.000000,,,,,,,,,,,,,,,,,,,,,,,,,
1577535963.707361,99.000000,0.000000,4219.487305,4434.871582,4142.563965,4160.512695,4187.692383,16210.000000,2.000000,,,,0.000000,4.000000,4.000000,4.000000,2.000000,4.000000,,,,,,,,,,,,,,,,,,,,,,,,,
1577535963.715158,100.000000,0.000000,4185.641113,4415.897461,4128.205078,4154.358887,4152.820313,450.000000,2.000000,,,,0.000000,4.000000,4.000000,4.000000,2.000000,4.000000,,,,,,,,,,,,,,,,,,,,,,,,,
1577535963.722955,101.000000,0.000000,4170.256348,4402.051270,4116.410156,4136.410156,4140.512695,450.000000,2.000000,,,,0.000000,4.000000,4.000000,4.000000,2.000000,4.000000,,,,,,,,,,,,,,,,,,,,,,,,,
1577535963.730852,102.000000,0.000000,4188.205078,4411.282227,4136.410156,4155.384766,4161.025879,450.000000,2.000000,,,,0.000000,4.000000,4.000000,4.000000,2.000000,4.000000,,,,,,,,,,,,,,,,,,,,,,,,,
1577535963.738748,103.000000,0.000000,4197.948730,4421.538574,4159.487305,4189.230957,4173.846191,16210.000000,2.000000,,,,0.000000,4.000000,4.000000,4.000000,2.000000,4.000000,,,,,,,,,,,,,,,,,,,,,,,,,
1577535963.746545,104.000000,0.000000,4192.307617,4425.128418,4136.410156,4166.666504,4168.717773,450.000000,2.000000,,,,0.000000,4.000000,4.000000,4.000000,2.000000,4.000000,,,,,,,,,,,,,,,,,,,,,,,,,
1577535963.754342,105.000000,0.000000,4194.358887,4425.641113,4159.487305,4185.128418,4177.436035,450.000000,2.000000,,,,0.000000,4.000000,4.000000,4.000000,2.000000,4.000000,,,,,,,,,,,,,,,,,,,,,,,,,
1577535963.762038,106.000000,0.000000,4210.769043,4416.410156,4154.871582,4179.487305,4195.897461,450.000000,2.000000,,,,0.000000,4.000000,4.000000,4.000000,2.000000,4.000000,,,,,,,,,,,,,,,,,,,,,,,,,
1577535963.769835,107.000000,0.000000,4217.948730,4410.256348,4136.410156,4177.436035,4194.358887,16210.000000,2.000000,,,,0.000000,4.000000,4.000000,4.000000,2.000000,4.000000,,,,,,,,,,,,,,,,,,,,,,,,,
1577535963.777531,108.000000,0.000000,4222.051270,4418.461426,4157.948730,4191.282227,4195.384766,450.000000,2.000000,,,,0.000000,4.000000,4.000000,4.000000,2.000000,4.000000,,,,,,,,,,,,,,,,,,,,,,,,,
1577535963.785327,109.000000,0.000000,4228.717773,4405.128418,4143.077148,4147.179688,4204.615234,450.000000,2.000000,,,,0.000000,4.000000,4.000000,4.000000,2.000000,4.000000,,,,,,,,,,,,,,,,,,,,,,,,,
1577535963.793024,110.000000,0.000000,4216.410156,4395.897461,4157.436035,4163.077148,4207.692383,450.000000,2.000000,,,,0.000000,4.000000,4.000000,4.000000,2.000000,4.000000,14.726667,3.407225,4.439604,2.673411,1.440851,1.748074,2.141582,1.464148,2.155435,3.665314,1.428959,0.566560,0.881340,1.198595,1.098569,3.141305,0.901325,0.486350,2.084107,3.865249,8.170471,1.555060,2.646456,1.782039,1.340226
1577535963.800920,111.000000,0.000000,4203.589844,4422.563965,4162.563965,4182.051270,4201.538574,16210.000000,2.000000,,,,0.000000,4.000000,4.000000,4.000000,2.000000,4.000000,,,,,,,,,,,,,,,,,,,,,,,,,
1577535963.808717,112.000000,0.000000,4209.743652,4422.563965,4140.512695,4178.461426,4193.846191,450.000000,2.000000,,,,0.000000,4.000000,4.000000,4.000000,2.000000,4.000000,,,,,,,,,,,,,,,,,,,,,,,,,
1577535963.816613,113.000000,0.000000,4228.717773,4403.077148,4164.615234,4191.794922,4211.282227,450.000000,2.000000,,,,0.000000,4.000000,4.000000,4.000000,2.000000,4.000000,,,,,,,,,,,,,,,,,,,,,,,,,
1577535963.824410,114.000000,0.000000,4232.307617,4420.512695,4158.974121,4145.128418,4223.077148,450.000000,2.000000,,,,0.000000,4.000000,4.000000,4.000000,2.000000,4.000000,,,,,,,,,,,,,,,,,,,,,,,,,
1577535963.832306,115.000000,0.000000,4212.307617,4437.948730,4148.717773,4156.410156,4199.487305,16210.000000,2.000000,,,,0.000000,4.000000,4.000000,4.000000,2.000000,4.000000,,,,,,,,,,,,,,,,,,,,,,,,,
1577535963.840103,116.000000,0.000000,4218.461426,4429.743652,4138.974121,4192.820313,4188.717773,450.000000,2.000000,,,,0.000000,4.000000,4.000000,4.000000,2.000000,4.000000,,,,,,,,,,,,,,,,,,,,,,,,,
1577535963.847999,117.000000,0.000000,4222.563965,4408.717773,4121.025879,4179.487305,4185.128418,450.000000,2.000000,,,,0.000000,4.000000,4.000000,4.000000,2.000000,4.000000,,,,,,,,,,,,,,,,,,,,,,,,,
1577535963.855796,118.000000,0.000000,4198.461426,4386.666504,4139.487305,4176.410156,4170.769043,450.000000,2.000000,,,,0.000000,4.000000,4.000000,4.000000,2.000000,4.000000,,,,,,,,,,,,,,,,,,,,,,,,,
1577535963.863692,119.000000,0.000000,4192.820313,4402.051270,4126.153809,4144.615234,4167.692383,16210.000000,2.000000,,,,0.000000,4.000000,4.000000,4.000000,2.000000,4.000000,,,,,,,,,,,,,,,,,,,,,,,,,
1577535963.871489,120.000000,0.000000,4194.871582,4429.743652,4132.307617,4163.077148,4170.256348,450.000000,2.000000,,,,0.000000,4.000000,4.000000,4.000000,2.000000,4.000000,,,,,,,,,,,,,,,,,,,,,,,,,
1577535963.879385,121.000000,0.000000,4193.846191,4413.846191,4147.692383,4191.794922,4171.282227,450.000000,2.000000,,,,0.000000,4.000000,4.000000,4.000000,2.000000,4.000000,,,,,,,,,,,,,,,,,,,,,,,,,
1577535963.887182,122.000000,0.000000,4189.743652,4383.589844,4128.205078,4159.487305,4166.153809,450.000000,2.000000,,,,0.000000,4.000000,4.000000,4.000000,2.000000,4.000000,,,,,,,,,,,,,,,,,,,,,,,,,
1577535963.895078,123.000000,0.000000,4192.307617,4412.820313,4157.436035,4165.641113,4169.743652,16210.000000,2.000000,,,,0.000000,4.000000,4.000000,4.000000,2.000000,4.000000,,,,,,,,,,,,,,,,,,,,,,,,,
1577535963.902875,124.000000,0.000000,4207.179688,4452.307617,4154.358887,4157.948730,4179.487305,450.000000,2.000000,,,,0.000000,4.000000,4.000000,4.000000,2.000000,4.000000,,,,,,,,,,,,,,,,,,,,,,,,,
1577535963.910771,125.000000,0.000000,4199.487305,4447.692383,4144.102539,4172.820313,4172.820313,450.000000,2.000000,,,,0.000000,4.000000,4.000000,4.000000,2.000000,4.000000,,,,,,,,,,,,,,,,,,,,,,,,,
1577535963.918668,126.000000,0.000000,4192.307617,4430.256348,4165.128418,4187.179688,4171.282227,450.000000,2.000000,,,,0.000000,4.000000,4.000000,4.000000,2.000000,4.000000,13.961049,4.015629,4.285852,2.723521,1.416992,1.611591,2.222105,1.156456,2.016863,3.579529,1.462426,0.636501,0.816566,1.188372,1.055122,3.130584,0.698963,0.413835,2.057294,3.905285,8.712556,1.838276,2.364272,1.725387,1.339374
1577535963.926465,127.000000,0.000000,4192.307617,4409.230957,4137.436035,4132.820313,4163.589844,229.000000,2.000000,,,,0.000000,4.000000,4.000000,4.000000,2.000000,4.000000,,,,,,,,,,,,,,,,,,,,,,,,,
1577535963.934361,0.000000,0.000000,4182.563965,4409.230957,4134.358887,4157.948730,4149.743652,450.000000,2.000000,,,,0.000000,4.000000,4.000000,4.000000,2.000000,4.000000,,,,,,,,,,,,,,,,,,,,,,,,,
1577535963.942158,1.000000,0.000000,4193.846191,4424.102539,4136.922852,4190.769043,4158.974121,450.000000,2.000000,,,,0.000000,4.000000,4.000000,4.000000,2.000000,4.000000,,,,,,,,,,,,,,,,,,,,,,,,,
1577535963.950055,2.000000,0.000000,4203.589844,4416.410156,4133.846191,4177.948730,4163.589844,16225.000000,2.000000,,,,0.000000,4.000000,4.000000,4.000000,2.000000,4.000000,,,,,,,,,,,,,,,,,,,,,,,,,
1577535963.957851,3.000000,0.000000,4200.000000,4411.282227,4153.333496,4171.282227,4160.512695,450.000000,2.000000,,,,0.000000,4.000000,4.000000,4.000000,2.000000,4.000000,,,,,,,,,,,,,,,,,,,,,,,,,
1577535963.965748,4.000000,0.000000,4206.666504,4424.615234,4130.256348,4135.384766,4165.641113,16174.000000,2.000000,,,,0.000000,4.000000,4.000000,4.000000,2.000000,4.000000,,,,,,,,,,,,,,,,,,,,,,,,,
1577535963.973545,5.000000,0.000000,4215.384766,4437.436035,4144.615234,4170.769043,4171.794922,450.000000,2.000000,,,,0.000000,4.000000,4.000000,4.000000,2.000000,4.000000,,,,,,,,,,,,,,,,,,,,,,,,,
1577535963.981442,6.000000,0.000000,4230.256348,4424.615234,4167.179688,4206.666504,4182.051270,16128.000000,2.000000,,,,0.000000,4.000000,4.000000,4.000000,2.000000,4.000000,,,,,,,,,,,,,,,,,,,,,,,,,
1577535963.989238,7.000000,0.000000,4228.205078,4399.487305,4145.128418,4176.922852,4177.948730,450.000000,2.000000,,,,0.000000,4.000000,4.000000,4.000000,2.000000,4.000000,,,,,,,,,,,,,,,,,,,,,,,,,
1577535963.997135,8.000000,0.000000,4213.333496,4406.666504,4152.307617,4166.666504,4169.743652,450.000000,2.000000,,,,0.000000,4.000000,4.000000,4.000000,2.000000,4.000000,,,,,,,,,,,,,,,,,,,,,,,,,
1577535964.004932,9.000000,0.000000,4225.128418,4437.436035,4148.717773,4138.461426,4175.384766,198.000000,2.000000,,,,0.000000,4.000000,4.000000,4.000000,2.000000,4.000000,,,,,,,,,,,,,,,,,,,,,,,,,
1577535964.012729,10.000000,0.000000,4229.230957,4429.230957,4158.461426,4166.666504,4176.922852,450.000000,2.000000,,,,0.000000,4.000000,4.000000,4.000000,2.000000,4.000000,,,,,,,,,,,,,,,,,,,,,,,,,
1577535964.020425,11.000000,0.000000,4232.820313,4414.358887,4170.769043,4205.128418,4187.179688,16206.000000,2.000000,,,,0.000000,4.000000,4.000000,4.000000,2.000000,4.000000,,,,,,,,,,,,,,,,,,,,,,,,,
1577535964.028221,12.000000,0.000000,4237.948730,4430.769043,4153.846191,4176.922852,4197.948730,450.000000,2.000000,,,,0.000000,4.000000,4.000000,4.000000,2.000000,4.000000,,,,,,,,,,,,,,,,,,,,,,,,,
1577535964.035918,13.000000,0.000000,4220.000000,4433.333496,4163.589844,4170.769043,4194.358887,450.000000,2.000000,,,,0.000000,4.000000,4.000000,4.000000,2.000000,4.000000,,,,,,,,,,,,,,,,,,,,,,,,,
1577535964.043814,14.000000,0.000000,4215.384766,4404.615234,4138.974121,4147.179688,4191.794922,450.000000,2.000000,,,,0.000000,4.000000,4.000000,4.000000,2.000000,4.000000,13.562774,4.554408,4.058921,2.568738,1.353346,1.416358,2.244053,0.998278,1.853443,3.411856,1.730869,0.752972,0.787378,1.135270,0.980864,2.990448,0.773310,0.421094,2.033483,3.919312,8.859030,2.207778,2.344044,1.593127,1.291709
1577535964.051611,15.000000,0.000000,4220.512695,4398.461426,4125.128418,4160.000000,4188.717773,16206.000000,2.000000,,,,0.000000,4.000000,4.000000,4.000000,2.000000,4.000000,,,,,,,,,,,,,,,,,,,,,,,,,
1577535964.059407,16.000000,0.000000,4217.948730,4438.974121,4142.051270,4177.436035,4184.102539,0.000000,2.000000,,,,0.000000,4.000000,4.000000,4.000000,2.000000,4.000000,,,,,,,,,,,,,,,,,,,,,,,,,
1577535964.067103,17.000000,0.000000,4217.948730,4434.871582,4127.179688,4132.820313,4174.871582,0.000000,2.000000,,,,0.000000,4.000000,4.000000,4.000000,2.000000,4.000000,,,,,,,,,,,,,,,,,,,,,,,,,
1577535964.075000,18.000000,0.000000,4222.051270,4406.666504,4144.102539,4168.205078,4170.256348,0.000000,2.000000,,,,0.000000,4.000000,4.000000,4.000000,2.000000,4.000000,,,,,,,,,,,,,,,,,,,,,,,,,
1577535964.082796,19.000000,0.000000,4223.077148,4421.538574,4142.563965,4210.256348,4173.846191,0.000000,2.000000,,,,0.000000,4.000000,4.000000,4.000000,2.000000,4.000000,,,,,,,,,,,,,,,,,,,,,,,,,
1577535964.090693,20.000000,0.000000,4207.179688,4408.717773,4130.769043,4209.230957,4168.717773,0.000000,2.000000,,,,0.000000,4.000000,4.000000,4.000000,2.000000,4.000000,,,,,,,,,,,,,,,,,,,,,,,,,
1577535964.098489,21.000000,0.000000,4204.615234,4386.153809,4143.589844,4193.333496,4167.692383,0.000000,2.000000,,,,0.000000,4.000000,4.000000,4.000000,2.000000,4.000000,,,,,,,,,,,,,,,,,,,,,,,,,
1577535964.106386,22.000000,0.000000,4222.051270,4418.974121,4128.717773,4151.794922,4176.410156,0.000000,2.000000,,,,0.000000,4.000000,4.000000,4.000000,2.000000,4.000000,,,,,,,,,,,,,,,,,,,,,,,,,
1577535964.114282,23.000000,0.000000,4229.743652,4445.128418,4151.282227,4184.102539,4188.717773,0.000000,2.000000,,,,0.000000,4.000000,4.000000,4.000000,2.000000,4.000000,,,,,,,,,,,,,,,,,,,,,,,,,
1577535964.122079,24.000000,0.000000,4233.846191,4429.230957,4151.794922,4196.410156,4198.461426,0.000000,2.000000,,,,0.000000,4.000000,4.000000,4.000000,2.000000,4.000000,,,,,,,,,,,,,,,,,,,,,,,,,
1577535964.129876,25.000000,0.000000,4226.153809,4411.282227,4127.179688,4172.820313,4191.794922,0.000000,2.000000,,,,0.000000,4.000000,4.000000,4.000000,2.000000,4.000000,,,,,,,,,,,,,,,,,,,,,,,,,
1577535964.137572,26.000000,0.000000,4212.307617,4393.846191,4152.820313,4172.307617,4186.666504,0.000000,2.000000,,,,0.000000,4.000000,4.000000,4.000000,2.000000,4.000000,,,,,,,,,,,,,,,,,,,,,,,,,
1577535964.145368,27.000000,0.000000,4208.205078,4396.410156,4139.487305,4128.205078,4180.512695,0.000000,2.000000,,,,0.000000,4.000000,4.000000,4.000000,2.000000,4.000000,,,,,,,,,,,,,,,,,,,,,,,,,
1577535964.153065,28.000000,0.000000,4207.179688,4441.538574,4138.974121,4159.487305,4177.948730,0.000000,2.000000,,,,0.000000,4.000000,4.000000,4.000000,2.000000,4.000000,,,,,,,,,,,,,,,,,,,,,,,,,
1577535964.160961,29.000000,0.000000,4227.179688,4444.102539,4150.769043,4207.179688,4195.897461,0.000000,2.000000,,,,0.000000,4.000000,4.000000,4.000000,2.000000,4.000000,,,,,,,,,,,,,,,,,,,,,,,,,
1577535964.168758,30.000000,0.000000,4250.769043,4403.589844,4135.384766,4176.922852,4203.589844,0.000000,2.000000,,,,0.000000,4.000000,4.000000,4.000000,2.000000,4.000000,12.942771,4.699537,3.742378,2.263007,1.265976,1.192608,2.165671,1.025707,1.661500,3.215342,2.153520,0.920747,0.802534,1.056414,0.906416,2.766986,1.088053,0.492753,2.012619,3.932233,8.627489,2.494340,2.496284,1.420491,1.214847
1577535964.176655,31.000000,0.000000,4251.282227,4429.230957,4158.461426,4173.846191,4205.128418,0.000000,2.000000,,,,0.000000,4.000000,4.000000,4.000000,2.000000,4.000000,,,,,,,,,,,,,,,,,,,,,,,,,
1577535964.184452,32.000000,0.000000,4244.615234,4454.358887,4142.051270,4152.307617,4207.692383,0.000000,2.000000,,,,0.000000,4.000000,4.000000,4.000000,2.000000,4.000000,,,,,,,,,,,,,,,,,,,,,,,,,
1577535964.192348,33.000000,0.000000,4227.692383,4407.692383,4118.974121,4156.410156,4185.128418,0.000000,2.000000,,,,0.000000,4.000000,4.000000,4.000000,2.000000,4.000000,,,,,,,,,,,,,,,,,,,,,,,,,
1577535964.200145,34.000000,0.000000,4226.666504,4408.205078,4132.307617,4184.615234,4172.820313,0.000000,2.000000,,,,0.000000,4.000000,4.000000,4.000000,2.000000,4.000000,,,,,,,,,,,,,,,,,,,,,,,,,
1577535964.208042,35.000000,0.000000,4237.948730,4442.051270,4124.615234,4164.615234,4181.025879,0.000000,2.000000,,,,0.000000,4.000000,4.000000,4.000000,2.000000,4.000000,,,,,,,,,,,,,,,,,,,,,,,,,
1577535964.215838,36.000000,0.000000,4232.307617,4408.717773,4136.410156,4174.358887,4179.487305,0.000000,2.000000,,,,0.000000,4.000000,4.000000,4.000000,2.000000,4.000000,,,,,,,,,,,,,,,,,,,,,,,,,
1577535964.223735,37.000000,0.000000,4229.743652,4385.128418,4122.563965,4169.743652,4172.307617,0.000000,2.000000,,,,0.000000,4.000000,4.000000,4.000000,2.000000,4.000000,,,,,,,,,,,,,,,,,,,,,,,,,
1577535964.231532,38.000000,0.000000,4235.384766,4415.897461,4125.641113,4179.487305,4180.000000,0.000000,2.000000,,,,0.000000,4.000000,4.000000,4.000000,2.000000,4.000000,,,,,,,,,,,,,,,,,,,,,,,,,
1577535964.239329,39.000000,0.000000,4250.769043,4424.102539,4163.077148,4193.333496,4196.410156,0.000000,2.000000,,,,0.000000,4.000000,4.000000,4.000000,2.000000,4.000000,,,,,,,,,,,,,,,,,,,,,,,,,
1577535964.247025,40.000000,0.000000,4254.871582,4393.846191,4131.794922,4131.282227,4181.538574,0.000000,2.000000,,,,0.000000,4.000000,4.000000,4.000000,2.000000,4.000000,,,,,,,,,,,,,,,,,,,,,,,,,
1577535964.254921,41.000000,0.000000,4246.666504,4397.948730,4131.794922,4151.794922,4163.077148,0.000000,2.000000,,,,0.000000,4.000000,4.000000,4.000000,2.000000,4.000000,,,,,,,,,,,,,,,,,,,,,,,,,
1577535964.262718,42.000000,0.000000,4273.846191,4425.128418,4157.436035,4203.077148,4192.820313,0.000000,2.000000,,,,0.000000,4.000000,4.000000,4.000000,2.000000,4.000000,,,,,,,,,,,,,,,,,,,,,,,,,
1577535964.270614,43.000000,0.000000,4284.615234,4418.461426,4151.282227,4195.384766,4208.205078,0.000000,2.000000,,,,0.000000,4.000000,4.000000,4.000000,2.000000,4.000000,,,,,,,,,,,,,,,,,,,,,,,,,
1577535964.278411,44.000000,0.000000,4255.897461,4404.615234,4155.897461,4180.000000,4185.128418,0.000000,2.000000,,,,0.000000,4.000000,4.000000,4.000000,2.000000,4.000000,,,,,,,,,,,,,,,,,,,,,,,,,
1577535964.286307,45.000000,0.000000,4252.307617,4416.410156,4148.205078,4147.692383,4179.487305,0.000000,2.000000,,,,0.000000,4.000000,4.000000,4.000000,2.000000,4.000000,,,,,,,,,,,,,,,,,,,,,,,,,
1577535964.294104,46.000000,0.000000,4270.256348,4431.282227,4174.871582,4186.666504,4205.641113,0.000000,2.000000,,,,0.000000,4.000000,4.000000,4.000000,2.000000,4.000000,11.853946,4.293977,3.361374,1.894867,1.163299,0.967965,1.978633,1.203692,1.466430,3.037261,2.616734,1.158427,0.853543,0.971623,0.853012,2.493117,1.521498,0.597901,1.979936,3.949937,8.228757,2.602452,2.683642,1.251902,1.123048
1577535964.301800,47.000000,0.000000,4277.436035,4432.307617,4181.025879,4211.282227,4223.589844,0.000000,2.000000,,,,0.000000,4.000000,4.000000,4.000000,2.000000,4.000000,,,,,,,,,,,,,,,,,,,,,,,,,
1577535964.309597,48.000000,0.000000,4255.897461,4417.948730,4142.563965,4171.794922,4197.436035,0.000000,2.000000,,,,0.000000,4.000000,4.000000,4.000000,2.000000,4.000000,,,,,,,,,,,,,,,,,,,,,,,,,
1577535964.317293,49.000000,0.000000,4241.025879,4409.230957,4145.128418,4155.384766,4174.358887,0.000000,2.000000,,,,0.000000,4.000000,4.000000,4.000000,2.000000,4.000000,,,,,,,,,,,,,,,,,,,,,,,,,
1577535964.325090,50.000000,0.000000,4266.153809,4405.641113,4138.461426,4124.102539,4191.282227,0.000000,2.000000,,,,0.000000,4.000000,4.000000,4.000000,2.000000,4.000000,,,,,,,,,,,,,,,,,,,,,,,,,
1577535964.332787,51.000000,0.000000,4282.563965,4402.563965,4150.769043,4158.974121,4206.666504,0.000000,2.000000,,,,0.000000,4.000000,4.000000,4.000000,2.000000,4.000000,,,,,,,,,,,,,,,,,,,,,,,,,
1577535964.340583,52.000000,0.000000,4274.358887,4426.666504,4160.000000,4187.692383,4202.563965,0.000000,2.000000,,,,0.000000,4.000000,4.000000,4.000000,2.000000,4.000000,,,,,,,,,,,,,,,,,,,,,,,,,
1577535964.348280,53.000000,0.000000,4265.128418,4434.871582,4138.974121,4143.589844,4188.205078,0.000000,2.000000,,,,0.000000,4.000000,4.000000,4.000000,2.000000,4.000000,,,,,,,,,,,,,,,,,,,,,,,,,
1577535964.356176,54.000000,0.000000,4269.743652,4396.410156,4168.717773,4165.641113,4189.743652,0.000000,2.000000,,,,0.000000,4.000000,4.000000,4.000000,2.000000,4.000000,,,,,,,,,,,,,,,,,,,,,,,,,
1577535964.363973,55.000000,0.000000,4278.974121,4392.820313,4161.538574,4175.897461,4200.000000,0.000000,2.000000,,,,0.000000,4.000000,4.000000,4.000000,2.000000,4.000000,,,,,,,,,,,,,,,,,,,,,,,,,
1577535964.371870,56.000000,0.000000,4258.461426,4430.769043,4138.974121,4174.358887,4184.102539,0.000000,2.000000,,,,0.000000,4.000000,4.000000,4.000000,2.000000,4.000000,,,,,,,,,,,,,,,,,,,,,,,,,
1577535964.379666,57.000000,0.000000,4248.717773,4446.666504,4158.974121,4184.615234,4180.512695,0.000000,2.000000,,,,0.000000,4.000000,4.000000,4.000000,2.000000,4.000000,,,,,,,,,,,,,,,,,,,,,,,,,
1577535964.387563,58.000000,0.000000,4278.461426,4415.897461,4151.282227,4158.461426,4200.000000,0.000000,2.000000,,,,0.000000,4.000000,4.000000,4.000000,2.000000,4.000000,,,,,,,,,,,,,,,,,,,,,,,,,
1577535964.395360,59.000000,0.000000,4300.000000,4409.743652,4173.333496,4187.692383,4214.358887,0.000000,2.000000,,,,0.000000,4.000000,4.000000,4.000000,2.000000,4.000000,,,,,,,,,,,,,,,,,,,,,,,,,
1577535964.403256,60.000000,0.000000,4303.077148,4448.717773,4194.871582,4208.205078,4226.153809,0.000000,2.000000,,,,0.000000,4.000000,4.000000,4.000000,2.000000,4.000000,,,,,,,,,,,,,,,,,,,,,,,,,
1577535964.411053,61.000000,0.000000,4295.897461,4440.000000,4176.922852,4188.717773,4220.512695,0.000000,2.000000,,,,0.000000,4.000000,4.000000,4.000000,2.000000,4.000000,,,,,,,,,,,,,,,,,,,,,,,,,
1577535964.418950,62.000000,0.000000,4300.512695,4398.461426,4168.717773,4173.846191,4216.922852,0.000000,2.000000,,,,0.000000,4.000000,4.000000,4.000000,2.000000,4.000000,10.538396,3.526274,2.998693,1.565988,1.046649,0.774219,1.711669,1.442122,1.325223,2.905447,3.029413,1.469812,0.913884,0.896337,0.821171,2.221232,1.940831,0.722817,1.948732,3.968614,8.000599,2.568310,2.804855,1.123001,1.022246
1577535964.426746,63.000000,0.000000,4306.153809,4409.743652,4140.512695,4128.717773,4216.410156,0.000000,2.000000,,,,0.000000,4.000000,4.000000,4.000000,2.000000,4.000000,,,,,,,,,,,,,,,,,,,,,,,,,
1577535964.434643,64.000000,0.000000,4284.102539,4444.615234,4139.487305,4152.307617,4192.820313,450.000000,2.000000,,,,0.000000,4.000000,4.000000,4.000000,2.000000,4.000000,,,,,,,,,,,,,,,,,,,,,,,,,
1577535964.442439,65.000000,0.000000,4291.282227,4423.077148,4150.256348,4200.000000,4193.333496,450.000000,2.000000,,,,0.000000,4.000000,4.000000,4.000000,2.000000,4.000000,,,,,,,,,,,,,,,,,,,,,,,,,
1577535964.450336,66.000000,0.000000,4313.333496,4391.794922,4146.153809,4193.846191,4214.871582,16224.000000,2.000000,,,,0.000000,4.000000,4.000000,4.000000,2.000000,4.000000,,,,,,,,,,,,,,,,,,,,,,,,,
1577535964.458132,67.000000,0.000000,4293.846191,4421.538574,4157.948730,4176.410156,4207.692383,450.000000,2.000000,,,,0.000000,4.000000,4.000000,4.000000,2.000000,4.000000,,,,,,,,,,,,,,,,,,,,,,,,,
1577535964.466029,68.000000,0.000000,4271.794922,4432.820313,4135.897461,4137.948730,4188.205078,16185.000000,2.000000,,,,0.000000,4.000000,4.000000,4.000000,2.000000,4.000000,,,,,,,,,,,,,,,,,,,,,,,,,
1577535964.473925,69.000000,0.000000,4264.615234,4396.922852,4128.717773,4156.410156,4180.000000,450.000000,2.000000,,,,0.000000,4.000000,4.000000,4.000000,2.000000,4.000000,,,,,,,,,,,,,,,,,,,,,,,,,
1577535964.481722,70.000000,0.000000,4263.077148,4397.436035,4131.282227,4178.974121,4177.948730,16124.000000,2.000000,,,,0.000000,4.000000,4.000000,4.000000,2.000000,4.000000,,,,,,,,,,,,,,,,,,,,,,,,,
1577535964.489519,71.000000,0.000000,4261.025879,4430.256348,4118.974121,4151.794922,4180.000000,450.000000,2.000000,,,,0.000000,4.000000,4.000000,4.000000,2.000000,4.000000,,,,,,,,,,,,,,,,,,,,,,,,,
1577535964.497216,72.000000,0.000000,4258.461426,4424.615234,4151.282227,4163.589844,4189.743652,450.000000,2.000000,,,,0.000000,4.000000,4.000000,4.000000,2.000000,4.000000,,,,,,,,,,,,,,,,,,,,,,,,,
1577535964.505013,73.000000,0.000000,4268.717773,4398.974121,4153.846191,4153.846191,4192.820313,202.000000,2.000000,,,,0.000000,4.000000,4.000000,4.000000,2.000000,4.000000,,,,,,,,,,,,,,,,,,,,,,,,,
1577535964.512709,74.000000,0.000000,4278.974121,4403.589844,4155.384766,4161.025879,4198.461426,450.000000,2.000000,,,,0.000000,4.000000,4.000000,4.000000,2.000000,4.000000,,,,,,,,,,,,,,,,,,,,,,,,,
1577535964.520606,75.000000,0.000000,4280.000000,4430.769043,4174.871582,4180.512695,4212.307617,16205.000000,2.000000,,,,0.000000,4.000000,4.000000,4.000000,2.000000,4.000000,,,,,,,,,,,,,,,,,,,,,,,,,
1577535964.528403,76.000000,0.000000,4268.205078,4425.641113,4160.000000,4146.153809,4201.538574,450.000000,2.000000,,,,0.000000,4.000000,4.000000,4.000000,2.000000,4.000000,,,,,,,,,,,,,,,,,,,,,,,,,
1577535964.536299,77.000000,0.000000,4253.333496,4392.307617,4159.487305,4163.589844,4182.563965,450.000000,2.000000,,,,0.000000,4.000000,4.000000,4.000000,2.000000,4.000000,,,,,,,,,,,,,,,,,,,,,,,,,
1577535964.544096,78.000000,0.000000,4245.128418,4385.641113,4132.820313,4185.641113,4174.871582,450.000000,2.000000,,,,0.000000,4.000000,4.000000,4.000000,2.000000,4.000000,9.414478,2.706056,2.730980,1.338857,0.919807,0.656283,1.450763,1.643809,1.286824,2.844129,3.321979,1.827350,0.955240,0.833757,0.795842,2.002480,2.258872,0.869306,1.935699,3.982867,8.072687,2.478186,2.823677,1.036648,0.915889
1577535964.551993,79.000000,0.000000,4230.769043,4406.666504,4124.102539,4189.743652,4165.128418,16205.000000,2.000000,,,,0.000000,4.000000,4.000000,4.000000,2.000000,4.000000,,,,,,,,,,,,,,,,,,,,,,,,,
1577535964.559789,80.000000,0.000000,4238.461426,4434.871582,4162.051270,4186.153809,4178.461426,450.000000,2.000000,,,,0.000000,4.000000,4.000000,4.000000,2.000000,4.000000,,,,,,,,,,,,,,,,,,,,,,,,,
1577535964.567686,81.000000,0.000000,4256.410156,4436.410156,4148.717773,4148.205078,4194.358887,450.000000,2.000000,,,,0.000000,4.000000,4.000000,4.000000,2.000000,4.000000,,,,,,,,,,,,,,,,,,,,,,,,,
1577535964.575483,82.000000,0.000000,4254.871582,4409.230957,4151.282227,4181.538574,4195.384766,450.000000,2.000000,,,,0.000000,4.000000,4.000000,4.000000,2.000000,4.000000,,,,,,,,,,,,,,,,,,,,,,,,,
1577535964.583380,83.000000,0.000000,4265.128418,4408.717773,4167.179688,4204.615234,4216.410156,16205.000000,2.000000,,,,0.000000,4.000000,4.000000,4.000000,2.000000,4.000000,,,,,,,,,,,,,,,,,,,,,,,,,
1577535964.591176,84.000000,0.000000,4274.358887,4426.153809,4158.974121,4175.384766,4224.102539,450.000000,2.000000,,,,0.000000,4.000000,4.000000,4.000000,2.000000,4.000000,,,,,,,,,,,,,,,,,,,,,,,,,
1577535964.598973,85.000000,0.000000,4262.563965,4411.794922,4162.563965,4174.871582,4211.282227,450.000000,2.000000,,,,0.000000,4.000000,4.000000,4.000000,2.000000,4.000000,,,,,,,,,,,,,,,,,,,,,,,,,
1577535964.606669,86.000000,0.000000,4253.846191,4397.436035,4137.948730,4147.692383,4208.205078,450.000000,2.000000,,,,0.000000,4.000000,4.000000,4.000000,2.000000,4.000000,,,,,,,,,,,,,,,,,,,,,,,,,
1577535964.614566,87.000000,0.000000,4232.820313,4421.025879,4135.897461,4154.358887,4193.333496,16205.000000,2.000000,,,,0.000000,4.000000,4.000000,4.000000,2.000000,4.000000,,,,,,,,,,,,,,,,,,,,,,,,,
1577535964.622362,88.000000,0.000000,4231.794922,4439.487305,4156.410156,4182.563965,4189.230957,450.000000,2.000000,,,,0.000000,4.000000,4.000000,4.000000,2.000000,4.000000,,,,,,,,,,,,,,,,,,,,,,,,,
1577535964.630259,89.000000,0.000000,4285.128418,4430.769043,4154.358887,4180.512695,4225.128418,450.000000,2.000000,,,,0.000000,4.000000,4.000000,4.000000,2.000000,4.000000,,,,,,,,,,,,,,,,,,,,,,,,,
1577535964.638055,90.000000,0.000000,4332.820313,4419.487305,4174.871582,4189.743652,4259.487305,450.000000,2.000000,,,,0.000000,4.000000,4.000000,4.000000,2.000000,4.000000,,,,,,,,,,,,,,,,,,,,,,,,,
1577535964.645952,91.000000,0.000000,4329.230957,4421.025879,4153.846191,4159.487305,4253.333496,16205.000000,2.000000,,,,0.000000,4.000000,4.000000,4.000000,2.000000,4.000000,,,,,,,,,,,,,,,,,,,,,,,,,
1577535964.653748,92.000000,0.000000,4306.666504,4418.461426,4123.077148,4157.948730,4238.461426,450.000000,2.000000,,,,0.000000,4.000000,4.000000,4.000000,2.000000,4.000000,,,,,,,,,,,,,,,,,,,,,,,,,
1577535964.661445,93.000000,0.000000,4324.615234,4411.282227,4135.384766,4184.102539,4255.384766,450.000000,2.000000,,,,0.000000,4.000000,4.000000,4.000000,2.000000,4.000000,,,,,,,,,,,,,,,,,,,,,,,,,
1577535964.669342,94.000000,0.000000,4349.743652,4401.025879,4139.487305,4166.153809,4271.282227,450.000000,2.000000,,,,0.000000,4.000000,4.000000,4.000000,2.000000,4.000000,8.622515,2.028237,2.588140,1.233128,0.801860,0.641431,1.281667,1.730320,1.360116,2.865777,3.473755,2.182481,0.952796,0.797825,0.762435,1.848841,2.422633,1.037181,1.965313,3.992646,8.294857,2.376659,2.731741,0.986874,0.818211
1577535964.677139,95.000000,0.000000,4337.436035,4407.179688,4152.307617,4168.205078,4263.077148,16205.000000,2.000000,,,,0.000000,4.000000,4.000000,4.000000,2.000000,4.000000,,,,,,,,,,,,,,,,,,,,,,,,,
1577535964.684936,96.000000,0.000000,4329.230957,4428.717773,4138.974121,4150.256348,4255.384766,450.000000,2.000000,,,,0.000000,4.000000,4.000000,4.000000,2.000000,4.000000,,,,,,,,,,,,,,,,,,,,,,,,,
1577535964.692632,97.000000,0.000000,4326.153809,4415.384766,4134.358887,4155.897461,4253.846191,450.000000,2.000000,,,,0.000000,4.000000,4.000000,4.000000,2.000000,4.000000,,,,,,,,,,,,,,,,,,,,,,,,,
1577535964.700429,98.000000,0.000000,4318.974121,4408.717773,4162.563965,4184.615234,4257.436035,450.000000,2.000000,,,,0.000000,4.000000,4.000000,4.000000,2.000000,4.000000,,,,,,,,,,,,,,,,,,,,,,,,,
1577535964.708126,99.000000,0.000000,4307.179688,4412.820313,4147.179688,4143.077148,4246.666504,16205.000000,2.000000,,,,0.000000,4.000000,4.000000,4.000000,2.000000,4.000000,,,,,,,,,,,,,,,,,,,,,,,,,
1577535964.715922,100.000000,0.000000,4290.256348,4389.743652,4146.666504,4145.641113,4225.641113,450.000000,2.000000,,,,0.000000,4.000000,4.000000,4.000000,2.000000,4.000000,,,,,,,,,,,,,,,,,,,,,,,,,
1577535964.723619,101.000000,0.000000,4290.256348,4380.000000,4148.717773,4179.487305,4221.538574,450.000000,2.000000,,,,0.000000,4.000000,4.000000,4.000000,2.000000,4.000000,,,,,,,,,,,,,,,,,,,,,,,,,
1577535964.731415,102.000000,0.000000,4287.692383,4396.922852,4148.205078,4193.846191,4220.512695,450.000000,2.000000,,,,0.000000,4.000000,4.000000,4.000000,2.000000,4.000000,,,,,,,,,,,,,,,,,,,,,,,,,
1577535964.739111,103.000000,0.000000,4277.436035,4412.820313,4162.563965,4185.641113,4217.436035,16205.000000,2.000000,,,,0.000000,4.000000,4.000000,4.000000,2.000000,4.000000,,,,,,,,,,,,,,,,,,,,,,,,,
1577535964.746908,104.000000,0.000000,4274.871582,4416.922852,4140.000000,4135.897461,4212.307617,450.000000,2.000000,,,,0.000000,4.000000,4.000000,4.000000,2.000000,4.000000,,,,,,,,,,,,,,,,,,,,,,,,,
1577535964.754604,105.000000,0.000000,4261.025879,4417.948730,4142.563965,4159.487305,4208.205078,450.000000,2.000000,,,,0.000000,4.000000,4.000000,4.000000,2.000000,4.000000,,,,,,,,,,,,,,,,,,,,,,,,,
1577535964.762501,106.000000,0.000000,4251.794922,4402.563965,4142.051270,4196.410156,4214.358887,450.000000,2.000000,,,,0.000000,4.000000,4.000000,4.000000,2.000000,4.000000,,,,,,,,,,,,,,,,,,,,,,,,,
1577535964.770297,107.000000,0.000000,4269.230957,4391.794922,4142.563965,4192.307617,4223.589844,16205.000000,2.000000,,,,0.000000,4.000000,4.000000,4.000000,2.000000,4.000000,,,,,,,,,,,,,,,,,,,,,,,,,
1577535964.778194,108.000000,0.000000,4288.717773,4423.589844,4182.563965,4183.589844,4235.384766,450.000000,2.000000,,,,0.000000,4.000000,4.000000,4.000000,2.000000,4.000000,,,,,,,,,,,,,,,,,,,,,,,,,
1577535964.785991,109.000000,0.000000,4278.461426,4441.538574,4154.358887,4128.717773,4233.846191,450.000000,2.000000,,,,0.000000,4.000000,4.000000,4.000000,2.000000,4.000000,,,,,,,,,,,,,,,,,,,,,,,,,
1577535964.793887,110.000000,0.000000,4250.256348,4418.461426,4143.589844,4157.436035,4220.000000,450.000000,2.000000,,,,0.000000,4.000000,4.000000,4.000000,2.000000,4.000000,8.064855,1.633605,2.563314,1.237398,0.721549,0.717359,1.241109,1.674279,1.515804,2.972168,3.509835,2.490008,0.904847,0.824825,0.718803,1.785373,2.447202,1.202607,2.073765,4.000537,8.241955,2.322267,2.552260,0.978526,0.751800
1577535964.801684,111.000000,0.000000,4258.461426,4408.717773,4164.102539,4193.846191,4223.589844,16205.000000,2.000000,,,,0.000000,4.000000,4.000000,4.000000,2.000000,4.000000,,,,,,,,,,,,,,,,,,,,,,,,,
1577535964.809581,112.000000,0.000000,4270.769043,4407.692383,4134.358887,4137.436035,4220.512695,450.000000,2.000000,,,,0.000000,4.000000,4.000000,4.000000,2.000000,4.000000,,,,,,,,,,,,,,,,,,,,,,,,,
1577535964.817378,113.000000,0.000000,4260.000000,4395.897461,4140.512695,4153.846191,4213.333496,450.000000,2.000000,,,,0.000000,4.000000,4.000000,4.000000,2.000000,4.000000,,,,,,,,,,,,,,,,,,,,,,,,,
1577535964.825274,114.000000,0.000000,4272.820313,4396.410156,4139.487305,4169.230957,4224.615234,450.000000,2.000000,,,,0.000000,4.000000,4.000000,4.000000,2.000000,4.000000,,,,,,,,,,,,,,,,,,,,,,,,,
1577535964.833071,115.000000,0.000000,4275.384766,4409.230957,4142.051270,4163.077148,4222.051270,16205.000000,2.000000,,,,0.000000,4.000000,4.000000,4.000000,2.000000,4.000000,,,,,,,,,,,,,,,,,,,,,,,,,
1577535964.840967,116.000000,0.000000,4266.666504,4435.384766,4174.358887,4180.000000,4221.025879,450.000000,2.000000,,,,0.000000,4.000000,4.000000,4.000000,2.000000,4.000000,,,,,,,,,,,,,,,,,,,,,,,,,
1577535964.848764,117.000000,0.000000,4274.358887,4429.743652,4150.256348,4156.410156,4229.230957,450.000000,2.000000,,,,0.000000,4.000000,4.000000,4.000000,2.000000,4.000000,,,,,,,,,,,,,,,,,,,,,,,,,
1577535964.856660,118.000000,0.000000,4276.922852,4387.179688,4137.948730,4163.589844,4225.128418,450.000000,2.000000,,,,0.000000,4.000000,4.000000,4.000000,2.000000,4.000000,,,,,,,,,,,,,,,,,,,,,,,,,
1577535964.864456,119.000000,0.000000,4289.743652,4402.051270,4146.153809,4179.487305,4228.717773,16205.000000,2.000000,,,,0.000000,4.000000,4.000000,4.000000,2.000000,4.000000,,,,,,,,,,,,,,,,,,,,,,,,,
1577535964.872153,120.000000,0.000000,4303.077148,4448.717773,4153.846191,4184.102539,4234.358887,450.000000,2.000000,,,,0.000000,4.000000,4.000000,4.000000,2.000000,4.000000,,,,,,,,,,,,,,,,,,,,,,,,,
1577535964.879950,121.000000,0.000000,4295.384766,4439.487305,4176.922852,4186.666504,4235.384766,450.000000,2.000000,,,,0.000000,4.000000,4.000000,4.000000,2.000000,4.000000,,,,,,,,,,,,,,,,,,,,,,,,,
1577535964.887646,122.000000,0.000000,4278.974121,4407.692383,4159.487305,4150.256348,4229.230957,450.000000,2.000000,,,,0.000000,4.000000,4.000000,4.000000,2.000000,4.000000,,,,,,,,,,,,,,,,,,,,,,,,,
1577535964.895443,123.000000,0.000000,4268.205078,4411.282227,4147.692383,4169.230957,4218.974121,16205.000000,2.000000,,,,0.000000,4.000000,4.000000,4.000000,2.000000,4.000000,,,,,,,,,,,,,,,,,,,,,,,,,
1577535964.903139,124.000000,0.000000,4269.230957,4421.025879,4144.615234,4194.358887,4217.948730,450.000000,2.000000,,,,0.000000,4.000000,4.000000,4.000000,2.000000,4.000000,,,,,,,,,,,,,,,,,,,,,,,,,
1577535964.910936,125.000000,0.000000,4255.384766,4410.769043,4135.384766,4181.538574,4209.743652,450.000000,2.000000,,,,0.000000,4.000000,4.000000,4.000000,2.000000,4.000000,,,,,,,,,,,,,,,,,,,,,,,,,
1577535964.918632,126.000000,0.000000,4237.436035,4406.153809,4144.615234,4173.846191,4197.948730,450.000000,2.000000,,,,0.000000,4.000000,4.000000,4.000000,2.000000,4.000000,7.700715,1.515339,2.649055,1.327950,0.704009,0.861468,1.305012,1.488349,1.684152,3.142339,3.467652,2.725478,0.823169,0.947179,0.675376,1.828708,2.393718,1.322885,2.262675,4.000742,7.738100,2.342711,2.337151,1.025073,0.736185
1577535964.926529,127.000000,0.000000,4240.000000,4411.282227,4124.615234,4134.358887,4188.717773,229.000000,2.000000,,,,0.000000,4.000000,4.000000,4.000000,2.000000,4.000000,,,,,,,,,,,,,,,,,,,,,,,,,
1577535964.934326,0.000000,0.000000,4249.230957,4422.563965,4136.922852,4158.461426,4189.230957,450.000000,2.000000,,,,0.000000,4.000000,4.000000,4.000000,2.000000,4.000000,,,,,,,,,,,,,,,,,,,,,,,,,
1577535964.942222,1.000000,0.000000,4270.256348,4418.974121,4161.538574,4206.666504,4209.230957,450.000000,2.000000,,,,0.000000,4.000000,4.000000,4.000000,2.000000,4.000000,,,,,,,,,,,,,,,,,,,,,,,,,
1577535964.950019,2.000000,0.000000,4272.820313,4392.307617,4132.307617,4176.922852,4212.307617,16224.000000,2.000000,,,,0.000000,4.000000,4.000000,4.000000,2.000000,4.000000,,,,,,,,,,,,,,,,,,,,,,,,,
1577535964.957816,3.000000,0.000000,4245.128418,4401.538574,4126.153809,4153.846191,4196.922852,450.000000,2.000000,,,,0.000000,4.000000,4.000000,4.000000,2.000000,4.000000,,,,,,,,,,,,,,,,,,,,,,,,,
1577535964.965513,4.000000,0.000000,4237.948730,4438.461426,4130.256348,4152.307617,4194.871582,16182.000000,2.000000,,,,0.000000,4.000000,4.000000,4.000000,2.000000,4.000000,,,,,,,,,,,,,,,,,,,,,,,,,
1577535964.973310,5.000000,0.000000,4241.538574,4430.256348,4137.436035,4183.589844,4192.307617,450.000000,2.000000,,,,0.000000,4.000000,4.000000,4.000000,2.000000,4.000000,,,,,,,,,,,,,,,,,,,,,,,,,
1577535964.981107,6.000000,0.000000,4232.307617,4416.922852,4132.820313,4187.692383,4181.025879,16126.000000,2.000000,,,,0.000000,4.000000,4.000000,4.000000,2.000000,4.000000,,,,,,,,,,,,,,,,,,,,,,,,,
1577535964.989004,7.000000,0.000000,4231.282227,4430.769043,4117.948730,4158.461426,4177.436035,450.000000,2.000000,,,,0.000000,4.000000,4.000000,4.000000,2.000000,4.000000,,,,,,,,,,,,,,,,,,,,,,,,,
1577535964.996901,8.000000,0.000000,4254.358887,4419.487305,4163.589844,4197.436035,4197.436035,450.000000,2.000000,,,,0.000000,4.000000,4.000000,4.000000,2.000000,4.000000,,,,,,,,,,,,,,,,,,,,,,,,,
1577535965.004698,9.000000,0.000000,4266.666504,4400.512695,4163.077148,4193.846191,4209.743652,205.000000,2.000000,,,,0.000000,4.000000,4.000000,4.000000,2.000000,4.000000,,,,,,,,,,,,,,,,,,,,,,,,,
1577535965.012495,10.000000,0.000000,4225.641113,4417.948730,4130.256348,4171.282227,4186.153809,450.000000,2.000000,,,,0.000000,4.000000,4.000000,4.000000,2.000000,4.000000,,,,,,,,,,,,,,,,,,,,,,,,,
1577535965.020391,11.000000,0.000000,4211.794922,4440.512695,4148.717773,4180.512695,4182.563965,16212.000000,2.000000,,,,0.000000,4.000000,4.000000,4.000000,2.000000,4.000000,,,,,,,,,,,,,,,,,,,,,,,,,
1577535965.028188,12.000000,0.000000,4248.205078,4427.692383,4146.666504,4140.000000,4200.000000,450.000000,2.000000,,,,0.000000,4.000000,4.000000,4.000000,2.000000,4.000000,,,,,,,,,,,,,,,,,,,,,,,,,
1577535965.036084,13.000000,0.000000,4241.025879,4406.666504,4149.743652,4161.025879,4189.743652,450.000000,2.000000,,,,0.000000,4.000000,4.000000,4.000000,2.000000,4.000000,,,,,,,,,,,,,,,,,,,,,,,,,
1577535965.043881,14.000000,0.000000,4218.974121,4397.436035,4144.615234,4200.000000,4182.563965,450.000000,2.000000,,,,0.000000,4.000000,4.000000,4.000000,2.000000,4.000000,7.903641,1.657894,2.851303,1.495408,0.756963,1.048353,1.399239,1.233781,1.807052,3.323792,3.395213,2.875711,0.746975,1.176504,0.647217,1.954639,2.324557,1.351565,2.498863,3.980430,7.034023,2.469121,2.160367,1.140335,0.774155
1577535965.051577,15.000000,0.000000,4235.897461,4401.025879,4127.179688,4182.051270,4193.846191,16212.000000,2.000000,,,,0.000000,4.000000,4.000000,4.000000,2.000000,4.000000,,,,,,,,,,,,,,,,,,,,,,,,,
1577535965.059474,16.000000,0.000000,4265.128418,4425.641113,4148.205078,4175.384766,4204.615234,0.000000,2.000000,,,,0.000000,4.000000,4.000000,4.000000,2.000000,4.000000,,,,,,,,,,,,,,,,,,,,,,,,,
1577535965.067271,17.000000,0.000000,4277.948730,4442.051270,4153.846191,4163.077148,4217.948730,0.000000,2.000000,,,,0.000000,4.000000,4.000000,4.000000,2.000000,4.000000,,,,,,,,,,,,,,,,,,,,,,,,,
1577535965.075068,18.000000,0.000000,4262.563965,4430.256348,4162.563965,4188.717773,4222.051270,0.000000,2.000000,,,,0.000000,4.000000,4.000000,4.000000,2.000000,4.000000,,,,,,,,,,,,,,,,,,,,,,,,,
1577535965.082765,19.000000,0.000000,4259.487305,4434.358887,4162.051270,4202.563965,4220.000000,0.000000,2.000000,,,,0.000000,4.000000,4.000000,4.000000,2.000000,4.000000,,,,,,,,,,,,,,,,,,,,,,,,,
1577535965.090661,20.000000,0.000000,4272.820313,4436.410156,4150.256348,4184.615234,4224.102539,0.000000,2.000000,,,,0.000000,4.000000,4.000000,4.000000,2.000000,4.000000,,,,,,,,,,,,,,,,,,,,,,,,,
1577535965.098458,21.000000,0.000000,4287.692383,4409.743652,4169.230957,4187.179688,4240.000000,0.000000,2.000000,,,,0.000000,4.000000,4.000000,4.000000,2.000000,4.000000,,,,,,,,,,,,,,,,,,,,,,,,,
1577535965.106355,22.000000,0.000000,4311.282227,4399.487305,4141.538574,4139.487305,4247.692383,0.000000,2.000000,,,,0.000000,4.000000,4.000000,4.000000,2.000000,4.000000,,,,,,,,,,,,,,,,,,,,,,,,,
1577535965.114152,23.000000,0.000000,4343.589844,4424.102539,4130.769043,4138.974121,4252.307617,0.000000,2.000000,,,,0.000000,4.000000,4.000000,4.000000,2.000000,4.000000,,,,,,,,,,,,,,,,,,,,,,,,,
1577535965.122048,24.000000,0.000000,4396.922852,4441.025879,4152.307617,4172.820313,4281.025879,0.000000,2.000000,,,,0.000000,4.000000,4.000000,4.000000,2.000000,4.000000,,,,,,,,,,,,,,,,,,,,,,,,,
1577535965.129845,25.000000,0.000000,4446.153809,4419.487305,4131.282227,4148.717773,4297.948730,0.000000,2.000000,,,,0.000000,4.000000,4.000000,4.000000,2.000000,4.000000,,,,,,,,,,,,,,,,,,,,,,,,,
1577535965.137642,26.000000,0.000000,4486.153809,4408.205078,4144.615234,4169.230957,4314.871582,0.000000,2.000000,,,,0.000000,4.000000,4.000000,4.000000,2.000000,4.000000,,,,,,,,,,,,,,,,,,,,,,,,,
1577535965.145338,27.000000,0.000000,4534.871582,4434.871582,4148.717773,4183.589844,4353.333496,0.000000,2.000000,,,,0.000000,4.000000,4.000000,4.000000,2.000000,4.000000,,,,,,,,,,,,,,,,,,,,,,,,,
1577535965.153235,28.000000,0.000000,4550.256348,4434.358887,4143.077148,4189.743652,4365.128418,0.000000,2.000000,,,,0.000000,4.000000,4.000000,4.000000,2.000000,4.000000,,,,,,,,,,,,,,,,,,,,,,,,,
1577535965.161032,29.000000,0.000000,4541.025879,4414.358887,4153.846191,4192.820313,4351.282227,0.000000,2.000000,,,,0.000000,4.000000,4.000000,4.000000,2.000000,4.000000,,,,,,,,,,,,,,,,,,,,,,,,,
1577535965.168928,30.000000,0.000000,4532.307617,4411.282227,4132.307617,4155.384766,4338.461426,0.000000,2.000000,,,,0.000000,4.000000,4.000000,4.000000,2.000000,4.000000,9.213699,2.012871,3.130784,1.721252,0.863809,1.232268,1.457787,0.991616,1.873613,3.442773,3.307551,2.924498,0.713555,1.483719,0.645227,2.108601,2.260713,1.255430,2.705714,3.928289,6.613412,2.696970,2.068756,1.308413,0.842710
1577535965.176725,31.000000,0.000000,4516.410156,4427.692383,4154.358887,4187.179688,4337.948730,0.000000,2.000000,,,,0.000000,4.000000,4.000000,4.000000,2.000000,4.000000,,,,,,,,,,,,,,,,,,,,,,,,,
1577535965.184622,32.000000,0.000000,4503.077148,4431.282227,4163.077148,4199.487305,4330.256348,0.000000,2.000000,,,,0.000000,4.000000,4.000000,4.000000,2.000000,4.000000,,,,,,,,,,,,,,,,,,,,,,,,,
1577535965.192418,33.000000,0.000000,4469.743652,4410.769043,4133.846191,4170.769043,4287.692383,0.000000,2.000000,,,,0.000000,4.000000,4.000000,4.000000,2.000000,4.000000,,,,,,,,,,,,,,,,,,,,,,,,,
1577535965.200215,34.000000,0.000000,4424.615234,4408.205078,4129.743652,4166.153809,4253.846191,0.000000,2.000000,,,,0.000000,4.000000,4.000000,4.000000,2.000000,4.000000,,,,,,,,,,,,,,,,,,,,,,,,,
1577535965.207912,35.000000,0.000000,4407.692383,4416.922852,4110.769043,4128.205078,4248.205078,0.000000,2.000000,,,,0.000000,4.000000,4.000000,4.000000,2.000000,4.000000,,,,,,,,,,,,,,,,,,,,,,,,,
1577535965.215808,36.000000,0.000000,4406.666504,4412.307617,4128.717773,4156.410156,4251.794922,0.000000,2.000000,,,,0.000000,4.000000,4.000000,4.000000,2.000000,4.000000,,,,,,,,,,,,,,,,,,,,,,,,,
1577535965.223605,37.000000,0.000000,4409.743652,4415.384766,4152.820313,4216.410156,4256.410156,0.000000,2.000000,,,,0.000000,4.000000,4.000000,4.000000,2.000000,4.000000,,,,,,,,,,,,,,,,,,,,,,,,,
1577535965.231501,38.000000,0.000000,4403.589844,4429.743652,4150.256348,4213.846191,4251.282227,0.000000,2.000000,,,,0.000000,4.000000,4.000000,4.000000,2.000000,4.000000,,,,,,,,,,,,,,,,,,,,,,,,,
1577535965.239298,39.000000,0.000000,4373.846191,4426.666504,4160.512695,4178.974121,4238.461426,0.000000,2.000000,,,,0.000000,4.000000,4.000000,4.000000,2.000000,4.000000,,,,,,,,,,,,,,,,,,,,,,,,,
1577535965.246995,40.000000,0.000000,4343.589844,4398.974121,4133.333496,4123.077148,4222.051270,0.000000,2.000000,,,,0.000000,4.000000,4.000000,4.000000,2.000000,4.000000,,,,,,,,,,,,,,,,,,,,,,,,,
1577535965.254791,41.000000,0.000000,4327.179688,4385.641113,4133.333496,4152.820313,4205.128418,0.000000,2.000000,,,,0.000000,4.000000,4.000000,4.000000,2.000000,4.000000,,,,,,,,,,,,,,,,,,,,,,,,,
1577535965.262488,42.000000,0.000000,4327.179688,4405.641113,4151.282227,4188.717773,4202.051270,0.000000,2.000000,,,,0.000000,4.000000,4.000000,4.000000,2.000000,4.000000,,,,,,,,,,,,,,,,,,,,,,,,,
1577535965.270284,43.000000,0.000000,4322.051270,4421.538574,4126.666504,4151.282227,4201.025879,0.000000,2.000000,,,,0.000000,4.000000,4.000000,4.000000,2.000000,4.000000,,,,,,,,,,,,,,,,,,,,,,,,,
1577535965.277981,44.000000,0.000000,4306.666504,4423.589844,4136.922852,4162.051270,4196.410156,0.000000,2.000000,,,,0.000000,4.000000,4.000000,4.000000,2.000000,4.000000,,,,,,,,,,,,,,,,,,,,,,,,,
1577535965.285777,45.000000,0.000000,4308.205078,4430.256348,4131.794922,4165.641113,4197.948730,0.000000,2.000000,,,,0.000000,4.000000,4.000000,4.000000,2.000000,4.000000,,,,,,,,,,,,,,,,,,,,,,,,,
1577535965.293474,46.000000,0.000000,4305.128418,4407.179688,4127.692383,4169.230957,4192.820313,0.000000,2.000000,,,,0.000000,4.000000,4.000000,4.000000,2.000000,4.000000,12.469206,2.608092,3.416336,1.981408,0.995047,1.366299,1.471120,0.824787,1.922675,3.436652,3.176191,2.848494,0.749235,1.795430,0.672762,2.223875,2.198327,1.052143,2.810879,3.844147,7.078495,3.030229,2.069895,1.483791,0.903293
1577535965.301271,47.000000,0.000000,4303.077148,4395.897461,4158.461426,4174.871582,4191.794922,0.000000,2.000000,,,,0.000000,4.000000,4.000000,4.000000,2.000000,4.000000,,,,,,,,,,,,,,,,,,,,,,,,,
1577535965.308967,48.000000,0.000000,4310.256348,4423.077148,4149.230957,4135.897461,4191.794922,0.000000,2.000000,,,,0.000000,4.000000,4.000000,4.000000,2.000000,4.000000,,,,,,,,,,,,,,,,,,,,,,,,,
1577535965.316764,49.000000,0.000000,4297.436035,4429.743652,4154.871582,4166.153809,4173.846191,0.000000,2.000000,,,,0.000000,4.000000,4.000000,4.000000,2.000000,4.000000,,,,,,,,,,,,,,,,,,,,,,,,,
1577535965.324460,50.000000,0.000000,4291.794922,4411.794922,4154.358887,4195.897461,4166.153809,0.000000,2.000000,,,,0.000000,4.000000,4.000000,4.000000,2.000000,4.000000,,,,,,,,,,,,,,,,,,,,,,,,,
1577535965.332357,51.000000,0.000000,4298.974121,4407.179688,4147.179688,4193.846191,4172.307617,0.000000,2.000000,,,,0.000000,4.000000,4.000000,4.000000,2.000000,4.000000,,,,,,,,,,,,,,,,,,,,,,,,,
1577535965.340154,52.000000,0.000000,4308.717773,4427.179688,4170.769043,4193.846191,4190.256348,0.000000,2.000000,,,,0.000000,4.000000,4.000000,4.000000,2.000000,4.000000,,,,,,,,,,,,,,,,,,,,,,,,,
1577535965.347950,53.000000,0.000000,4309.743652,4423.077148,4156.410156,4155.384766,4204.615234,0.000000,2.000000,,,,0.000000,4.000000,4.000000,4.000000,2.000000,4.000000,,,,,,,,,,,,,,,,,,,,,,,,,
1577535965.355647,54.000000,0.000000,4296.922852,4410.256348,4156.410156,4175.897461,4196.922852,0.000000,2.000000,,,,0.000000,4.000000,4.000000,4.000000,2.000000,4.000000,,,,,,,,,,,,,,,,,,,,,,,,,
1577535965.363543,55.000000,0.000000,4304.615234,4431.282227,4157.436035,4191.794922,4195.384766,0.000000,2.000000,,,,0.000000,4.000000,4.000000,4.000000,2.000000,4.000000,,,,,,,,,,,,,,,,,,,,,,,,,
1577535965.371340,56.000000,0.000000,4307.179688,4421.538574,4141.025879,4171.794922,4189.230957,0.000000,2.000000,,,,0.000000,4.000000,4.000000,4.000000,2.000000,4.000000,,,,,,,,,,,,,,,,,,,,,,,,,
1577535965.379237,57.000000,0.000000,4298.461426,4380.000000,4154.871582,4167.692383,4181.025879,0.000000,2.000000,,,,0.000000,4.000000,4.000000,4.000000,2.000000,4.000000,,,,,,,,,,,,,,,,,,,,,,,,,
1577535965.387034,58.000000,0.000000,4312.820313,4400.000000,4137.436035,4119.487305,4179.487305,0.000000,2.000000,,,,0.000000,4.000000,4.000000,4.000000,2.000000,4.000000,,,,,,,,,,,,,,,,,,,,,,,,,
1577535965.394930,59.000000,0.000000,4320.512695,4455.897461,4143.077148,4142.051270,4169.230957,0.000000,2.000000,,,,0.000000,4.000000,4.000000,4.000000,2.000000,4.000000,,,,,,,,,,,,,,,,,,,,,,,,,
1577535965.402727,60.000000,0.000000,4320.000000,4435.897461,4156.922852,4185.128418,4164.615234,0.000000,2.000000,,,,0.000000,4.000000,4.000000,4.000000,2.000000,4.000000,,,,,,,,,,,,,,,,,,,,,,,,,
1577535965.410623,61.000000,0.000000,4330.256348,4385.128418,4145.128418,4154.358887,4169.743652,0.000000,2.000000,,,,0.000000,4.000000,4.000000,4.000000,2.000000,4.000000,,,,,,,,,,,,,,,,,,,,,,,,,
1577535965.418420,62.000000,0.000000,4333.846191,4390.769043,4162.051270,4150.256348,4171.282227,0.000000,2.000000,,,,0.000000,4.000000,4.000000,4.000000,2.000000,4.000000,19.482094,3.599581,3.660543,2.224274,1.121329,1.427028,1.461374,0.749861,2.010873,3.280696,2.982869,2.644227,0.858663,2.016801,0.724718,2.230919,2.140612,0.847989,2.794154,3.738291,9.015627,3.463227,2.142182,1.600454,0.923317
1577535965.426216,63.000000,0.000000,4326.153809,4416.410156,4140.000000,4147.179688,4162.051270,0.000000,2.000000,,,,0.000000,4.000000,4.000000,4.000000,2.000000,4.000000,,,,,,,,,,,,,,,,,,,,,,,,,
1577535965.434013,64.000000,0.000000,4318.461426,4425.128418,4140.512695,4173.333496,4155.897461,450.000000,2.000000,,,,0.000000,4.000000,4.000000,4.000000,2.000000,4.000000,,,,,,,,,,,,,,,,,,,,,,,,,
1577535965.441710,65.000000,0.000000,4328.717773,4423.589844,4162.563965,4185.128418,4164.102539,450.000000,2.000000,,,,0.000000,4.000000,4.000000,4.000000,2.000000,4.000000,,,,,,,,,,,,,,,,,,,,,,,,,
1577535965.449506,66.000000,0.000000,4327.692383,4405.128418,4131.282227,4145.128418,4154.871582,16226.000000,2.000000,,,,0.000000,4.000000,4.000000,4.000000,2.000000,4.000000,,,,,,,,,,,,,,,,,,,,,,,,,
1577535965.457203,67.000000,0.000000,4318.461426,4398.974121,4147.692383,4175.384766,4145.641113,450.000000,2.000000,,,,0.000000,4.000000,4.000000,4.000000,2.000000,4.000000,,,,,,,,,,,,,,,,,,,,,,,,,
1577535965.464999,68.000000,0.000000,4346.666504,4425.128418,4160.512695,4180.000000,4166.153809,16189.000000,2.000000,,,,0.000000,4.000000,4.000000,4.000000,2.000000,4.000000,,,,,,,,,,,,,,,,,,,,,,,,,
1577535965.472696,69.000000,0.000000,4360.512695,4430.256348,4153.333496,4171.794922,4172.820313,450.000000,2.000000,,,,0.000000,4.000000,4.000000,4.000000,2.000000,4.000000,,,,,,,,,,,,,,,,,,,,,,,,,
1577535965.480593,70.000000,0.000000,4346.666504,4414.358887,4166.666504,4188.717773,4166.153809,16135.000000,2.000000,,,,0.000000,4.000000,4.000000,4.000000,2.000000,4.000000,,,,,,,,,,,,,,,,,,,,,,,,,
1577535965.488390,71.000000,0.000000,4341.025879,4421.538574,4147.692383,4145.128418,4164.102539,450.000000,2.000000,,,,0.000000,4.000000,4.000000,4.000000,2.000000,4.000000,,,,,,,,,,,,,,,,,,,,,,,,,
1577535965.496287,72.000000,0.000000,4325.641113,4430.769043,4158.974121,4157.948730,4153.333496,450.000000,2.000000,,,,0.000000,4.000000,4.000000,4.000000,2.000000,4.000000,,,,,,,,,,,,,,,,,,,,,,,,,
1577535965.504084,73.000000,0.000000,4315.897461,4432.307617,4161.538574,4178.974121,4147.692383,204.000000,2.000000,,,,0.000000,4.000000,4.000000,4.000000,2.000000,4.000000,,,,,,,,,,,,,,,,,,,,,,,,,
1577535965.511980,74.000000,0.000000,4324.615234,4432.307617,4145.641113,4160.512695,4153.333496,450.000000,2.000000,,,,0.000000,4.000000,4.000000,4.000000,2.000000,4.000000,,,,,,,,,,,,,,,,,,,,,,,,,
1577535965.519777,75.000000,0.000000,4338.974121,4432.820313,4165.641113,4164.102539,4170.256348,16222.000000,2.000000,,,,0.000000,4.000000,4.000000,4.000000,2.000000,4.000000,,,,,,,,,,,,,,,,,,,,,,,,,
1577535965.527674,76.000000,0.000000,4332.820313,4414.358887,4142.563965,4128.717773,4165.641113,450.000000,2.000000,,,,0.000000,4.000000,4.000000,4.000000,2.000000,4.000000,,,,,,,,,,,,,,,,,,,,,,,,,
1577535965.535471,77.000000,0.000000,4316.410156,4413.333496,4152.307617,4156.922852,4160.000000,450.000000,2.000000,,,,0.000000,4.000000,4.000000,4.000000,2.000000,4.000000,,,,,,,,,,,,,,,,,,,,,,,,,
1577535965.543367,78.000000,0.000000,4344.102539,4436.922852,4186.153809,4210.256348,4201.538574,450.000000,2.000000,,,,0.000000,4.000000,4.000000,4.000000,2.000000,4.000000,32.431385,5.214003,3.861017,2.389892,1.217839,1.394934,1.440619,0.751531,2.171695,3.001281,2.709088,2.321108,1.038722,2.079015,0.786566,2.098886,2.108860,0.777163,2.707105,3.632796,12.782330,3.977033,2.259026,1.607608,0.891592
1577535965.551164,79.000000,0.000000,4346.153809,4419.487305,4152.820313,4177.436035,4200.000000,16222.000000,2.000000,,,,0.000000,4.000000,4.000000,4.000000,2.000000,4.000000,,,,,,,,,,,,,,,,,,,,,,,,,
1577535965.559061,80.000000,0.000000,4291.794922,4405.641113,4135.897461,4151.794922,4140.512695,450.000000,2.000000,,,,0.000000,4.000000,4.000000,4.000000,2.000000,4.000000,,,,,,,,,,,,,,,,,,,,,,,,,
1577535965.566857,81.000000,0.000000,4263.589844,4411.282227,4129.743652,4134.358887,4125.641113,450.000000,2.000000,,,,0.000000,4.000000,4.000000,4.000000,2.000000,4.000000,,,,,,,,,,,,,,,,,,,,,,,,,
1577535965.574754,82.000000,0.000000,4268.717773,4387.179688,4147.692383,4165.641113,4153.846191,450.000000,2.000000,,,,0.000000,4.000000,4.000000,4.000000,2.000000,4.000000,,,,,,,,,,,,,,,,,,,,,,,,,
1577535965.582551,83.000000,0.000000,4300.000000,4403.077148,4168.717773,4198.974121,4174.358887,16222.000000,2.000000,,,,0.000000,4.000000,4.000000,4.000000,2.000000,4.000000,,,,,,,,,,,,,,,,,,,,,,,,,
1577535965.590447,84.000000,0.000000,4330.256348,4452.820313,4160.000000,4173.333496,4182.051270,450.000000,2.000000,,,,0.000000,4.000000,4.000000,4.000000,2.000000,4.000000,,,,,,,,,,,,,,,,,,,,,,,,,
1577535965.598244,85.000000,0.000000,4318.974121,4435.897461,4180.000000,4193.333496,4187.179688,450.000000,2.000000,,,,0.000000,4.000000,4.000000,4.000000,2.000000,4.000000,,,,,,,,,,,,,,,,,,,,,,,,,
1577535965.606141,86.000000,0.000000,4290.769043,4409.230957,4154.358887,4183.077148,4174.871582,450.000000,2.000000,,,,0.000000,4.000000,4.000000,4.000000,2.000000,4.000000,,,,,,,,,,,,,,,,,,,,,,,,,
1577535965.613938,87.000000,0.000000,4278.974121,4424.615234,4134.871582,4170.769043,4162.563965,16222.000000,2.000000,,,,0.000000,4.000000,4.000000,4.000000,2.000000,4.000000,,,,,,,,,,,,,,,,,,,,,,,,,
1577535965.621834,88.000000,0.000000,4285.128418,4413.333496,4161.538574,4179.487305,4176.922852,450.000000,2.000000,,,,0.000000,4.000000,4.000000,4.000000,2.000000,4.000000,,,,,,,,,,,,,,,,,,,,,,,,,
1577535965.629631,89.000000,0.000000,4275.384766,4395.384766,4132.307617,4124.102539,4171.282227,450.000000,2.000000,,,,0.000000,4.000000,4.000000,4.000000,2.000000,4.000000,,,,,,,,,,,,,,,,,,,,,,,,,
1577535965.637427,90.000000,0.000000,4250.769043,4414.358887,4124.102539,4136.410156,4149.743652,450.000000,2.000000,,,,0.000000,4.000000,4.000000,4.000000,2.000000,4.000000,,,,,,,,,,,,,,,,,,,,,,,,,
1577535965.645123,91.000000,0.000000,4268.717773,4427.692383,4131.794922,4165.641113,4170.256348,16222.000000,2.000000,,,,0.000000,4.000000,4.000000,4.000000,2.000000,4.000000,,,,,,,,,,,,,,,,,,,,,,,,,
1577535965.652820,92.000000,0.000000,4305.641113,4411.794922,4136.410156,4158.974121,4204.102539,450.000000,2.000000,,,,0.000000,4.000000,4.000000,4.000000,2.000000,4.000000,,,,,,,,,,,,,,,,,,,,,,,,,
1577535965.660717,93.000000,0.000000,4326.153809,4412.307617,4161.025879,4168.717773,4229.230957,450.000000,2.000000,,,,0.000000,4.000000,4.000000,4.000000,2.000000,4.000000,,,,,,,,,,,,,,,,,,,,,,,,,
1577535965.668514,94.000000,0.000000,4348.717773,4413.333496,4136.410156,4129.230957,4238.461426,450.000000,2.000000,,,,0.000000,4.000000,4.000000,4.000000,2.000000,4.000000,51.661152,7.481419,4.033900,2.437651,1.268000,1.276441,1.406870,0.791259,2.400142,2.671089,2.384508,1.931967,1.258600,1.969961,0.838630,1.878363,2.141218,0.920173,2.640879,3.552613,18.220459,4.568720,2.394763,1.507770,0.821655
1577535965.676411,95.000000,0.000000,4363.589844,4407.179688,4133.333496,4153.846191,4237.436035,16222.000000,2.000000,,,,0.000000,4.000000,4.000000,4.000000,2.000000,4.000000,,,,,,,,,,,,,,,,,,,,,,,,,
1577535965.684208,96.000000,0.000000,4390.256348,4422.563965,4151.794922,4201.538574,4268.717773,450.000000,2.000000,,,,0.000000,4.000000,4.000000,4.000000,2.000000,4.000000,,,,,,,,,,,,,,,,,,,,,,,,,
1577535965.692005,97.000000,0.000000,4423.589844,4435.384766,4154.358887,4172.820313,4293.846191,450.000000,2.000000,,,,0.000000,4.000000,4.000000,4.000000,2.000000,4.000000,,,,,,,,,,,,,,,,,,,,,,,,,
1577535965.699701,98.000000,0.000000,4427.179688,4426.153809,4168.717773,4171.794922,4286.153809,450.000000,2.000000,,,,0.000000,4.000000,4.000000,4.000000,2.000000,4.000000,,,,,,,,,,,,,,,,,,,,,,,,,
1577535965.707498,99.000000,0.000000,4442.051270,4408.205078,4135.384766,4148.717773,4287.692383,16222.000000,2.000000,,,,0.000000,4.000000,4.000000,4.000000,2.000000,4.000000,,,,,,,,,,,,,,,,,,,,,,,,,
1577535965.715194,100.000000,0.000000,4473.846191,4424.102539,4141.025879,4163.077148,4312.307617,450.000000,2.000000,,,,0.000000,4.000000,4.000000,4.000000,2.000000,4.000000,,,,,,,,,,,,,,,,,,,,,,,,,
1577535965.722991,101.000000,0.000000,4473.333496,4447.179688,4166.153809,4200.512695,4335.897461,450.000000,2.000000,,,,0.000000,4.000000,4.000000,4.000000,2.000000,4.000000,,,,,,,,,,,,,,,,,,,,,,,,,
1577535965.730687,102.000000,0.000000,4430.256348,4410.256348,4121.025879,4137.948730,4303.589844,450.000000,2.000000,,,,0.000000,4.000000,4.000000,4.000000,2.000000,4.000000,,,,,,,,,,,,,,,,,,,,,,,,,
1577535965.738483,103.000000,0.000000,4403.589844,4395.897461,4125.641113,4147.692383,4275.897461,16222.000000,2.000000,,,,0.000000,4.000000,4.000000,4.000000,2.000000,4.000000,,,,,,,,,,,,,,,,,,,,,,,,,
1577535965.746180,104.000000,0.000000,4420.000000,4441.025879,4137.948730,4159.487305,4290.769043,450.000000,2.000000,,,,0.000000,4.000000,4.000000,4.000000,2.000000,4.000000,,,,,,,,,,,,,,,,,,,,,,,,,
1577535965.754076,105.000000,0.000000,4405.128418,4419.487305,4129.743652,4126.153809,4265.128418,450.000000,2.000000,,,,0.000000,4.000000,4.000000,4.000000,2.000000,4.000000,,,,,,,,,,,,,,,,,,,,,,,,,
1577535965.761873,106.000000,0.000000,4368.717773,4389.230957,4145.128418,4167.692383,4251.794922,450.000000,2.000000,,,,0.000000,4.000000,4.000000,4.000000,2.000000,4.000000,,,,,,,,,,,,,,,,,,,,,,,,,
1577535965.769770,107.000000,0.000000,4351.794922,4439.487305,4138.461426,4147.179688,4253.333496,16222.000000,2.000000,,,,0.000000,4.000000,4.000000,4.000000,2.000000,4.000000,,,,,,,,,,,,,,,,,,,,,,,,,
1577535965.777566,108.000000,0.000000,4323.589844,4451.794922,4154.871582,4153.333496,4234.358887,450.000000,2.000000,,,,0.000000,4.000000,4.000000,4.000000,2.000000,4.000000,,,,,,,,,,,,,,,,,,,,,,,,,
1577535965.785463,109.000000,0.000000,4293.333496,4414.871582,4155.897461,4182.563965,4238.461426,450.000000,2.000000,,,,0.000000,4.000000,4.000000,4.000000,2.000000,4.000000,,,,,,,,,,,,,,,,,,,,,,,,,
1577535965.793260,110.000000,0.000000,4267.692383,4402.051270,4135.384766,4141.025879,4216.922852,450.000000,2.000000,,,,0.000000,4.000000,4.000000,4.000000,2.000000,4.000000,74.062622,10.046594,4.201574,2.375655,1.271435,1.104391,1.349280,0.820887,2.646537,2.383306,2.060866,1.560774,1.474794,1.740822,0.865555,1.685453,2.276417,1.253533,2.670887,3.515986,24.450157,5.169716,2.545125,1.364042,0.747299
1577535965.801056,111.000000,0.000000,4255.897461,4407.692383,4143.589844,4176.922852,4213.846191,16222.000000,2.000000,,,,0.000000,4.000000,4.000000,4.000000,2.000000,4.000000,,,,,,,,,,,,,,,,,,,,,,,,,
1577535965.808853,112.000000,0.000000,4246.153809,4414.358887,4120.512695,4147.692383,4215.897461,450.000000,2.000000,,,,0.000000,4.000000,4.000000,4.000000,2.000000,4.000000,,,,,,,,,,,,,,,,,,,,,,,,,
1577535965.816550,113.000000,0.000000,4214.358887,4424.615234,4123.589844,4135.897461,4182.051270,450.000000,2.000000,,,,0.000000,4.000000,4.000000,4.000000,2.000000,4.000000,,,,,,,,,,,,,,,,,,,,,,,,,
1577535965.824346,114.000000,0.000000,4195.384766,4413.333496,4127.692383,4191.794922,4190.769043,450.000000,2.000000,,,,0.000000,4.000000,4.000000,4.000000,2.000000,4.000000,,,,,,,,,,,,,,,,,,,,,,,,,
1577535965.832043,115.000000,0.000000,4175.897461,4394.358887,4109.743652,4117.948730,4177.948730,16222.000000,2.000000,,,,0.000000,4.000000,4.000000,4.000000,2.000000,4.000000,,,,,,,,,,,,,,,,,,,,,,,,,
1577535965.839839,116.000000,0.000000,4154.871582,4413.333496,4136.410156,4160.512695,4157.948730,450.000000,2.000000,,,,0.000000,4.000000,4.000000,4.000000,2.000000,4.000000,,,,,,,,,,,,,,,,,,,,,,,,,
1577535965.847536,117.000000,0.000000,4151.794922,4410.256348,4130.256348,4153.333496,4172.307617,450.000000,2.000000,,,,0.000000,4.000000,4.000000,4.000000,2.000000,4.000000,,,,,,,,,,,,,,,,,,,,,,,,,
1577535965.855332,118.000000,0.000000,4140.000000,4385.128418,4127.692383,4092.820557,4154.358887,450.000000,2.000000,,,,0.000000,4.000000,4.000000,4.000000,2.000000,4.000000,,,,,,,,,,,,,,,,,,,,,,,,,
1577535965.863029,119.000000,0.000000,4118.974121,4410.256348,4133.333496,4201.538574,4129.230957,16222.000000,2.000000,,,,0.000000,4.000000,4.000000,4.000000,2.000000,4.000000,,,,,,,,,,,,,,,,,,,,,,,,,
1577535965.870826,120.000000,0.000000,4104.102539,4422.563965,4124.102539,4106.153809,4132.307617,450.000000,2.000000,,,,0.000000,4.000000,4.000000,4.000000,2.000000,4.000000,,,,,,,,,,,,,,,,,,,,,,,,,
1577535965.878522,121.000000,0.000000,4113.333496,4397.948730,4162.563965,4152.820313,4149.230957,450.000000,2.000000,,,,0.000000,4.000000,4.000000,4.000000,2.000000,4.000000,,,,,,,,,,,,,,,,,,,,,,,,,
1577535965.886319,122.000000,0.000000,4128.205078,4411.794922,4155.897461,4216.922852,4155.384766,450.000000,2.000000,,,,0.000000,4.000000,4.000000,4.000000,2.000000,4.000000,,,,,,,,,,,,,,,,,,,,,,,,,
1577535965.894015,123.000000,0.000000,4109.230957,4440.000000,4144.102539,4054.358887,4147.179688,16222.000000,2.000000,,,,0.000000,4.000000,4.000000,4.000000,2.000000,4.000000,,,,,,,,,,,,,,,,,,,,,,,,,
1577535965.901812,124.000000,0.000000,4102.563965,4436.922852,4157.436035,4232.820313,4147.179688,450.000000,2.000000,,,,0.000000,4.000000,4.000000,4.000000,2.000000,4.000000,,,,,,,,,,,,,,,,,,,,,,,,,
1577535965.909508,125.000000,0.000000,4117.436035,4431.794922,4132.307617,4140.512695,4165.128418,450.000000,2.000000,,,,0.000000,4.000000,4.000000,4.000000,2.000000,4.000000,,,,,,,,,,,,,,,,,,,,,,,,,
1577535965.917305,126.000000,0.000000,4102.051270,4423.589844,4142.563965,4059.487061,4163.077148,450.000000,2.000000,,,,0.000000,4.000000,4.000000,4.000000,2.000000,4.000000,94.490288,12.134843,4.403190,2.277487,1.246670,0.931724,1.261425,0.820127,2.844275,2.210822,1.785033,1.304671,1.630103,1.483781,0.863983,1.638987,2.536165,1.668923,2.808358,3.517381,29.805738,5.575052,2.719470,1.277513,0.710807
1577535965.925001,127.000000,0.000000,4081.538574,4411.794922,4142.563965,4248.205078,4138.461426,229.000000,2.000000,,,,0.000000,4.000000,4.000000,4.000000,2.000000,4.000000,,,,,,,,,,,,,,,,,,,,,,,,,
1577535965.932898,0.000000,0.000000,4088.205078,4425.128418,4140.000000,4022.051270,4148.717773,450.000000,2.000000,,,,0.000000,4.000000,4.000000,4.000000,2.000000,4.000000,,,,,,,,,,,,,,,,,,,,,,,,,
1577535965.940694,1.000000,0.000000,4103.077148,4429.743652,4163.589844,4134.358887,4164.615234,450.000000,2.000000,,,,0.000000,4.000000,4.000000,4.000000,2.000000,4.000000,,,,,,,,,,,,,,,,,,,,,,,,,
1577535965.948591,2.000000,0.000000,4098.974121,4400.000000,4145.128418,4178.974121,4154.871582,16234.000000,2.000000,,,,0.000000,4.000000,4.000000,4.000000,2.000000,4.000000,,,,,,,,,,,,,,,,,,,,,,,,,
1577535965.956388,3.000000,0.000000,4090.769287,4415.384766,4158.461426,3998.461426,4157.948730,450.000000,2.000000,,,,0.000000,4.000000,4.000000,4.000000,2.000000,4.000000,,,,,,,,,,,,,,,,,,,,,,,,,
1577535965.964285,4.000000,0.000000,4115.384766,4456.410156,4166.666504,4187.179688,4182.563965,16176.000000,2.000000,,,,0.000000,4.000000,4.000000,4.000000,2.000000,4.000000,,,,,,,,,,,,,,,,,,,,,,,,,
1577535965.972082,5.000000,0.000000,4133.333496,4437.436035,4148.717773,4052.307617,4196.410156,450.000000,2.000000,,,,0.000000,4.000000,4.000000,4.000000,2.000000,4.000000,,,,,,,,,,,,,,,,,,,,,,,,,
1577535965.979978,6.000000,0.000000,4135.384766,4422.563965,4165.641113,4027.179443,4198.461426,16139.000000,2.000000,,,,0.000000,4.000000,4.000000,4.000000,2.000000,4.000000,,,,,,,,,,,,,,,,,,,,,,,,,
1577535965.987775,7.000000,0.000000,4154.871582,4435.384766,4154.871582,4121.025879,4211.282227,450.000000,2.000000,,,,0.000000,4.000000,4.000000,4.000000,2.000000,4.000000,,,,,,,,,,,,,,,,,,,,,,,,,
1577535965.995672,8.000000,0.000000,4148.717773,4423.589844,4160.000000,3960.000000,4216.410156,450.000000,2.000000,,,,0.000000,4.000000,4.000000,4.000000,2.000000,4.000000,,,,,,,,,,,,,,,,,,,,,,,,,
1577535966.003468,9.000000,0.000000,4120.512695,4415.384766,4159.487305,4023.589844,4200.512695,227.000000,2.000000,,,,0.000000,4.000000,4.000000,4.000000,2.000000,4.000000,,,,,,,,,,,,,,,,,,,,,,,,,
1577535966.011165,10.000000,0.000000,4101.538574,4416.922852,4128.205078,4014.871826,4178.461426,450.000000,2.000000,,,,0.000000,4.000000,4.000000,4.000000,2.000000,4.000000,,,,,,,,,,,,,,,,,,,,,,,,,
1577535966.018961,11.000000,0.000000,4109.230957,4408.205078,4158.461426,3981.538574,4185.641113,16214.000000,2.000000,,,,0.000000,4.000000,4.000000,4.000000,2.000000,4.000000,,,,,,,,,,,,,,,,,,,,,,,,,
1577535966.026658,12.000000,0.000000,4140.000000,4400.000000,4174.871582,4035.897461,4212.820313,450.000000,2.000000,,,,0.000000,4.000000,4.000000,4.000000,2.000000,4.000000,,,,,,,,,,,,,,,,,,,,,,,,,
1577535966.034454,13.000000,0.000000,4123.077148,4403.589844,4161.538574,3944.102539,4192.307617,450.000000,2.000000,,,,0.000000,4.000000,4.000000,4.000000,2.000000,4.000000,,,,,,,,,,,,,,,,,,,,,,,,,
1577535966.042151,14.000000,0.000000,4089.743652,4418.461426,4148.205078,3797.948730,4159.487305,450.000000,2.000000,,,,0.000000,4.000000,4.000000,4.000000,2.000000,4.000000,107.238716,13.206764,4.652911,2.233333,1.220827,0.817608,1.151505,0.798884,2.938464,2.181306,1.580574,1.244376,1.672975,1.280225,0.842072,1.772206,2.913669,2.018577,2.993227,3.529510,32.909306,5.708946,2.932573,1.324973,0.742777
1577535966.049948,15.000000,0.000000,4101.025879,4421.025879,4138.974121,3453.846191,4172.820313,16214.000000,2.000000,,,,0.000000,4.000000,4.000000,4.000000,2.000000,4.000000,,,,,,,,,,,,,,,,,,,,,,,,,
1577535966.057644,16.000000,0.000000,4111.282227,4412.307617,4169.743652,2995.897461,4189.743652,0.000000,2.000000,,,,0.000000,4.000000,4.000000,4.000000,2.000000,4.000000,,,,,,,,,,,,,,,,,,,,,,,,,
1577535966.065441,17.000000,0.000000,4122.563965,4412.820313,4163.077148,2259.487061,4189.743652,0.000000,2.000000,,,,0.000000,4.000000,4.000000,4.000000,2.000000,4.000000,,,,,,,,,,,,,,,,,,,,,,,,,
1577535966.073137,18.000000,0.000000,4146.666504,4403.589844,4178.461426,936.923096,4210.256348,0.000000,2.000000,,,,0.000000,4.000000,4.000000,4.000000,2.000000,4.000000,,,,,,,,,,,,,,,,,,,,,,,,,
1577535966.081034,19.000000,0.000000,4153.846191,4405.128418,4214.358887,246.153839,4240.512695,0.000000,2.000000,,,,0.000000,4.000000,4.000000,4.000000,2.000000,4.000000,,,,,,,,,,,,,,,,,,,,,,,,,
1577535966.088831,20.000000,0.000000,4148.205078,4409.743652,4182.051270,1153.333374,4244.615234,0.000000,2.000000,,,,0.000000,4.000000,4.000000,4.000000,2.000000,4.000000,,,,,,,,,,,,,,,,,,,,,,,,,
1577535966.096727,21.000000,0.000000,4174.871582,4399.487305,4195.897461,2433.333252,4258.974121,0.000000,2.000000,,,,0.000000,4.000000,4.000000,4.000000,2.000000,4.000000,,,,,,,,,,,,,,,,,,,,,,,,,
1577535966.104524,22.000000,0.000000,4220.512695,4422.051270,4213.333496,3012.307617,4291.282227,0.000000,2.000000,,,,0.000000,4.000000,4.000000,4.000000,2.000000,4.000000,,,,,,,,,,,,,,,,,,,,,,,,,
1577535966.112421,23.000000,0.000000,4231.794922,4460.000000,4207.179688,3410.256348,4297.948730,0.000000,2.000000,,,,0.000000,4.000000,4.000000,4.000000,2.000000,4.000000,,,,,,,,,,,,,,,,,,,,,,,,,
1577535966.120218,24.000000,0.000000,4240.512695,4441.025879,4232.820313,3863.076904,4305.641113,0.000000,2.000000,,,,0.000000,4.000000,4.000000,4.000000,2.000000,4.000000,,,,,,,,,,,,,,,,,,,,,,,,,
1577535966.128014,25.000000,0.000000,4259.487305,4403.077148,4221.025879,4168.205078,4319.487305,0.000000,2.000000,,,,0.000000,4.000000,4.000000,4.000000,2.000000,4.000000,,,,,,,,,,,,,,,,,,,,,,,,,
1577535966.135711,26.000000,0.000000,4256.922852,4425.641113,4232.820313,4464.102539,4317.436035,0.000000,2.000000,,,,0.000000,4.000000,4.000000,4.000000,2.000000,4.000000,,,,,,,,,,,,,,,,,,,,,,,,,
1577535966.143607,27.000000,0.000000,4262.051270,4460.000000,4244.102539,4554.871582,4316.922852,0.000000,2.000000,,,,0.000000,4.000000,4.000000,4.000000,2.000000,4.000000,,,,,,,,,,,,,,,,,,,,,,,,,
1577535966.151404,28.000000,0.000000,4255.897461,4439.487305,4213.846191,4273.333496,4305.128418,0.000000,2.000000,,,,0.000000,4.000000,4.000000,4.000000,2.000000,4.000000,,,,,,,,,,,,,,,,,,,,,,,,,
1577535966.159301,29.000000,0.000000,4227.179688,4418.461426,4216.410156,3756.410156,4283.589844,0.000000,2.000000,,,,0.000000,4.000000,4.000000,4.000000,2.000000,4.000000,,,,,,,,,,,,,,,,,,,,,,,,,
1577535966.167098,30.000000,0.000000,4224.102539,4414.358887,4198.974121,3363.589844,4275.897461,0.000000,2.000000,,,,0.000000,4.000000,4.000000,4.000000,2.000000,4.000000,110.752785,12.953178,4.898414,2.301122,1.217282,0.810479,1.043576,0.778752,2.907416,2.270956,1.435963,1.408235,1.581580,1.168105,0.812934,5.421463,5.736320,3.423187,3.433982,3.574248,33.535404,5.530899,3.174005,1.510325,0.847733
1577535966.174894,31.000000,0.000000,4241.025879,4403.077148,4205.641113,3439.487061,4283.077148,0.000000,2.000000,,,,0.000000,4.000000,4.000000,4.000000,2.000000,4.000000,,,,,,,,,,,,,,,,,,,,,,,,,
1577535966.182591,32.000000,0.000000,4244.615234,4407.692383,4225.128418,3590.256348,4292.820313,0.000000,2.000000,,,,0.000000,4.000000,4.000000,4.000000,2.000000,4.000000,,,,,,,,,,,,,,,,,,,,,,,,,
1577535966.190387,33.000000,0.000000,4222.051270,4411.794922,4191.282227,3484.102539,4272.307617,0.000000,2.000000,,,,0.000000,4.000000,4.000000,4.000000,2.000000,4.000000,,,,,,,,,,,,,,,,,,,,,,,,,
1577535966.198083,34.000000,0.000000,4208.717773,4418.974121,4197.948730,3745.641113,4255.897461,0.000000,2.000000,,,,0.000000,4.000000,4.000000,4.000000,2.000000,4.000000,,,,,,,,,,,,,,,,,,,,,,,,,
1577535966.205980,35.000000,0.000000,4235.384766,4433.333496,4200.512695,4482.563965,4277.436035,0.000000,2.000000,,,,0.000000,4.000000,4.000000,4.000000,2.000000,4.000000,,,,,,,,,,,,,,,,,,,,,,,,,
1577535966.213877,36.000000,0.000000,4232.820313,4427.692383,4188.205078,5015.897461,4273.333496,0.000000,2.000000,,,,0.000000,4.000000,4.000000,4.000000,2.000000,4.000000,,,,,,,,,,,,,,,,,,,,,,,,,
1577535966.221674,37.000000,0.000000,4204.615234,4437.436035,4188.205078,5156.410156,4252.307617,0.000000,2.000000,,,,0.000000,4.000000,4.000000,4.000000,2.000000,4.000000,,,,,,,,,,,,,,,,,,,,,,,,,
1577535966.229571,38.000000,0.000000,4192.820313,4444.102539,4164.102539,4941.025879,4245.128418,0.000000,2.000000,,,,0.000000,4.000000,4.000000,4.000000,2.000000,4.000000,,,,,,,,,,,,,,,,,,,,,,,,,
1577535966.237368,39.000000,0.000000,4182.051270,4412.820313,4178.461426,4627.692383,4232.820313,0.000000,2.000000,,,,0.000000,4.000000,4.000000,4.000000,2.000000,4.000000,,,,,,,,,,,,,,,,,,,,,,,,,
1577535966.245165,40.000000,0.000000,4184.615234,4400.000000,4173.333496,4451.282227,4229.230957,0.000000,2.000000,,,,0.000000,4.000000,4.000000,4.000000,2.000000,4.000000,,,,,,,,,,,,,,,,,,,,,,,,,
1577535966.252861,41.000000,0.000000,4186.666504,4421.538574,4154.871582,4323.077148,4230.256348,0.000000,2.000000,,,,0.000000,4.000000,4.000000,4.000000,2.000000,4.000000,,,,,,,,,,,,,,,,,,,,,,,,,
1577535966.260658,42.000000,0.000000,4182.051270,4426.153809,4177.436035,4275.384766,4231.282227,0.000000,2.000000,,,,0.000000,4.000000,4.000000,4.000000,2.000000,4.000000,,,,,,,,,,,,,,,,,,,,,,,,,
1577535966.268354,43.000000,0.000000,4179.487305,4429.230957,4159.487305,4236.410156,4223.589844,0.000000,2.000000,,,,0.000000,4.000000,4.000000,4.000000,2.000000,4.000000,,,,,,,,,,,,,,,,,,,,,,,,,
1577535966.276151,44.000000,0.000000,4165.128418,4452.307617,4152.820313,4430.769043,4207.179688,0.000000,2.000000,,,,0.000000,4.000000,4.000000,4.000000,2.000000,4.000000,,,,,,,,,,,,,,,,,,,,,,,,,
1577535966.283848,45.000000,0.000000,4152.307617,4445.128418,4148.205078,5047.179688,4198.461426,0.000000,2.000000,,,,0.000000,4.000000,4.000000,4.000000,2.000000,4.000000,,,,,,,,,,,,,,,,,,,,,,,,,
1577535966.291644,46.000000,0.000000,4143.589844,4398.461426,4138.461426,5541.025879,4184.615234,0.000000,2.000000,,,,0.000000,4.000000,4.000000,4.000000,2.000000,4.000000,108.170502,11.515363,5.027975,2.477867,1.247491,0.956112,0.976947,0.791769,2.760112,2.419980,1.394667,1.747600,1.374405,1.135821,0.789384,121.784904,99.053368,33.313679,11.479902,4.929018,32.809998,5.104578,3.365584,1.765690,1.005324
1577535966.299341,47.000000,0.000000,4143.077148,4394.871582,4165.128418,5560.512695,4181.538574,0.000000,2.000000,,,,0.000000,4.000000,4.000000,4.000000,2.000000,4.000000,,,,,,,,,,,,,,,,,,,,,,,,,
1577535966.307137,48.000000,0.000000,4133.333496,4434.358887,4142.051270,5318.461426,4175.384766,0.000000,2.000000,,,,0.000000,4.000000,4.000000,4.000000,2.000000,4.000000,,,,,,,,,,,,,,,,,,,,,,,,,
1577535966.314834,49.000000,0.000000,4111.794922,4427.179688,4135.897461,5052.820313,4155.897461,0.000000,2.000000,,,,0.000000,4.000000,4.000000,4.000000,2.000000,4.000000,,,,,,,,,,,,,,,,,,,,,,,,,
1577535966.322630,50.000000,0.000000,4133.846191,4384.615234,4153.846191,4747.179688,4170.256348,0.000000,2.000000,,,,0.000000,4.000000,4.000000,4.000000,2.000000,4.000000,,,,,,,,,,,,,,,,,,,,,,,,,
1577535966.330326,51.000000,0.000000,4162.051270,4384.615234,4142.563965,4456.410156,4194.871582,0.000000,2.000000,,,,0.000000,4.000000,4.000000,4.000000,2.000000,4.000000,,,,,,,,,,,,,,,,,,,,,,,,,
1577535966.338223,52.000000,0.000000,4149.743652,4438.974121,4158.461426,4439.487305,4198.461426,0.000000,2.000000,,,,0.000000,4.000000,4.000000,4.000000,2.000000,4.000000,,,,,,,,,,,,,,,,,,,,,,,,,
1577535966.346020,53.000000,0.000000,4134.358887,4461.538574,4135.384766,4653.846191,4190.256348,0.000000,2.000000,,,,0.000000,4.000000,4.000000,4.000000,2.000000,4.000000,,,,,,,,,,,,,,,,,,,,,,,,,
1577535966.353916,54.000000,0.000000,4115.384766,4408.717773,4120.000000,5051.282227,4168.717773,0.000000,2.000000,,,,0.000000,4.000000,4.000000,4.000000,2.000000,4.000000,,,,,,,,,,,,,,,,,,,,,,,,,
1577535966.361713,55.000000,0.000000,4099.487305,4376.922852,4130.769043,5545.128418,4151.794922,0.000000,2.000000,,,,0.000000,4.000000,4.000000,4.000000,2.000000,4.000000,,,,,,,,,,,,,,,,,,,,,,,,,
1577535966.369610,56.000000,0.000000,4101.538574,4411.282227,4106.666504,5794.358887,4142.051270,0.000000,2.000000,,,,0.000000,4.000000,4.000000,4.000000,2.000000,4.000000,,,,,,,,,,,,,,,,,,,,,,,,,
1577535966.377407,57.000000,0.000000,4091.281982,4434.358887,4124.102539,6094.871582,4133.846191,0.000000,2.000000,,,,0.000000,4.000000,4.000000,4.000000,2.000000,4.000000,,,,,,,,,,,,,,,,,,,,,,,,,
1577535966.385303,58.000000,0.000000,4082.564209,4415.897461,4121.025879,6535.384766,4130.769043,0.000000,2.000000,,,,0.000000,4.000000,4.000000,4.000000,2.000000,4.000000,,,,,,,,,,,,,,,,,,,,,,,,,
1577535966.393100,59.000000,0.000000,4087.692383,4401.025879,4104.615234,6454.871582,4123.077148,0.000000,2.000000,,,,0.000000,4.000000,4.000000,4.000000,2.000000,4.000000,,,,,,,,,,,,,,,,,,,,,,,,,
1577535966.400996,60.000000,0.000000,4090.256348,4421.538574,4124.615234,5937.436035,4121.538574,0.000000,2.000000,,,,0.000000,4.000000,4.000000,4.000000,2.000000,4.000000,,,,,,,,,,,,,,,,,,,,,,,,,
1577535966.408793,61.000000,0.000000,4073.846191,4438.461426,4095.897461,5493.846191,4118.974121,0.000000,2.000000,,,,0.000000,4.000000,4.000000,4.000000,2.000000,4.000000,,,,,,,,,,,,,,,,,,,,,,,,,
1577535966.416490,62.000000,0.000000,4039.487061,4418.461426,4081.025635,5255.384766,4095.897461,0.000000,2.000000,,,,0.000000,4.000000,4.000000,4.000000,2.000000,4.000000,103.481758,9.460317,4.929972,2.682813,1.308134,1.266233,0.991723,0.886311,2.530981,2.562947,1.538615,2.154872,1.097775,1.144319,0.779271,651.244446,616.037842,165.595276,50.454365,12.030537,32.686569,4.634935,3.379925,1.976642,1.179821
1577535966.424286,63.000000,0.000000,4036.410156,4387.692383,4076.923096,5190.769043,4086.666748,0.000000,2.000000,,,,0.000000,4.000000,4.000000,4.000000,2.000000,4.000000,,,,,,,,,,,,,,,,,,,,,,,,,
1577535966.431983,64.000000,0.000000,4047.179443,4381.025879,4069.743652,5142.563965,4088.205078,450.000000,2.000000,,,,0.000000,4.000000,4.000000,4.000000,2.000000,4.000000,,,,,,,,,,,,,,,,,,,,,,,,,
1577535966.439779,65.000000,0.000000,4042.564209,4413.846191,4097.436035,5301.538574,4087.179443,450.000000,2.000000,,,,0.000000,4.000000,4.000000,4.000000,2.000000,4.000000,,,,,,,,,,,,,,,,,,,,,,,,,
1577535966.447476,66.000000,0.000000,4043.589844,4425.128418,4083.076904,5953.333496,4086.666748,16222.000000,2.000000,,,,0.000000,4.000000,4.000000,4.000000,2.000000,4.000000,,,,,,,,,,,,,,,,,,,,,,,,,
1577535966.455373,67.000000,1.000000,4011.987061,4416.538574,4061.538574,6180.063965,4057.051270,450.000000,2.000000,,,,0.000000,4.000000,4.000000,4.000000,2.000000,4.000000,,,,,,,,,,,,,,,,,,,,,,,,,
1577535966.463170,68.000000,1.000000,3980.384521,4407.948730,4040.000000,6406.794922,4027.435791,16176.000000,2.000000,,,,0.000000,4.000000,4.000000,4.000000,2.000000,4.000000,,,,,,,,,,,,,,,,,,,,,,,,,
1577535966.470967,69.000000,1.000000,3948.781982,4399.358887,4018.461426,6633.525879,3997.820557,450.000000,2.000000,,,,0.000000,4.000000,4.000000,4.000000,2.000000,4.000000,,,,,,,,,,,,,,,,,,,,,,,,,
1577535966.478764,70.000000,1.000000,3917.179443,4390.769043,3996.923096,6860.256348,3968.205078,16139.000000,2.000000,,,,0.000000,4.000000,4.000000,4.000000,2.000000,4.000000,,,,,,,,,,,,,,,,,,,,,,,,,
1577535966.486561,71.000000,1.000000,3885.576904,4382.179688,3975.384521,7086.987305,3938.589844,450.000000,2.000000,,,,0.000000,4.000000,4.000000,4.000000,2.000000,4.000000,,,,,,,,,,,,,,,,,,,,,,,,,
1577535966.494358,72.000000,1.000000,3853.974365,4373.589844,3953.846191,7313.717773,3908.974365,450.000000,2.000000,,,,0.000000,4.000000,4.000000,4.000000,2.000000,4.000000,,,,,,,,,,,,,,,,,,,,,,,,,
1577535966.502155,73.000000,1.000000,3822.371826,4365.000000,3932.307617,7540.448730,3879.358887,227.000000,2.000000,,,,0.000000,4.000000,4.000000,4.000000,2.000000,4.000000,,,,,,,,,,,,,,,,,,,,,,,,,
1577535966.509952,74.000000,0.000000,3790.769287,4356.410156,3910.769287,7767.179688,3849.743652,450.000000,2.000000,,,,0.000000,4.000000,4.000000,4.000000,2.000000,4.000000,,,,,,,,,,,,,,,,,,,,,,,,,
1577535966.517749,75.000000,0.000000,3758.461426,4341.538574,3925.641113,7771.282227,3820.000000,16225.000000,2.000000,,,,0.000000,4.000000,4.000000,4.000000,2.000000,4.000000,,,,,,,,,,,,,,,,,,,,,,,,,
1577535966.525443,76.000000,0.000000,3750.769287,4389.230957,3912.820557,7771.282227,3810.256348,450.000000,2.000000,,,,0.000000,4.000000,4.000000,4.000000,2.000000,4.000000,,,,,,,,,,,,,,,,,,,,,,,,,
1577535966.533236,77.000000,0.000000,3716.410156,4385.641113,3883.076904,7769.743652,3772.307617,450.000000,2.000000,,,,0.000000,4.000000,4.000000,4.000000,2.000000,4.000000,,,,,,,,,,,,,,,,,,,,,,,,,
1577535966.540930,78.000000,0.000000,3681.538574,4350.769043,3877.948730,7773.846191,3732.820557,450.000000,2.000000,,,,0.000000,4.000000,4.000000,4.000000,2.000000,4.000000,100.194389,7.476166,4.568713,2.794140,1.382791,1.701890,1.094984,1.114034,2.267215,2.660495,2.047234,2.503671,0.819787,1.155768,0.779390,1899.573975,2014.902344,514.010498,144.425949,30.672441,33.679565,4.373351,3.151084,2.042737,1.328693
1577535966.548624,79.000000,0.000000,3639.487061,4360.000000,3816.923096,7810.769043,3678.974365,16225.000000,2.000000,,,,0.000000,4.000000,4.000000,4.000000,2.000000,4.000000,,,,,,,,,,,,,,,,,,,,,,,,,
1577535966.556418,80.000000,0.000000,3575.384521,4352.820313,3800.512939,7876.410156,3617.435791,450.000000,2.000000,,,,0.000000,4.000000,4.000000,4.000000,2.000000,4.000000,,,,,,,,,,,,,,,,,,,,,,,,,
1577535966.564112,81.000000,0.000000,3540.512939,4335.897461,3802.051270,7815.897461,3594.358887,450.000000,2.000000,,,,0.000000,4.000000,4.000000,4.000000,2.000000,4.000000,,,,,,,,,,,,,,,,,,,,,,,,,
1577535966.571906,82.000000,0.000000,3512.307617,4347.179688,3773.846191,7879.487305,3573.846191,450.000000,2.000000,,,,0.000000,4.000000,4.000000,4.000000,2.000000,4.000000,,,,,,,,,,,,,,,,,,,,,,,,,
1577535966.579600,83.000000,0.000000,3483.076904,4352.820313,3776.923096,7985.128418,3550.256348,16225.000000,2.000000,,,,0.000000,4.000000,4.000000,4.000000,2.000000,4.000000,,,,,,,,,,,,,,,,,,,,,,,,,
1577535966.587394,84.000000,0.000000,3484.615479,4353.333496,3764.102539,7282.051270,3549.743652,450.000000,2.000000,,,,0.000000,4.000000,4.000000,4.000000,2.000000,4.000000,,,,,,,,,,,,,,,,,,,,,,,,,
1577535966.595088,85.000000,0.000000,3487.692383,4374.871582,3789.230713,6051.794922,3562.051270,450.000000,2.000000,,,,0.000000,4.000000,4.000000,4.000000,2.000000,4.000000,,,,,,,,,,,,,,,,,,,,,,,,,
1577535966.602882,86.000000,0.000000,3498.974365,4373.333496,3815.384521,5042.051270,3582.564209,450.000000,2.000000,,,,0.000000,4.000000,4.000000,4.000000,2.000000,4.000000,,,,,,,,,,,,,,,,,,,,,,,,,
1577535966.610576,87.000000,0.000000,3538.974365,4345.641113,3808.718018,4234.358887,3604.102539,16225.000000,2.000000,,,,0.000000,4.000000,4.000000,4.000000,2.000000,4.000000,,,,,,,,,,,,,,,,,,,,,,,,,
1577535966.618370,88.000000,0.000000,3592.820557,4366.153809,3855.384521,3379.487061,3651.281982,450.000000,2.000000,,,,0.000000,4.000000,4.000000,4.000000,2.000000,4.000000,,,,,,,,,,,,,,,,,,,,,,,,,
1577535966.626064,89.000000,0.000000,3651.281982,4409.743652,3885.128174,2715.384521,3723.076904,450.000000,2.000000,,,,0.000000,4.000000,4.000000,4.000000,2.000000,4.000000,,,,,,,,,,,,,,,,,,,,,,,,,
1577535966.633858,90.000000,0.000000,3701.025635,4409.230957,3913.846191,2822.051270,3777.948730,450.000000,2.000000,,,,0.000000,4.000000,4.000000,4.000000,2.000000,4.000000,,,,,,,,,,,,,,,,,,,,,,,,,
1577535966.641552,91.000000,0.000000,3758.974365,4384.615234,3950.769287,3238.974365,3829.743652,16225.000000,2.000000,,,,0.000000,4.000000,4.000000,4.000000,2.000000,4.000000,,,,,,,,,,,,,,,,,,,,,,,,,
1577535966.649346,92.000000,0.000000,3805.641113,4378.974121,3951.281982,3418.974365,3873.846191,450.000000,2.000000,,,,0.000000,4.000000,4.000000,4.000000,2.000000,4.000000,,,,,,,,,,,,,,,,,,,,,,,,,
1577535966.657140,93.000000,0.000000,3857.948730,4413.846191,4001.538574,3709.230713,3919.487061,450.000000,2.000000,,,,0.000000,4.000000,4.000000,4.000000,2.000000,4.000000,,,,,,,,,,,,,,,,,,,,,,,,,
1577535966.664833,94.000000,0.000000,3931.281982,4431.282227,4033.846191,4010.256348,3974.358887,450.000000,2.000000,,,,0.000000,4.000000,4.000000,4.000000,2.000000,4.000000,97.436462,6.126724,4.057430,2.736276,1.446219,2.195675,1.249193,1.509607,2.021850,2.723626,3.143403,2.704010,0.629556,1.151058,0.775896,3915.334961,4590.854980,1169.281616,298.393799,63.792469,36.183701,4.536389,2.755963,1.939132,1.411535
1577535966.672527,95.000000,0.000000,3950.769287,4418.461426,4038.461426,4085.641113,3992.820557,16225.000000,2.000000,,,,0.000000,4.000000,4.000000,4.000000,2.000000,4.000000,,,,,,,,,,,,,,,,,,,,,,,,,
1577535966.680321,96.000000,0.000000,3943.076904,4427.692383,4054.358887,4237.948730,3998.461426,450.000000,2.000000,,,,0.000000,4.000000,4.000000,4.000000,2.000000,4.000000,,,,,,,,,,,,,,,,,,,,,,,,,
1577535966.688015,97.000000,0.000000,3972.820557,4428.717773,4040.512939,4347.179688,4020.000000,450.000000,2.000000,,,,0.000000,4.000000,4.000000,4.000000,2.000000,4.000000,,,,,,,,,,,,,,,,,,,,,,,,,
1577535966.695709,98.000000,0.000000,3999.487061,4404.102539,4056.410156,4170.769043,4034.358887,450.000000,2.000000,,,,0.000000,4.000000,4.000000,4.000000,2.000000,4.000000,,,,,,,,,,,,,,,,,,,,,,,,,
1577535966.703503,99.000000,0.000000,4001.538574,4392.307617,4048.718018,4060.000000,4037.948730,16225.000000,2.000000,,,,0.000000,4.000000,4.000000,4.000000,2.000000,4.000000,,,,,,,,,,,,,,,,,,,,,,,,,
1577535966.711198,100.000000,0.000000,3999.487061,4390.256348,4036.410156,4098.461426,4039.487061,450.000000,2.000000,,,,0.000000,4.000000,4.000000,4.000000,2.000000,4.000000,,,,,,,,,,,,,,,,,,,,,,,,,
1577535966.718992,101.000000,0.000000,4022.564209,4398.974121,4072.307617,4101.025879,4061.538574,450.000000,2.000000,,,,0.000000,4.000000,4.000000,4.000000,2.000000,4.000000,,,,,,,,,,,,,,,,,,,,,,,,,
1577535966.726786,102.000000,0.000000,4059.487061,4414.358887,4073.846191,4108.205078,4092.820557,450.000000,2.000000,,,,0.000000,4.000000,4.000000,4.000000,2.000000,4.000000,,,,,,,,,,,,,,,,,,,,,,,,,
1577535966.734480,103.000000,0.000000,4077.948730,4414.871582,4092.307617,4244.102539,4110.256348,16225.000000,2.000000,,,,0.000000,4.000000,4.000000,4.000000,2.000000,4.000000,,,,,,,,,,,,,,,,,,,,,,,,,
1577535966.742273,104.000000,0.000000,4109.743652,4425.641113,4105.641113,4451.794922,4138.461426,450.000000,2.000000,,,,0.000000,4.000000,4.000000,4.000000,2.000000,4.000000,,,,,,,,,,,,,,,,,,,,,,,,,
1577535966.749967,105.000000,0.000000,4128.205078,4421.538574,4098.974121,4567.179688,4154.358887,450.000000,2.000000,,,,0.000000,4.000000,4.000000,4.000000,2.000000,4.000000,,,,,,,,,,,,,,,,,,,,,,,,,
1577535966.757761,106.000000,0.000000,4104.102539,4403.077148,4115.384766,4580.000000,4140.000000,450.000000,2.000000,,,,0.000000,4.000000,4.000000,4.000000,2.000000,4.000000,,,,,,,,,,,,,,,,,,,,,,,,,
1577535966.765456,107.000000,0.000000,4097.436035,4404.615234,4093.846191,4576.922852,4132.307617,16225.000000,2.000000,,,,0.000000,4.000000,4.000000,4.000000,2.000000,4.000000,,,,,,,,,,,,,,,,,,,,,,,,,
1577535966.773150,108.000000,0.000000,4114.871582,4416.922852,4110.769043,4592.307617,4143.589844,450.000000,2.000000,,,,0.000000,4.000000,4.000000,4.000000,2.000000,4.000000,,,,,,,,,,,,,,,,,,,,,,,,,
1577535966.780945,109.000000,0.000000,4128.717773,4418.461426,4136.410156,4573.333496,4158.461426,450.000000,2.000000,,,,0.000000,4.000000,4.000000,4.000000,2.000000,4.000000,,,,,,,,,,,,,,,,,,,,,,,,,
1577535966.788740,110.000000,0.000000,4124.615234,4387.179688,4101.538574,4426.153809,4150.769043,450.000000,2.000000,,,,0.000000,4.000000,4.000000,4.000000,2.000000,4.000000,99.774002,5.524759,3.585089,2.517712,1.473567,2.730525,1.386410,2.071581,1.850392,2.795572,5.005269,2.720123,0.627218,1.125611,0.755341,6379.785156,8096.394531,2069.445801,488.787323,108.445534,42.344807,5.055216,2.366812,1.720088,1.404812
1577535966.796535,111.000000,0.000000,4125.128418,4382.051270,4119.487305,4220.000000,4147.692383,16225.000000,2.000000,,,,0.000000,4.000000,4.000000,4.000000,2.000000,4.000000,,,,,,,,,,,,,,,,,,,,,,,,,
1577535966.804330,112.000000,0.000000,4152.820313,4413.333496,4131.794922,4074.871826,4178.974121,450.000000,2.000000,,,,0.000000,4.000000,4.000000,4.000000,2.000000,4.000000,,,,,,,,,,,,,,,,,,,,,,,,,
1577535966.812023,113.000000,0.000000,4165.128418,4412.307617,4127.179688,3971.281982,4200.512695,450.000000,2.000000,,,,0.000000,4.000000,4.000000,4.000000,2.000000,4.000000,,,,,,,,,,,,,,,,,,,,,,,,,
1577535966.819717,114.000000,0.000000,4156.922852,4398.461426,4135.897461,3924.615479,4198.974121,450.000000,2.000000,,,,0.000000,4.000000,4.000000,4.000000,2.000000,4.000000,,,,,,,,,,,,,,,,,,,,,,,,,
1577535966.827511,115.000000,0.000000,4150.769043,4407.179688,4111.282227,3990.256348,4187.692383,16225.000000,2.000000,,,,0.000000,4.000000,4.000000,4.000000,2.000000,4.000000,,,,,,,,,,,,,,,,,,,,,,,,,
1577535966.835205,116.000000,0.000000,4152.820313,4422.051270,4127.179688,4091.281982,4188.717773,450.000000,2.000000,,,,0.000000,4.000000,4.000000,4.000000,2.000000,4.000000,,,,,,,,,,,,,,,,,,,,,,,,,
1577535966.842999,117.000000,0.000000,4172.820313,4426.153809,4134.358887,4074.871826,4208.205078,450.000000,2.000000,,,,0.000000,4.000000,4.000000,4.000000,2.000000,4.000000,,,,,,,,,,,,,,,,,,,,,,,,,
1577535966.850693,118.000000,0.000000,4175.897461,4414.358887,4117.436035,3967.692383,4208.717773,450.000000,2.000000,,,,0.000000,4.000000,4.000000,4.000000,2.000000,4.000000,,,,,,,,,,,,,,,,,,,,,,,,,
1577535966.858487,119.000000,0.000000,4180.512695,4391.794922,4136.922852,3931.281982,4212.307617,16225.000000,2.000000,,,,0.000000,4.000000,4.000000,4.000000,2.000000,4.000000,,,,,,,,,,,,,,,,,,,,,,,,,
1577535966.866181,120.000000,0.000000,4204.615234,4387.692383,4135.897461,3903.589844,4228.717773,450.000000,2.000000,,,,0.000000,4.000000,4.000000,4.000000,2.000000,4.000000,,,,,,,,,,,,,,,,,,,,,,,,,
1577535966.873975,121.000000,0.000000,4207.692383,4395.384766,4150.769043,3837.948730,4229.230957,450.000000,2.000000,,,,0.000000,4.000000,4.000000,4.000000,2.000000,4.000000,,,,,,,,,,,,,,,,,,,,,,,,,
1577535966.881669,122.000000,0.000000,4216.922852,4411.282227,4154.871582,3858.461426,4238.974121,450.000000,2.000000,,,,0.000000,4.000000,4.000000,4.000000,2.000000,4.000000,,,,,,,,,,,,,,,,,,,,,,,,,
1577535966.889463,123.000000,0.000000,4230.769043,4420.512695,4145.128418,3907.692383,4250.769043,16225.000000,2.000000,,,,0.000000,4.000000,4.000000,4.000000,2.000000,4.000000,,,,,,,,,,,,,,,,,,,,,,,,,
1577535966.897156,124.000000,0.000000,4227.179688,4405.641113,4166.666504,3916.923096,4248.717773,450.000000,2.000000,,,,0.000000,4.000000,4.000000,4.000000,2.000000,4.000000,,,,,,,,,,,,,,,,,,,,,,,,,
1577535966.904950,125.000000,0.000000,4228.717773,4394.871582,4148.205078,3982.564209,4247.692383,450.000000,2.000000,,,,0.000000,4.000000,4.000000,4.000000,2.000000,4.000000,,,,,,,,,,,,,,,,,,,,,,,,,
1577535966.912644,126.000000,0.000000,4224.615234,4395.897461,4149.743652,4104.615234,4243.077148,450.000000,2.000000,,,,0.000000,4.000000,4.000000,4.000000,2.000000,4.000000,103.497643,5.740366,3.255055,2.207826,1.448608,3.323548,1.455219,2.722966,1.776747,2.910213,8.647577,2.683384,0.842681,1.081656,0.714325,9400.486328,11888.518555,3040.082520,667.930969,155.817368,52.664772,5.951680,2.101269,1.469724,1.309051
1577535966.920437,127.000000,0.000000,4225.641113,4411.794922,4160.000000,4161.538574,4241.538574,229.000000,2.000000,,,,0.000000,4.000000,4.000000,4.000000,2.000000,4.000000,,,,,,,,,,,,,,,,,,,,,,,,,
1577535966.928131,0.000000,0.000000,4239.487305,4428.205078,4147.179688,4137.948730,4248.717773,450.000000,2.000000,,,,0.000000,4.000000,4.000000,4.000000,2.000000,4.000000,,,,,,,,,,,,,,,,,,,,,,,,,
1577535966.935825,1.000000,0.000000,4253.333496,4414.358887,4169.743652,4143.589844,4262.563965,450.000000,2.000000,,,,0.000000,4.000000,4.000000,4.000000,2.000000,4.000000,,,,,,,,,,,,,,,,,,,,,,,,,
1577535966.943620,2.000000,0.000000,4255.384766,4389.743652,4151.794922,4157.436035,4260.000000,16218.000000,2.000000,,,,0.000000,4.000000,4.000000,4.000000,2.000000,4.000000,,,,,,,,,,,,,,,,,,,,,,,,,
1577535966.951414,3.000000,0.000000,4243.077148,4401.025879,4147.692383,4172.820313,4241.025879,450.000000,2.000000,,,,0.000000,4.000000,4.000000,4.000000,2.000000,4.000000,,,,,,,,,,,,,,,,,,,,,,,,,
1577535966.959107,4.000000,0.000000,4248.205078,4426.666504,4173.333496,4198.974121,4248.717773,16189.000000,2.000000,,,,0.000000,4.000000,4.000000,4.000000,2.000000,4.000000,,,,,,,,,,,,,,,,,,,,,,,,,
1577535966.966901,5.000000,0.000000,4263.589844,4418.461426,4165.128418,4133.333496,4269.743652,450.000000,2.000000,,,,0.000000,4.000000,4.000000,4.000000,2.000000,4.000000,,,,,,,,,,,,,,,,,,,,,,,,,
1577535966.974595,6.000000,0.000000,4250.769043,4410.769043,4183.077148,4058.974365,4264.102539,16124.000000,2.000000,,,,0.000000,4.000000,4.000000,4.000000,2.000000,4.000000,,,,,,,,,,,,,,,,,,,,,,,,,
1577535966.982289,7.000000,0.000000,4227.692383,4405.641113,4152.307617,4061.025635,4234.358887,450.000000,2.000000,,,,0.000000,4.000000,4.000000,4.000000,2.000000,4.000000,,,,,,,,,,,,,,,,,,,,,,,,,
1577535966.990083,8.000000,0.000000,4211.282227,4385.128418,4120.000000,4025.641113,4209.230957,450.000000,2.000000,,,,0.000000,4.000000,4.000000,4.000000,2.000000,4.000000,,,,,,,,,,,,,,,,,,,,,,,,,
1577535966.997777,9.000000,0.000000,4219.487305,4405.128418,4161.025879,3979.487061,4222.051270,288.000000,2.000000,,,,0.000000,4.000000,4.000000,4.000000,4.000000,4.000000,,,,,,,,,,,,,,,,,,,,,,,,,
1577535967.005571,10.000000,0.000000,4244.615234,4416.922852,4156.410156,3957.435791,4246.666504,450.000000,2.000000,,,,0.000000,4.000000,4.000000,4.000000,4.000000,4.000000,,,,,,,,,,,,,,,,,,,,,,,,,
1577535967.013265,11.000000,0.000000,4249.743652,4385.128418,4151.794922,3907.179443,4245.641113,16211.000000,2.000000,,,,0.000000,4.000000,4.000000,4.000000,4.000000,4.000000,,,,,,,,,,,,,,,,,,,,,,,,,
1577535967.021059,12.000000,0.000000,4255.384766,4401.025879,4163.077148,3915.897461,4249.743652,450.000000,2.000000,,,,0.000000,4.000000,4.000000,4.000000,4.000000,4.000000,,,,,,,,,,,,,,,,,,,,,,,,,
1577535967.028753,13.000000,0.000000,4254.871582,4421.538574,4160.000000,3980.000000,4251.794922,450.000000,2.000000,,,,0.000000,4.000000,4.000000,4.000000,4.000000,4.000000,,,,,,,,,,,,,,,,,,,,,,,,,
1577535967.036547,14.000000,0.000000,4253.846191,4391.282227,4174.358887,3955.384521,4249.743652,450.000000,2.000000,,,,0.000000,4.000000,4.000000,4.000000,4.000000,4.000000,113.498360,6.906258,3.106389,1.901912,1.370754,3.994207,1.442885,3.335973,1.791867,3.063689,15.547671,2.825835,1.238005,1.027389,0.661339,13285.504883,15141.320313,3843.876221,782.841125,194.012756,71.894836,7.347683,2.028279,1.269726,1.149914
1577535967.044241,15.000000,0.000000,4286.153809,4395.897461,4163.589844,3904.102539,4270.256348,16211.000000,2.000000,,,,0.000000,4.000000,4.000000,4.000000,4.000000,4.000000,,,,,,,,,,,,,,,,,,,,,,,,,
1577535967.052035,16.000000,0.000000,4297.436035,4443.077148,4180.000000,3935.897461,4280.512695,0.000000,2.000000,,,,0.000000,4.000000,4.000000,4.000000,4.000000,4.000000,,,,,,,,,,,,,,,,,,,,,,,,,
1577535967.059829,17.000000,0.000000,4273.333496,4445.641113,4193.333496,3990.256348,4264.615234,0.000000,2.000000,,,,0.000000,4.000000,4.000000,4.000000,4.000000,4.000000,,,,,,,,,,,,,,,,,,,,,,,,,
1577535967.067522,18.000000,0.000000,4258.461426,4390.769043,4167.692383,3997.948730,4250.769043,0.000000,2.000000,,,,0.000000,4.000000,4.000000,4.000000,4.000000,4.000000,,,,,,,,,,,,,,,,,,,,,,,,,
1577535967.075216,19.000000,0.000000,4263.589844,4369.230957,4175.897461,4016.923096,4257.948730,0.000000,2.000000,,,,0.000000,4.000000,4.000000,4.000000,4.000000,4.000000,,,,,,,,,,,,,,,,,,,,,,,,,
1577535967.083010,20.000000,0.000000,4268.205078,4407.692383,4167.179688,4062.051270,4264.615234,0.000000,2.000000,,,,0.000000,4.000000,4.000000,4.000000,4.000000,4.000000,,,,,,,,,,,,,,,,,,,,,,,,,
1577535967.090704,21.000000,0.000000,4259.487305,4418.974121,4172.820313,4104.102539,4252.820313,0.000000,2.000000,,,,0.000000,4.000000,4.000000,4.000000,4.000000,4.000000,,,,,,,,,,,,,,,,,,,,,,,,,
1577535967.098498,22.000000,0.000000,4263.589844,4392.820313,4175.897461,4181.025879,4250.769043,0.000000,2.000000,,,,0.000000,4.000000,4.000000,4.000000,4.000000,4.000000,,,,,,,,,,,,,,,,,,,,,,,,,
1577535967.106191,23.000000,0.000000,4262.563965,4410.256348,4146.153809,4254.871582,4249.230957,0.000000,2.000000,,,,0.000000,4.000000,4.000000,4.000000,4.000000,4.000000,,,,,,,,,,,,,,,,,,,,,,,,,
1577535967.113886,24.000000,0.000000,4247.692383,4433.333496,4171.794922,4291.794922,4243.589844,0.000000,2.000000,,,,0.000000,4.000000,4.000000,4.000000,4.000000,4.000000,,,,,,,,,,,,,,,,,,,,,,,,,
1577535967.121680,25.000000,0.000000,4254.871582,4395.384766,4169.230957,4322.563965,4242.563965,0.000000,2.000000,,,,0.000000,4.000000,4.000000,4.000000,4.000000,4.000000,,,,,,,,,,,,,,,,,,,,,,,,,
1577535967.129374,26.000000,0.000000,4257.948730,4388.717773,4155.384766,4349.230957,4233.846191,0.000000,2.000000,,,,0.000000,4.000000,4.000000,4.000000,4.000000,4.000000,,,,,,,,,,,,,,,,,,,,,,,,,
1577535967.137168,27.000000,0.000000,4251.794922,4435.384766,4172.307617,4395.897461,4237.436035,0.000000,2.000000,,,,0.000000,4.000000,4.000000,4.000000,4.000000,4.000000,,,,,,,,,,,,,,,,,,,,,,,,,
1577535967.144862,28.000000,0.000000,4242.563965,4424.615234,4152.820313,4421.025879,4231.282227,0.000000,2.000000,,,,0.000000,4.000000,4.000000,4.000000,4.000000,4.000000,,,,,,,,,,,,,,,,,,,,,,,,,
1577535967.152657,29.000000,0.000000,4228.205078,4395.384766,4156.922852,4401.025879,4212.820313,0.000000,2.000000,,,,0.000000,4.000000,4.000000,4.000000,4.000000,4.000000,,,,,,,,,,,,,,,,,,,,,,,,,
1577535967.160451,30.000000,0.000000,4225.641113,4409.230957,4139.487305,4390.256348,4212.307617,0.000000,2.000000,,,,0.000000,4.000000,4.000000,4.000000,4.000000,4.000000,131.805893,9.102274,3.157055,1.672844,1.262093,4.685101,1.375436,3.785928,1.860064,3.203695,26.030737,3.304576,1.733288,0.964293,0.611901,18152.816406,17116.523438,4269.657715,798.117554,212.698441,101.522552,9.268974,2.170793,1.163371,0.973884
1577535967.168145,31.000000,0.000000,4215.897461,4404.102539,4122.563965,4398.974121,4207.692383,0.000000,2.000000,,,,0.000000,4.000000,4.000000,4.000000,4.000000,4.000000,,,,,,,,,,,,,,,,,,,,,,,,,
1577535967.175839,32.000000,0.000000,4213.333496,4396.410156,4156.922852,4428.205078,4209.230957,0.000000,2.000000,,,,0.000000,4.000000,4.000000,4.000000,4.000000,4.000000,,,,,,,,,,,,,,,,,,,,,,,,,
1577535967.183632,33.000000,0.000000,4220.512695,4406.153809,4142.563965,4461.538574,4212.820313,0.000000,2.000000,,,,0.000000,4.000000,4.000000,4.000000,4.000000,4.000000,,,,,,,,,,,,,,,,,,,,,,,,,
1577535967.191426,34.000000,0.000000,4209.230957,4395.384766,4148.717773,4514.871582,4205.128418,0.000000,2.000000,,,,0.000000,4.000000,4.000000,4.000000,4.000000,4.000000,,,,,,,,,,,,,,,,,,,,,,,,,
1577535967.199120,35.000000,0.000000,4213.333496,4397.436035,4164.615234,4581.025879,4213.846191,0.000000,2.000000,,,,0.000000,4.000000,4.000000,4.000000,4.000000,4.000000,,,,,,,,,,,,,,,,,,,,,,,,,
1577535967.206814,36.000000,0.000000,4218.461426,4423.077148,4144.615234,4572.820313,4218.461426,0.000000,2.000000,,,,0.000000,4.000000,4.000000,4.000000,4.000000,4.000000,,,,,,,,,,,,,,,,,,,,,,,,,
1577535967.214608,37.000000,0.000000,4208.717773,4435.384766,4162.051270,4507.692383,4216.410156,0.000000,2.000000,,,,0.000000,4.000000,4.000000,4.000000,4.000000,4.000000,,,,,,,,,,,,,,,,,,,,,,,,,
1577535967.222302,38.000000,0.000000,4215.384766,4416.410156,4159.487305,4460.512695,4226.666504,0.000000,2.000000,,,,0.000000,4.000000,4.000000,4.000000,4.000000,4.000000,,,,,,,,,,,,,,,,,,,,,,,,,
1577535967.229996,39.000000,0.000000,4208.205078,4393.333496,4161.025879,4406.153809,4227.179688,0.000000,2.000000,,,,0.000000,4.000000,4.000000,4.000000,4.000000,4.000000,,,,,,,,,,,,,,,,,,,,,,,,,
1577535967.237791,40.000000,0.000000,4195.897461,4409.230957,4170.256348,4313.333496,4225.128418,0.000000,2.000000,,,,0.000000,4.000000,4.000000,4.000000,4.000000,4.000000,,,,,,,,,,,,,,,,,,,,,,,,,
1577535967.245585,41.000000,0.000000,4202.051270,4438.974121,4149.230957,4179.487305,4221.025879,0.000000,2.000000,,,,0.000000,4.000000,4.000000,4.000000,4.000000,4.000000,,,,,,,,,,,,,,,,,,,,,,,,,
1577535967.253279,42.000000,0.000000,4215.384766,4429.743652,4169.230957,4049.230713,4218.974121,0.000000,2.000000,,,,0.000000,4.000000,4.000000,4.000000,4.000000,4.000000,,,,,,,,,,,,,,,,,,,,,,,,,
1577535967.260973,43.000000,0.000000,4228.205078,4388.205078,4171.794922,3976.410156,4232.820313,0.000000,2.000000,,,,0.000000,4.000000,4.000000,4.000000,4.000000,4.000000,,,,,,,,,,,,,,,,,,,,,,,,,
1577535967.268767,44.000000,0.000000,4222.563965,4385.128418,4154.358887,3905.128174,4231.794922,0.000000,2.000000,,,,0.000000,4.000000,4.000000,4.000000,4.000000,4.000000,,,,,,,,,,,,,,,,,,,,,,,,,
1577535967.276462,45.000000,0.000000,4221.025879,4415.897461,4150.256348,3767.179443,4223.589844,0.000000,2.000000,,,,0.000000,4.000000,4.000000,4.000000,4.000000,4.000000,,,,,,,,,,,,,,,,,,,,,,,,,
1577535967.284256,46.000000,0.000000,4235.384766,4405.128418,4140.000000,3594.358887,4230.256348,0.000000,2.000000,,,,0.000000,4.000000,4.000000,4.000000,4.000000,4.000000,159.327881,12.029881,3.360737,1.530428,1.154740,5.296731,1.308653,3.998234,1.942684,3.257112,38.545185,4.084554,2.218219,0.892642,0.578583,23442.554688,17428.789063,4217.627441,712.209412,207.372375,138.143311,11.460454,2.465951,1.131674,0.830378
1577535967.292050,47.000000,0.000000,4239.487305,4389.230957,4171.282227,3454.358887,4236.410156,0.000000,2.000000,,,,0.000000,4.000000,4.000000,4.000000,4.000000,4.000000,,,,,,,,,,,,,,,,,,,,,,,,,
1577535967.299744,48.000000,0.000000,4244.615234,4420.000000,4172.820313,3383.076904,4237.948730,0.000000,2.000000,,,,0.000000,4.000000,4.000000,4.000000,4.000000,4.000000,,,,,,,,,,,,,,,,,,,,,,,,,
1577535967.307537,49.000000,0.000000,4245.641113,4423.077148,4163.077148,3396.923096,4233.333496,0.000000,2.000000,,,,0.000000,4.000000,4.000000,4.000000,4.000000,4.000000,,,,,,,,,,,,,,,,,,,,,,,,,
1577535967.315231,50.000000,0.000000,4245.128418,4404.102539,4187.692383,3502.051270,4235.384766,0.000000,2.000000,,,,0.000000,4.000000,4.000000,4.000000,4.000000,4.000000,,,,,,,,,,,,,,,,,,,,,,,,,
1577535967.323025,51.000000,0.000000,4248.205078,4413.333496,4175.384766,3623.589844,4241.025879,0.000000,2.000000,,,,0.000000,4.000000,4.000000,4.000000,4.000000,4.000000,,,,,,,,,,,,,,,,,,,,,,,,,
1577535967.330720,52.000000,0.000000,4245.128418,4416.410156,4193.846191,3744.615479,4241.538574,0.000000,2.000000,,,,0.000000,4.000000,4.000000,4.000000,4.000000,4.000000,,,,,,,,,,,,,,,,,,,,,,,,,
1577535967.338414,53.000000,0.000000,4258.974121,4414.358887,4195.384766,3881.538574,4250.256348,0.000000,2.000000,,,,0.000000,4.000000,4.000000,4.000000,4.000000,4.000000,,,,,,,,,,,,,,,,,,,,,,,,,
1577535967.346209,54.000000,0.000000,4263.589844,4427.179688,4172.820313,3938.974365,4255.897461,0.000000,2.000000,,,,0.000000,4.000000,4.000000,4.000000,4.000000,4.000000,,,,,,,,,,,,,,,,,,,,,,,,,
1577535967.353904,55.000000,0.000000,4248.205078,4426.153809,4202.051270,3921.538574,4257.948730,0.000000,2.000000,,,,0.000000,4.000000,4.000000,4.000000,4.000000,4.000000,,,,,,,,,,,,,,,,,,,,,,,,,
1577535967.361699,56.000000,0.000000,4235.384766,4413.333496,4177.436035,3925.128174,4244.615234,0.000000,2.000000,,,,0.000000,4.000000,4.000000,4.000000,4.000000,4.000000,,,,,,,,,,,,,,,,,,,,,,,,,
1577535967.369394,57.000000,0.000000,4230.256348,4415.384766,4164.615234,3972.820557,4226.666504,0.000000,2.000000,,,,0.000000,4.000000,4.000000,4.000000,4.000000,4.000000,,,,,,,,,,,,,,,,,,,,,,,,,
1577535967.377189,58.000000,0.000000,4251.794922,4405.128418,4185.641113,4043.589844,4240.512695,0.000000,2.000000,,,,0.000000,4.000000,4.000000,4.000000,4.000000,4.000000,,,,,,,,,,,,,,,,,,,,,,,,,
1577535967.384884,59.000000,0.000000,4263.589844,4394.358887,4175.384766,4071.281982,4242.563965,0.000000,2.000000,,,,0.000000,4.000000,4.000000,4.000000,4.000000,4.000000,,,,,,,,,,,,,,,,,,,,,,,,,
1577535967.392679,60.000000,0.000000,4250.256348,4427.179688,4185.128418,4082.051270,4230.256348,0.000000,2.000000,,,,0.000000,4.000000,4.000000,4.000000,4.000000,4.000000,,,,,,,,,,,,,,,,,,,,,,,,,
1577535967.400374,61.000000,0.000000,4251.282227,4439.487305,4170.256348,4193.846191,4236.922852,0.000000,2.000000,,,,0.000000,4.000000,4.000000,4.000000,4.000000,4.000000,,,,,,,,,,,,,,,,,,,,,,,,,
1577535967.408169,62.000000,0.000000,4256.410156,4413.333496,4169.230957,4347.179688,4240.000000,0.000000,2.000000,,,,0.000000,4.000000,4.000000,4.000000,4.000000,4.000000,185.921890,14.977826,3.635603,1.439813,1.068689,5.630478,1.277957,3.941595,2.017510,3.185057,49.765152,4.915049,2.578925,0.822981,0.564731,27909.025391,16132.472656,3731.354980,557.090027,180.943634,171.222351,13.399813,2.805748,1.127809,0.747869
1577535967.415864,63.000000,0.000000,4252.307617,4409.743652,4180.000000,4375.384766,4228.717773,0.000000,2.000000,,,,0.000000,4.000000,4.000000,4.000000,4.000000,4.000000,,,,,,,,,,,,,,,,,,,,,,,,,
1577535967.423658,64.000000,0.000000,4254.871582,4428.205078,4168.717773,4384.615234,4231.794922,450.000000,2.000000,,,,0.000000,4.000000,4.000000,4.000000,4.000000,4.000000,,,,,,,,,,,,,,,,,,,,,,,,,
1577535967.431353,65.000000,0.000000,4271.282227,4425.641113,4205.128418,4542.563965,4254.871582,450.000000,2.000000,,,,0.000000,4.000000,4.000000,4.000000,4.000000,4.000000,,,,,,,,,,,,,,,,,,,,,,,,,
1577535967.439148,66.000000,0.000000,4280.512695,4406.153809,4188.205078,4698.461426,4257.436035,16209.000000,2.000000,,,,0.000000,4.000000,4.000000,4.000000,4.000000,4.000000,,,,,,,,,,,,,,,,,,,,,,,,,
1577535967.446843,67.000000,0.000000,4245.641113,4403.077148,4142.563965,4714.358887,4216.922852,450.000000,2.000000,,,,0.000000,4.000000,4.000000,4.000000,4.000000,4.000000,,,,,,,,,,,,,,,,,,,,,,,,,
1577535967.454638,68.000000,0.000000,4222.051270,4439.487305,4155.897461,4733.846191,4197.436035,16183.000000,2.000000,,,,0.000000,4.000000,4.000000,4.000000,4.000000,4.000000,,,,,,,,,,,,,,,,,,,,,,,,,
1577535967.462332,69.000000,0.000000,4243.589844,4444.102539,4145.128418,4782.051270,4213.846191,450.000000,2.000000,,,,0.000000,4.000000,4.000000,4.000000,4.000000,4.000000,,,,,,,,,,,,,,,,,,,,,,,,,
1577535967.470127,70.000000,0.000000,4247.692383,4397.436035,4150.769043,4755.897461,4217.436035,16120.000000,2.000000,,,,0.000000,4.000000,4.000000,4.000000,4.000000,4.000000,,,,,,,,,,,,,,,,,,,,,,,,,
1577535967.477822,71.000000,0.000000,4237.948730,4404.102539,4149.230957,4704.102539,4212.820313,450.000000,2.000000,,,,0.000000,4.000000,4.000000,4.000000,4.000000,4.000000,,,,,,,,,,,,,,,,,,,,,,,,,
1577535967.485517,72.000000,0.000000,4227.179688,4420.512695,4129.743652,4649.743652,4197.948730,450.000000,2.000000,,,,0.000000,4.000000,4.000000,4.000000,4.000000,4.000000,,,,,,,,,,,,,,,,,,,,,,,,,
1577535967.493312,73.000000,0.000000,4220.512695,4390.256348,4153.333496,4590.256348,4189.230957,16078.000000,2.000000,,,,0.000000,4.000000,4.000000,4.000000,4.000000,4.000000,,,,,,,,,,,,,,,,,,,,,,,,,
1577535967.501107,74.000000,0.000000,4230.256348,4391.282227,4149.230957,4504.615234,4198.461426,450.000000,2.000000,,,,0.000000,4.000000,4.000000,4.000000,4.000000,4.000000,,,,,,,,,,,,,,,,,,,,,,,,,
1577535967.508802,75.000000,0.000000,4232.820313,4409.743652,4157.948730,4430.769043,4195.897461,16209.000000,2.000000,,,,0.000000,4.000000,4.000000,4.000000,4.000000,4.000000,,,,,,,,,,,,,,,,,,,,,,,,,
1577535967.516596,76.000000,0.000000,4241.538574,4417.948730,4168.205078,4528.205078,4196.410156,450.000000,2.000000,,,,0.000000,4.000000,4.000000,4.000000,4.000000,4.000000,,,,,,,,,,,,,,,,,,,,,,,,,
1577535967.524291,77.000000,0.000000,4248.717773,4411.794922,4147.179688,4670.769043,4197.436035,450.000000,2.000000,,,,0.000000,4.000000,4.000000,4.000000,4.000000,4.000000,,,,,,,,,,,,,,,,,,,,,,,,,
1577535967.531986,78.000000,0.000000,4230.769043,4402.563965,4158.461426,4664.615234,4191.282227,450.000000,2.000000,,,,0.000000,4.000000,4.000000,4.000000,4.000000,4.000000,200.819580,16.827360,3.851640,1.355959,1.003026,5.543657,1.299656,3.635002,2.086198,3.016655,55.948208,5.444659,2.710151,0.762968,0.564659,30112.212891,13674.930664,2970.825928,383.158936,142.267624,188.663757,14.340284,3.057948,1.106908,0.723327
1577535967.539781,79.000000,0.000000,4216.922852,4415.384766,4136.922852,4641.538574,4186.666504,16209.000000,2.000000,,,,0.000000,4.000000,4.000000,4.000000,4.000000,4.000000,,,,,,,,,,,,,,,,,,,,,,,,,
