title:lo, start timestamp:2019-12-28T15:15:18.039737+03:00, stop timestamp:2019-12-28T15:16:19.683128+03:00, headset type:INSIGHT, headset serial:A2D200FB, headset firmware:930, subject name:Qasim, channels:44, sampling rate:eeg_128;pow_8, samples:7911      , version:2.0
Timestamp,EEG.Counter,EEG.Interpolated,EEG.AF3,EEG.T7,EEG.Pz,EEG.T8,EEG.AF4,EEG.RawCq,EEG.Battery,MarkerIndex,MarkerType,MarkerValueInt,EEG.MarkerHardware,CQ.AF3,CQ.T7,CQ.Pz,CQ.T8,CQ.AF4,POW.AF3.Theta,POW.AF3.Alpha,POW.AF3.BetaL,POW.AF3.BetaH,POW.AF3.Gamma,POW.T7.Theta,POW.T7.Alpha,POW.T7.BetaL,POW.T7.BetaH,POW.T7.Gamma,POW.Pz.Theta,POW.Pz.Alpha,POW.Pz.BetaL,POW.Pz.BetaH,POW.Pz.Gamma,POW.T8.Theta,POW.T8.Alpha,POW.T8.BetaL,POW.T8.BetaH,POW.T8.Gamma,POW.AF4.Theta,POW.AF4.Alpha,POW.AF4.BetaL,POW.AF4.BetaH,POW.AF4.Gamma
1577535318.039737,89.000000,0.000000,4227.179688,4473.846191,4153.846191,4180.512695,4190.769043,450.000000,2.000000,,,,0.000000,4.000000,4.000000,4.000000,4.000000,4.000000,,,,,,,,,,,,,,,,,,,,,,,,,
1577535318.047494,90.000000,1.000000,4225.299316,4476.922852,4152.763672,4180.341797,4190.028320,450.000000,2.000000,,,,0.000000,4.000000,4.000000,4.000000,4.000000,4.000000,,,,,,,,,,,,,,,,,,,,,,,,,
1577535318.055350,91.000000,1.000000,4223.418945,4480.000000,4151.681152,4180.170898,4189.287598,450.000000,2.000000,,,,0.000000,4.000000,4.000000,4.000000,4.000000,4.000000,,,,,,,,,,,,,,,,,,,,,,,,,
1577535318.063206,92.000000,1.000000,4221.538574,4483.077148,4150.598145,4180.000000,4188.546875,450.000000,2.000000,,,,0.000000,4.000000,4.000000,4.000000,4.000000,4.000000,,,,,,,,,,,,,,,,,,,,,,,,,
1577535318.071062,93.000000,1.000000,4219.658203,4486.153809,4149.515625,4179.829102,4187.806152,450.000000,2.000000,,,,0.000000,4.000000,4.000000,4.000000,4.000000,4.000000,,,,,,,,,,,,,,,,,,,,,,,,,
1577535318.078918,94.000000,1.000000,4217.777832,4489.230957,4148.433105,4179.658203,4187.065430,450.000000,2.000000,,,,0.000000,4.000000,4.000000,4.000000,4.000000,4.000000,,,,,,,,,,,,,,,,,,,,,,,,,
1577535318.086774,95.000000,1.000000,4215.897461,4492.307617,4147.350586,4179.487305,4186.324707,450.000000,2.000000,,,,0.000000,4.000000,4.000000,4.000000,4.000000,4.000000,,,,,,,,,,,,,,,,,,,,,,,,,
1577535318.094630,96.000000,1.000000,4214.017090,4495.384766,4146.267578,4179.316406,4185.583984,450.000000,2.000000,,,,0.000000,4.000000,4.000000,4.000000,4.000000,4.000000,,,,,,,,,,,,,,,,,,,,,,,,,
1577535318.102486,97.000000,1.000000,4212.136719,4498.461426,4145.185059,4179.145508,4184.843262,450.000000,2.000000,,,,0.000000,4.000000,4.000000,4.000000,4.000000,4.000000,,,,,,,,,,,,,,,,,,,,,,,,,
1577535318.110343,98.000000,0.000000,4210.256348,4501.538574,4144.102539,4178.974121,4184.102539,450.000000,2.000000,,,,0.000000,4.000000,4.000000,4.000000,4.000000,4.000000,,,,,,,,,,,,,,,,,,,,,,,,,
1577535318.118059,99.000000,0.000000,4213.333496,4525.128418,4136.922852,4163.077148,4181.025879,16225.000000,2.000000,,,,0.000000,4.000000,4.000000,4.000000,4.000000,4.000000,,,,,,,,,,,,,,,,,,,,,,,,,
1577535318.125875,100.000000,0.000000,4221.025879,4507.179688,4158.974121,4160.512695,4186.666504,450.000000,2.000000,,,,0.000000,4.000000,4.000000,4.000000,4.000000,4.000000,,,,,,,,,,,,,,,,,,,,,,,,,
1577535318.133691,101.000000,0.000000,4212.820313,4475.897461,4140.000000,4155.384766,4175.897461,450.000000,2.000000,,,,0.000000,4.000000,4.000000,4.000000,4.000000,4.000000,,,,,,,,,,,,,,,,,,,,,,,,,
1577535318.141507,102.000000,0.000000,4200.000000,4493.333496,4132.307617,4145.641113,4161.538574,450.000000,2.000000,,,,0.000000,4.000000,4.000000,4.000000,4.000000,4.000000,,,,,,,,,,,,,,,,,,,,,,,,,
1577535318.149222,103.000000,0.000000,4227.179688,4509.743652,4160.512695,4165.641113,4192.307617,16225.000000,2.000000,,,,0.000000,4.000000,4.000000,4.000000,4.000000,4.000000,,,,,,,,,,,,,,,,,,,,,,,,,
1577535318.156943,104.000000,0.000000,4263.077148,4487.179688,4177.436035,4188.717773,4224.102539,450.000000,2.000000,,,,0.000000,4.000000,4.000000,4.000000,4.000000,4.000000,3.685228,7.692061,3.716733,3.568182,3.426886,2.019005,1.487842,0.939027,1.019218,2.489954,1.623158,2.734284,1.136874,2.158538,1.722640,10.280609,4.550447,3.270786,2.642484,2.671956,3.588218,7.262539,3.075530,3.635127,2.885773
1577535318.164763,105.000000,0.000000,4255.897461,4482.051270,4169.743652,4178.974121,4209.743652,450.000000,2.000000,,,,0.000000,4.000000,4.000000,4.000000,4.000000,4.000000,,,,,,,,,,,,,,,,,,,,,,,,,
1577535318.172583,106.000000,0.000000,4246.666504,4504.102539,4156.922852,4169.230957,4198.461426,450.000000,2.000000,,,,0.000000,4.000000,4.000000,4.000000,4.000000,4.000000,,,,,,,,,,,,,,,,,,,,,,,,,
1577535318.180404,107.000000,0.000000,4247.179688,4507.179688,4163.077148,4169.230957,4201.538574,16225.000000,2.000000,,,,0.000000,4.000000,4.000000,4.000000,4.000000,4.000000,,,,,,,,,,,,,,,,,,,,,,,,,
1577535318.188224,108.000000,0.000000,4236.410156,4483.589844,4153.333496,4163.077148,4195.384766,450.000000,2.000000,,,,0.000000,4.000000,4.000000,4.000000,4.000000,4.000000,,,,,,,,,,,,,,,,,,,,,,,,,
1577535318.195927,109.000000,0.000000,4243.077148,4492.307617,4148.205078,4170.769043,4201.025879,450.000000,2.000000,,,,0.000000,4.000000,4.000000,4.000000,4.000000,4.000000,,,,,,,,,,,,,,,,,,,,,,,,,
1577535318.203731,110.000000,0.000000,4239.487305,4507.692383,4150.769043,4158.974121,4191.282227,450.000000,2.000000,,,,0.000000,4.000000,4.000000,4.000000,4.000000,4.000000,,,,,,,,,,,,,,,,,,,,,,,,,
1577535318.211433,111.000000,0.000000,4195.897461,4490.769043,4123.589844,4122.051270,4148.717773,16225.000000,2.000000,,,,0.000000,4.000000,4.000000,4.000000,4.000000,4.000000,,,,,,,,,,,,,,,,,,,,,,,,,
1577535318.219142,112.000000,0.000000,4189.743652,4491.282227,4134.871582,4134.358887,4143.589844,450.000000,2.000000,,,,0.000000,4.000000,4.000000,4.000000,4.000000,4.000000,,,,,,,,,,,,,,,,,,,,,,,,,
1577535318.226950,113.000000,0.000000,4238.461426,4515.384766,4168.205078,4176.922852,4185.128418,450.000000,2.000000,,,,0.000000,4.000000,4.000000,4.000000,4.000000,4.000000,,,,,,,,,,,,,,,,,,,,,,,,,
1577535318.234657,114.000000,0.000000,4244.102539,4496.410156,4157.948730,4169.743652,4186.666504,450.000000,2.000000,,,,0.000000,4.000000,4.000000,4.000000,4.000000,4.000000,,,,,,,,,,,,,,,,,,,,,,,,,
1577535318.242465,115.000000,0.000000,4223.589844,4478.974121,4161.025879,4159.487305,4174.358887,16225.000000,2.000000,,,,0.000000,4.000000,4.000000,4.000000,4.000000,4.000000,,,,,,,,,,,,,,,,,,,,,,,,,
1577535318.250172,116.000000,0.000000,4248.205078,4516.410156,4171.282227,4188.205078,4204.102539,450.000000,2.000000,,,,0.000000,4.000000,4.000000,4.000000,4.000000,4.000000,,,,,,,,,,,,,,,,,,,,,,,,,
1577535318.257979,117.000000,0.000000,4257.948730,4509.743652,4166.153809,4193.333496,4208.717773,450.000000,2.000000,,,,0.000000,4.000000,4.000000,4.000000,4.000000,4.000000,,,,,,,,,,,,,,,,,,,,,,,,,
1577535318.265685,118.000000,0.000000,4245.641113,4465.641113,4166.153809,4182.051270,4196.410156,450.000000,2.000000,,,,0.000000,4.000000,4.000000,4.000000,4.000000,4.000000,,,,,,,,,,,,,,,,,,,,,,,,,
1577535318.273492,119.000000,0.000000,4257.436035,4490.769043,4161.538574,4188.205078,4211.282227,16225.000000,2.000000,,,,0.000000,4.000000,4.000000,4.000000,4.000000,4.000000,,,,,,,,,,,,,,,,,,,,,,,,,
1577535318.281198,120.000000,0.000000,4258.974121,4523.077148,4151.794922,4180.512695,4203.077148,450.000000,2.000000,,,,0.000000,4.000000,4.000000,4.000000,4.000000,4.000000,4.994511,8.358755,3.104068,3.212625,3.105332,2.569716,1.666517,0.857104,1.071387,2.737185,1.598639,2.894016,1.097366,1.895057,1.575133,12.650163,5.175147,3.137295,2.584358,2.440332,4.531799,7.776261,2.654604,3.355960,2.619184
1577535318.289004,121.000000,0.000000,4253.846191,4492.820313,4143.589844,4174.871582,4189.230957,450.000000,2.000000,,,,0.000000,4.000000,4.000000,4.000000,4.000000,4.000000,,,,,,,,,,,,,,,,,,,,,,,,,
1577535318.296710,122.000000,0.000000,4261.025879,4477.436035,4155.897461,4182.563965,4200.512695,450.000000,2.000000,,,,0.000000,4.000000,4.000000,4.000000,4.000000,4.000000,,,,,,,,,,,,,,,,,,,,,,,,,
1577535318.304515,123.000000,0.000000,4245.641113,4489.743652,4153.333496,4171.282227,4183.589844,16225.000000,2.000000,,,,0.000000,4.000000,4.000000,4.000000,4.000000,4.000000,,,,,,,,,,,,,,,,,,,,,,,,,
1577535318.312221,124.000000,0.000000,4231.282227,4489.743652,4141.025879,4170.256348,4163.589844,450.000000,2.000000,,,,0.000000,4.000000,4.000000,4.000000,4.000000,4.000000,,,,,,,,,,,,,,,,,,,,,,,,,
1577535318.319953,125.000000,0.000000,4252.820313,4492.820313,4179.487305,4200.000000,4193.333496,450.000000,2.000000,,,,0.000000,4.000000,4.000000,4.000000,4.000000,4.000000,,,,,,,,,,,,,,,,,,,,,,,,,
1577535318.327689,126.000000,0.000000,4245.641113,4478.974121,4174.358887,4197.436035,4197.948730,450.000000,2.000000,,,,0.000000,4.000000,4.000000,4.000000,4.000000,4.000000,,,,,,,,,,,,,,,,,,,,,,,,,
1577535318.335525,127.000000,0.000000,4206.666504,4468.205078,4130.256348,4170.256348,4159.487305,230.000000,2.000000,,,,0.000000,4.000000,4.000000,4.000000,4.000000,4.000000,,,,,,,,,,,,,,,,,,,,,,,,,
1577535318.343361,0.000000,0.000000,4206.153809,4498.461426,4142.563965,4179.487305,4155.897461,450.000000,2.000000,,,,0.000000,4.000000,4.000000,4.000000,4.000000,4.000000,,,,,,,,,,,,,,,,,,,,,,,,,
1577535318.351092,1.000000,0.000000,4237.436035,4527.179688,4161.025879,4206.666504,4186.666504,450.000000,2.000000,,,,0.000000,4.000000,4.000000,4.000000,4.000000,4.000000,,,,,,,,,,,,,,,,,,,,,,,,,
1577535318.358923,2.000000,0.000000,4260.512695,4507.692383,4174.358887,4223.077148,4210.256348,16237.000000,2.000000,,,,0.000000,4.000000,4.000000,4.000000,4.000000,4.000000,,,,,,,,,,,,,,,,,,,,,,,,,
1577535318.366653,3.000000,0.000000,4278.461426,4492.820313,4184.615234,4230.256348,4228.205078,450.000000,2.000000,,,,0.000000,4.000000,4.000000,4.000000,4.000000,4.000000,,,,,,,,,,,,,,,,,,,,,,,,,
1577535318.374484,4.000000,0.000000,4271.794922,4503.077148,4165.641113,4206.666504,4216.410156,16107.000000,2.000000,,,,0.000000,4.000000,4.000000,4.000000,4.000000,4.000000,,,,,,,,,,,,,,,,,,,,,,,,,
1577535318.382214,5.000000,0.000000,4246.666504,4492.307617,4162.563965,4179.487305,4191.282227,450.000000,2.000000,,,,0.000000,4.000000,4.000000,4.000000,4.000000,4.000000,,,,,,,,,,,,,,,,,,,,,,,,,
1577535318.390044,6.000000,0.000000,4249.743652,4486.153809,4174.358887,4191.794922,4209.230957,16087.000000,2.000000,,,,0.000000,4.000000,4.000000,4.000000,4.000000,4.000000,,,,,,,,,,,,,,,,,,,,,,,,,
1577535318.397773,7.000000,0.000000,4250.769043,4503.589844,4171.282227,4195.384766,4214.358887,450.000000,2.000000,,,,0.000000,4.000000,4.000000,4.000000,4.000000,4.000000,,,,,,,,,,,,,,,,,,,,,,,,,
1577535318.405603,8.000000,0.000000,4234.871582,4504.615234,4156.410156,4181.538574,4192.820313,450.000000,2.000000,,,,0.000000,4.000000,4.000000,4.000000,4.000000,4.000000,7.126963,8.295689,2.565937,2.950997,2.721938,3.141213,1.889389,0.772068,1.150425,2.909665,1.666316,2.888584,1.141265,1.630618,1.436831,14.040228,5.579542,2.916620,2.519239,2.150651,5.793808,7.670687,2.402313,3.107239,2.335037
1577535318.413332,9.000000,0.000000,4244.615234,4497.948730,4163.077148,4194.358887,4206.666504,16143.000000,2.000000,,,,0.000000,4.000000,4.000000,4.000000,4.000000,4.000000,,,,,,,,,,,,,,,,,,,,,,,,,
1577535318.421161,10.000000,0.000000,4263.077148,4517.948730,4179.487305,4207.692383,4220.000000,450.000000,2.000000,,,,0.000000,4.000000,4.000000,4.000000,4.000000,4.000000,,,,,,,,,,,,,,,,,,,,,,,,,
1577535318.428889,11.000000,0.000000,4251.282227,4528.205078,4154.358887,4192.307617,4197.948730,16222.000000,2.000000,,,,0.000000,4.000000,4.000000,4.000000,4.000000,4.000000,,,,,,,,,,,,,,,,,,,,,,,,,
1577535318.436718,12.000000,0.000000,4233.846191,4509.743652,4143.077148,4177.436035,4184.615234,450.000000,2.000000,,,,0.000000,4.000000,4.000000,4.000000,4.000000,4.000000,,,,,,,,,,,,,,,,,,,,,,,,,
1577535318.444446,13.000000,0.000000,4243.077148,4509.230957,4161.538574,4187.692383,4195.897461,450.000000,2.000000,,,,0.000000,4.000000,4.000000,4.000000,4.000000,4.000000,,,,,,,,,,,,,,,,,,,,,,,,,
1577535318.452274,14.000000,0.000000,4244.615234,4497.436035,4147.179688,4193.333496,4189.743652,450.000000,2.000000,,,,0.000000,4.000000,4.000000,4.000000,4.000000,4.000000,,,,,,,,,,,,,,,,,,,,,,,,,
1577535318.460002,15.000000,0.000000,4220.512695,4486.153809,4138.461426,4181.025879,4168.717773,16222.000000,2.000000,,,,0.000000,4.000000,4.000000,4.000000,4.000000,4.000000,,,,,,,,,,,,,,,,,,,,,,,,,
1577535318.467734,16.000000,0.000000,4238.461426,4513.333496,4161.025879,4197.948730,4195.384766,0.000000,2.000000,,,,0.000000,4.000000,4.000000,4.000000,4.000000,4.000000,,,,,,,,,,,,,,,,,,,,,,,,,
1577535318.475567,17.000000,0.000000,4254.871582,4491.794922,4166.153809,4202.563965,4209.743652,0.000000,2.000000,,,,0.000000,4.000000,4.000000,4.000000,4.000000,4.000000,,,,,,,,,,,,,,,,,,,,,,,,,
1577535318.483299,18.000000,0.000000,4205.128418,4442.563965,4136.922852,4155.897461,4157.436035,0.000000,2.000000,,,,0.000000,4.000000,4.000000,4.000000,4.000000,4.000000,,,,,,,,,,,,,,,,,,,,,,,,,
1577535318.491130,19.000000,0.000000,4202.051270,4486.153809,4133.333496,4156.922852,4155.384766,0.000000,2.000000,,,,0.000000,4.000000,4.000000,4.000000,4.000000,4.000000,,,,,,,,,,,,,,,,,,,,,,,,,
1577535318.498862,20.000000,0.000000,4253.846191,4538.461426,4167.179688,4196.922852,4204.102539,0.000000,2.000000,,,,0.000000,4.000000,4.000000,4.000000,4.000000,4.000000,,,,,,,,,,,,,,,,,,,,,,,,,
1577535318.506693,21.000000,0.000000,4245.641113,4494.871582,4152.307617,4183.077148,4197.948730,0.000000,2.000000,,,,0.000000,4.000000,4.000000,4.000000,4.000000,4.000000,,,,,,,,,,,,,,,,,,,,,,,,,
1577535318.514424,22.000000,0.000000,4230.769043,4457.436035,4134.871582,4166.666504,4179.487305,0.000000,2.000000,,,,0.000000,4.000000,4.000000,4.000000,4.000000,4.000000,,,,,,,,,,,,,,,,,,,,,,,,,
1577535318.522255,23.000000,0.000000,4253.333496,4498.461426,4155.384766,4175.384766,4193.846191,0.000000,2.000000,,,,0.000000,4.000000,4.000000,4.000000,4.000000,4.000000,,,,,,,,,,,,,,,,,,,,,,,,,
1577535318.529986,24.000000,0.000000,4255.384766,4528.717773,4148.717773,4165.641113,4202.051270,0.000000,2.000000,,,,0.000000,4.000000,4.000000,4.000000,4.000000,4.000000,9.762958,7.644770,2.254415,2.729229,2.356055,3.531026,2.130374,0.715824,1.230918,2.917309,1.844486,2.760570,1.339207,1.388970,1.317816,14.186817,5.630813,2.659009,2.385324,1.859295,7.206858,7.103653,2.414218,2.862157,2.078843
1577535318.537817,25.000000,0.000000,4254.871582,4500.512695,4155.384766,4165.128418,4206.666504,0.000000,2.000000,,,,0.000000,4.000000,4.000000,4.000000,4.000000,4.000000,,,,,,,,,,,,,,,,,,,,,,,,,
1577535318.545547,26.000000,0.000000,4268.717773,4478.461426,4165.128418,4176.922852,4215.897461,0.000000,2.000000,,,,0.000000,4.000000,4.000000,4.000000,4.000000,4.000000,,,,,,,,,,,,,,,,,,,,,,,,,
1577535318.553378,27.000000,0.000000,4244.102539,4504.615234,4137.948730,4164.615234,4186.153809,0.000000,2.000000,,,,0.000000,4.000000,4.000000,4.000000,4.000000,4.000000,,,,,,,,,,,,,,,,,,,,,,,,,
1577535318.561208,28.000000,0.000000,4209.230957,4509.743652,4128.205078,4157.436035,4150.256348,0.000000,2.000000,,,,0.000000,4.000000,4.000000,4.000000,4.000000,4.000000,,,,,,,,,,,,,,,,,,,,,,,,,
1577535318.568933,29.000000,0.000000,4216.410156,4487.179688,4130.256348,4168.717773,4160.000000,0.000000,2.000000,,,,0.000000,4.000000,4.000000,4.000000,4.000000,4.000000,,,,,,,,,,,,,,,,,,,,,,,,,
1577535318.576662,30.000000,0.000000,4231.794922,4487.692383,4142.563965,4180.512695,4174.871582,0.000000,2.000000,,,,0.000000,4.000000,4.000000,4.000000,4.000000,4.000000,,,,,,,,,,,,,,,,,,,,,,,,,
1577535318.584396,31.000000,0.000000,4228.205078,4503.589844,4155.384766,4184.102539,4175.384766,0.000000,2.000000,,,,0.000000,4.000000,4.000000,4.000000,4.000000,4.000000,,,,,,,,,,,,,,,,,,,,,,,,,
1577535318.592230,32.000000,0.000000,4230.769043,4505.641113,4154.358887,4184.615234,4177.948730,0.000000,2.000000,,,,0.000000,4.000000,4.000000,4.000000,4.000000,4.000000,,,,,,,,,,,,,,,,,,,,,,,,,
1577535318.600065,33.000000,0.000000,4246.153809,4498.974121,4164.102539,4187.692383,4186.153809,0.000000,2.000000,,,,0.000000,4.000000,4.000000,4.000000,4.000000,4.000000,,,,,,,,,,,,,,,,,,,,,,,,,
1577535318.607793,34.000000,0.000000,4220.000000,4500.512695,4137.436035,4162.051270,4170.256348,0.000000,2.000000,,,,0.000000,4.000000,4.000000,4.000000,4.000000,4.000000,,,,,,,,,,,,,,,,,,,,,,,,,
1577535318.615621,35.000000,0.000000,4138.974121,4503.589844,4086.153809,4108.205078,4105.128418,0.000000,2.000000,,,,0.000000,4.000000,4.000000,4.000000,4.000000,4.000000,,,,,,,,,,,,,,,,,,,,,,,,,
1577535318.623349,36.000000,0.000000,4137.948730,4498.974121,4100.512695,4110.256348,4096.922852,0.000000,2.000000,,,,0.000000,4.000000,4.000000,4.000000,4.000000,4.000000,,,,,,,,,,,,,,,,,,,,,,,,,
1577535318.631177,37.000000,0.000000,4255.897461,4484.615234,4155.897461,4174.871582,4197.436035,0.000000,2.000000,,,,0.000000,4.000000,4.000000,4.000000,4.000000,4.000000,,,,,,,,,,,,,,,,,,,,,,,,,
1577535318.638904,38.000000,0.000000,4337.436035,4484.102539,4174.871582,4205.128418,4263.589844,0.000000,2.000000,,,,0.000000,4.000000,4.000000,4.000000,4.000000,4.000000,,,,,,,,,,,,,,,,,,,,,,,,,
1577535318.646731,39.000000,0.000000,4346.666504,4511.794922,4153.846191,4187.179688,4260.512695,0.000000,2.000000,,,,0.000000,4.000000,4.000000,4.000000,4.000000,4.000000,,,,,,,,,,,,,,,,,,,,,,,,,
1577535318.654458,40.000000,0.000000,4363.589844,4514.871582,4145.128418,4168.205078,4266.666504,0.000000,2.000000,,,,0.000000,4.000000,4.000000,4.000000,4.000000,4.000000,12.384148,6.844266,2.193517,2.526731,2.079927,3.597311,2.354136,0.718121,1.280766,2.769922,2.126098,2.610119,1.690040,1.205184,1.230424,13.080560,5.355662,2.411721,2.178256,1.621034,8.591986,6.491121,2.640712,2.627763,1.897420
1577535318.662285,41.000000,0.000000,4385.641113,4481.025879,4143.589844,4157.948730,4275.897461,0.000000,2.000000,,,,0.000000,4.000000,4.000000,4.000000,4.000000,4.000000,,,,,,,,,,,,,,,,,,,,,,,,,
1577535318.670011,42.000000,0.000000,4421.538574,4475.384766,4147.692383,4170.256348,4300.000000,0.000000,2.000000,,,,0.000000,4.000000,4.000000,4.000000,4.000000,4.000000,,,,,,,,,,,,,,,,,,,,,,,,,
1577535318.677837,43.000000,0.000000,4453.846191,4512.307617,4166.153809,4174.358887,4325.641113,0.000000,2.000000,,,,0.000000,4.000000,4.000000,4.000000,4.000000,4.000000,,,,,,,,,,,,,,,,,,,,,,,,,
1577535318.685563,44.000000,0.000000,4434.358887,4524.102539,4139.487305,4134.871582,4309.743652,0.000000,2.000000,,,,0.000000,4.000000,4.000000,4.000000,4.000000,4.000000,,,,,,,,,,,,,,,,,,,,,,,,,
1577535318.693388,45.000000,0.000000,4414.358887,4499.487305,4113.333496,4101.025879,4291.282227,0.000000,2.000000,,,,0.000000,4.000000,4.000000,4.000000,4.000000,4.000000,,,,,,,,,,,,,,,,,,,,,,,,,
1577535318.701114,46.000000,0.000000,4437.948730,4480.512695,4136.410156,4108.717773,4302.563965,0.000000,2.000000,,,,0.000000,4.000000,4.000000,4.000000,4.000000,4.000000,,,,,,,,,,,,,,,,,,,,,,,,,
1577535318.708939,47.000000,0.000000,4414.871582,4479.487305,4110.769043,4090.769287,4281.538574,0.000000,2.000000,,,,0.000000,4.000000,4.000000,4.000000,4.000000,4.000000,,,,,,,,,,,,,,,,,,,,,,,,,
1577535318.716664,48.000000,0.000000,4376.922852,4484.615234,4094.358887,4066.666748,4250.769043,0.000000,2.000000,,,,0.000000,4.000000,4.000000,4.000000,4.000000,4.000000,,,,,,,,,,,,,,,,,,,,,,,,,
1577535318.724394,49.000000,0.000000,4442.563965,4496.922852,4150.769043,4117.436035,4308.205078,0.000000,2.000000,,,,0.000000,4.000000,4.000000,4.000000,4.000000,4.000000,,,,,,,,,,,,,,,,,,,,,,,,,
1577535318.732224,50.000000,0.000000,4510.256348,4515.384766,4182.051270,4160.000000,4365.128418,0.000000,2.000000,,,,0.000000,4.000000,4.000000,4.000000,4.000000,4.000000,,,,,,,,,,,,,,,,,,,,,,,,,
1577535318.740054,51.000000,0.000000,4488.717773,4519.487305,4162.563965,4138.974121,4338.974121,0.000000,2.000000,,,,0.000000,4.000000,4.000000,4.000000,4.000000,4.000000,,,,,,,,,,,,,,,,,,,,,,,,,
1577535318.747779,52.000000,0.000000,4452.820313,4492.820313,4133.846191,4123.077148,4307.179688,0.000000,2.000000,,,,0.000000,4.000000,4.000000,4.000000,4.000000,4.000000,,,,,,,,,,,,,,,,,,,,,,,,,
1577535318.755508,53.000000,0.000000,4450.256348,4477.436035,4138.461426,4130.256348,4301.538574,0.000000,2.000000,,,,0.000000,4.000000,4.000000,4.000000,4.000000,4.000000,,,,,,,,,,,,,,,,,,,,,,,,,
1577535318.763338,54.000000,0.000000,4448.717773,4495.384766,4143.589844,4131.282227,4295.384766,0.000000,2.000000,,,,0.000000,4.000000,4.000000,4.000000,4.000000,4.000000,,,,,,,,,,,,,,,,,,,,,,,,,
1577535318.771066,55.000000,0.000000,4422.051270,4490.769043,4124.102539,4127.692383,4286.666504,0.000000,2.000000,,,,0.000000,4.000000,4.000000,4.000000,4.000000,4.000000,,,,,,,,,,,,,,,,,,,,,,,,,
1577535318.778895,56.000000,0.000000,4390.256348,4463.077148,4118.974121,4126.153809,4267.692383,0.000000,2.000000,,,,0.000000,4.000000,4.000000,4.000000,4.000000,4.000000,14.480904,6.339792,2.344517,2.360313,1.936581,3.331511,2.528519,0.799802,1.272961,2.569217,2.442970,2.501314,2.098592,1.099718,1.189706,11.104501,4.874387,2.244097,1.946697,1.471919,9.726993,6.197814,2.927806,2.427571,1.825098
1577535318.786624,57.000000,0.000000,4384.102539,4467.179688,4123.589844,4123.077148,4252.307617,0.000000,2.000000,,,,0.000000,4.000000,4.000000,4.000000,4.000000,4.000000,,,,,,,,,,,,,,,,,,,,,,,,,
1577535318.794452,58.000000,0.000000,4389.230957,4485.641113,4138.974121,4135.897461,4258.461426,0.000000,2.000000,,,,0.000000,4.000000,4.000000,4.000000,4.000000,4.000000,,,,,,,,,,,,,,,,,,,,,,,,,
1577535318.802180,59.000000,0.000000,4365.641113,4499.487305,4140.000000,4140.512695,4243.589844,0.000000,2.000000,,,,0.000000,4.000000,4.000000,4.000000,4.000000,4.000000,,,,,,,,,,,,,,,,,,,,,,,,,
1577535318.810007,60.000000,0.000000,4327.179688,4501.025879,4128.717773,4114.871582,4210.256348,0.000000,2.000000,,,,0.000000,4.000000,4.000000,4.000000,4.000000,4.000000,,,,,,,,,,,,,,,,,,,,,,,,,
1577535318.817735,61.000000,0.000000,4294.871582,4494.358887,4137.948730,4095.384521,4192.307617,0.000000,2.000000,,,,0.000000,4.000000,4.000000,4.000000,4.000000,4.000000,,,,,,,,,,,,,,,,,,,,,,,,,
1577535318.825562,62.000000,0.000000,4287.179688,4501.025879,4137.948730,4110.256348,4191.282227,0.000000,2.000000,,,,0.000000,4.000000,4.000000,4.000000,4.000000,4.000000,,,,,,,,,,,,,,,,,,,,,,,,,
1577535318.833389,63.000000,0.000000,4283.589844,4514.871582,4136.922852,4129.743652,4187.179688,0.000000,2.000000,,,,0.000000,4.000000,4.000000,4.000000,4.000000,4.000000,,,,,,,,,,,,,,,,,,,,,,,,,
1577535318.841111,64.000000,0.000000,4260.512695,4514.358887,4143.589844,4140.000000,4175.384766,450.000000,2.000000,,,,0.000000,4.000000,4.000000,4.000000,4.000000,4.000000,,,,,,,,,,,,,,,,,,,,,,,,,
1577535318.848837,65.000000,0.000000,4227.179688,4482.051270,4119.487305,4141.025879,4157.948730,450.000000,2.000000,,,,0.000000,4.000000,4.000000,4.000000,4.000000,4.000000,,,,,,,,,,,,,,,,,,,,,,,,,
1577535318.856568,66.000000,0.000000,4203.589844,4462.051270,4109.743652,4143.589844,4136.922852,16237.000000,2.000000,,,,0.000000,4.000000,4.000000,4.000000,4.000000,4.000000,,,,,,,,,,,,,,,,,,,,,,,,,
1577535318.864399,67.000000,0.000000,4223.077148,4487.179688,4134.871582,4173.846191,4155.384766,450.000000,2.000000,,,,0.000000,4.000000,4.000000,4.000000,4.000000,4.000000,,,,,,,,,,,,,,,,,,,,,,,,,
1577535318.872130,68.000000,0.000000,4228.205078,4509.743652,4144.102539,4190.769043,4167.179688,16101.000000,2.000000,,,,0.000000,4.000000,4.000000,4.000000,4.000000,4.000000,,,,,,,,,,,,,,,,,,,,,,,,,
1577535318.879961,69.000000,0.000000,4189.743652,4503.589844,4139.487305,4177.436035,4132.307617,450.000000,2.000000,,,,0.000000,4.000000,4.000000,4.000000,4.000000,4.000000,,,,,,,,,,,,,,,,,,,,,,,,,
1577535318.887691,70.000000,0.000000,4191.282227,4486.666504,4152.307617,4188.205078,4141.538574,16095.000000,2.000000,,,,0.000000,4.000000,4.000000,4.000000,4.000000,4.000000,,,,,,,,,,,,,,,,,,,,,,,,,
1577535318.895522,71.000000,0.000000,4230.256348,4492.307617,4184.102539,4210.769043,4186.666504,450.000000,2.000000,,,,0.000000,4.000000,4.000000,4.000000,4.000000,4.000000,,,,,,,,,,,,,,,,,,,,,,,,,
1577535318.903251,72.000000,0.000000,4241.025879,4511.794922,4193.846191,4219.487305,4195.384766,450.000000,2.000000,,,,0.000000,4.000000,4.000000,4.000000,4.000000,4.000000,16.295502,6.451862,2.805958,2.361018,1.937033,2.853899,2.614552,0.970861,1.196617,2.446698,2.702919,2.452435,2.481040,1.110573,1.206754,8.589111,4.391544,2.305794,1.808399,1.420066,10.700769,6.360583,3.250061,2.368502,1.871540
1577535318.911081,73.000000,0.000000,4218.461426,4500.000000,4176.922852,4211.794922,4182.563965,16152.000000,2.000000,,,,0.000000,4.000000,4.000000,4.000000,4.000000,4.000000,,,,,,,,,,,,,,,,,,,,,,,,,
1577535318.918810,74.000000,0.000000,4187.179688,4466.666504,4160.000000,4192.307617,4164.615234,450.000000,2.000000,,,,0.000000,4.000000,4.000000,4.000000,4.000000,4.000000,,,,,,,,,,,,,,,,,,,,,,,,,
1577535318.926640,75.000000,0.000000,4172.307617,4491.282227,4146.153809,4189.743652,4149.743652,16227.000000,2.000000,,,,0.000000,4.000000,4.000000,4.000000,4.000000,4.000000,,,,,,,,,,,,,,,,,,,,,,,,,
1577535318.934368,76.000000,0.000000,4183.077148,4534.358887,4164.615234,4214.871582,4156.922852,450.000000,2.000000,,,,0.000000,4.000000,4.000000,4.000000,4.000000,4.000000,,,,,,,,,,,,,,,,,,,,,,,,,
1577535318.942197,77.000000,0.000000,4185.641113,4497.436035,4175.897461,4224.102539,4160.512695,450.000000,2.000000,,,,0.000000,4.000000,4.000000,4.000000,4.000000,4.000000,,,,,,,,,,,,,,,,,,,,,,,,,
1577535318.950026,78.000000,0.000000,4166.153809,4472.820313,4164.102539,4196.410156,4149.743652,450.000000,2.000000,,,,0.000000,4.000000,4.000000,4.000000,4.000000,4.000000,,,,,,,,,,,,,,,,,,,,,,,,,
1577535318.957749,79.000000,0.000000,4160.000000,4515.384766,4172.820313,4171.794922,4144.102539,16227.000000,2.000000,,,,0.000000,4.000000,4.000000,4.000000,4.000000,4.000000,,,,,,,,,,,,,,,,,,,,,,,,,
1577535318.965477,80.000000,0.000000,4165.641113,4527.692383,4165.641113,4170.256348,4144.102539,450.000000,2.000000,,,,0.000000,4.000000,4.000000,4.000000,4.000000,4.000000,,,,,,,,,,,,,,,,,,,,,,,,,
1577535318.973305,81.000000,0.000000,4160.512695,4499.487305,4167.179688,4176.922852,4147.179688,450.000000,2.000000,,,,0.000000,4.000000,4.000000,4.000000,4.000000,4.000000,,,,,,,,,,,,,,,,,,,,,,,,,
1577535318.981032,82.000000,0.000000,4154.871582,4490.256348,4185.641113,4175.897461,4145.128418,450.000000,2.000000,,,,0.000000,4.000000,4.000000,4.000000,4.000000,4.000000,,,,,,,,,,,,,,,,,,,,,,,,,
1577535318.988860,83.000000,0.000000,4148.717773,4486.666504,4164.102539,4154.871582,4131.794922,16227.000000,2.000000,,,,0.000000,4.000000,4.000000,4.000000,4.000000,4.000000,,,,,,,,,,,,,,,,,,,,,,,,,
1577535318.996587,84.000000,0.000000,4145.128418,4485.641113,4158.461426,4151.282227,4128.717773,450.000000,2.000000,,,,0.000000,4.000000,4.000000,4.000000,4.000000,4.000000,,,,,,,,,,,,,,,,,,,,,,,,,
1577535319.004414,85.000000,0.000000,4144.615234,4487.179688,4165.641113,4164.615234,4131.794922,450.000000,2.000000,,,,0.000000,4.000000,4.000000,4.000000,4.000000,4.000000,,,,,,,,,,,,,,,,,,,,,,,,,
1577535319.012241,86.000000,0.000000,4141.538574,4461.538574,4151.794922,4154.871582,4126.666504,450.000000,2.000000,,,,0.000000,4.000000,4.000000,4.000000,4.000000,4.000000,,,,,,,,,,,,,,,,,,,,,,,,,
1577535319.019962,87.000000,0.000000,4152.820313,4461.538574,4155.897461,4156.410156,4130.769043,16227.000000,2.000000,,,,0.000000,4.000000,4.000000,4.000000,4.000000,4.000000,,,,,,,,,,,,,,,,,,,,,,,,,
1577535319.027784,88.000000,0.000000,4165.128418,4511.282227,4179.487305,4177.436035,4142.051270,450.000000,2.000000,,,,0.000000,4.000000,4.000000,4.000000,4.000000,4.000000,19.430754,7.541534,3.758071,2.692267,2.087728,2.337544,2.572495,1.233674,1.072341,2.491352,2.813640,2.466221,2.812488,1.275477,1.286395,6.182497,4.193598,2.677420,1.873942,1.458737,12.275870,7.061480,3.689595,2.584289,2.033030
1577535319.035505,89.000000,0.000000,4173.333496,4517.948730,4209.230957,4192.820313,4144.102539,450.000000,2.000000,,,,0.000000,4.000000,4.000000,4.000000,4.000000,4.000000,,,,,,,,,,,,,,,,,,,,,,,,,
1577535319.043232,90.000000,0.000000,4181.025879,4477.436035,4198.461426,4193.333496,4147.692383,450.000000,2.000000,,,,0.000000,4.000000,4.000000,4.000000,4.000000,4.000000,,,,,,,,,,,,,,,,,,,,,,,,,
1577535319.050962,91.000000,0.000000,4163.077148,4486.153809,4168.205078,4165.128418,4144.102539,16227.000000,2.000000,,,,0.000000,4.000000,4.000000,4.000000,4.000000,4.000000,,,,,,,,,,,,,,,,,,,,,,,,,
1577535319.058793,92.000000,0.000000,4132.820313,4509.743652,4168.717773,4120.512695,4122.051270,450.000000,2.000000,,,,0.000000,4.000000,4.000000,4.000000,4.000000,4.000000,,,,,,,,,,,,,,,,,,,,,,,,,
1577535319.066624,93.000000,0.000000,4132.820313,4495.897461,4162.563965,4096.410156,4118.461426,450.000000,2.000000,,,,0.000000,4.000000,4.000000,4.000000,4.000000,4.000000,,,,,,,,,,,,,,,,,,,,,,,,,
1577535319.074350,94.000000,0.000000,4156.922852,4483.077148,4152.307617,4088.718018,4149.230957,450.000000,2.000000,,,,0.000000,4.000000,4.000000,4.000000,4.000000,4.000000,,,,,,,,,,,,,,,,,,,,,,,,,
1577535319.082175,95.000000,0.000000,4143.077148,4482.563965,4124.102539,4047.179443,4136.410156,16227.000000,2.000000,,,,0.000000,4.000000,4.000000,4.000000,4.000000,4.000000,,,,,,,,,,,,,,,,,,,,,,,,,
1577535319.089900,96.000000,0.000000,4090.769287,4488.205078,4097.436035,3982.051270,4075.384521,450.000000,2.000000,,,,0.000000,4.000000,4.000000,4.000000,4.000000,4.000000,,,,,,,,,,,,,,,,,,,,,,,,,
1577535319.097725,97.000000,0.000000,4083.589844,4492.307617,4115.384766,3973.846191,4068.205078,450.000000,2.000000,,,,0.000000,4.000000,4.000000,4.000000,4.000000,4.000000,,,,,,,,,,,,,,,,,,,,,,,,,
1577535319.105449,98.000000,0.000000,4131.794922,4489.743652,4123.589844,4025.128174,4114.358887,450.000000,2.000000,,,,0.000000,4.000000,4.000000,4.000000,4.000000,4.000000,,,,,,,,,,,,,,,,,,,,,,,,,
1577535319.113274,99.000000,0.000000,4162.563965,4502.051270,4135.384766,4068.718018,4142.051270,16227.000000,2.000000,,,,0.000000,4.000000,4.000000,4.000000,4.000000,4.000000,,,,,,,,,,,,,,,,,,,,,,,,,
1577535319.120998,100.000000,0.000000,4158.461426,4514.358887,4154.358887,4083.589844,4143.589844,450.000000,2.000000,,,,0.000000,4.000000,4.000000,4.000000,4.000000,4.000000,,,,,,,,,,,,,,,,,,,,,,,,,
1577535319.128822,101.000000,0.000000,4161.025879,4501.538574,4147.692383,4094.358887,4151.794922,450.000000,2.000000,,,,0.000000,4.000000,4.000000,4.000000,4.000000,4.000000,,,,,,,,,,,,,,,,,,,,,,,,,
1577535319.136545,102.000000,0.000000,4184.615234,4510.769043,4156.410156,4124.102539,4174.358887,450.000000,2.000000,,,,0.000000,4.000000,4.000000,4.000000,4.000000,4.000000,,,,,,,,,,,,,,,,,,,,,,,,,
1577535319.144274,103.000000,0.000000,4222.563965,4527.179688,4169.230957,4159.487305,4203.589844,16227.000000,2.000000,,,,0.000000,4.000000,4.000000,4.000000,4.000000,4.000000,,,,,,,,,,,,,,,,,,,,,,,,,
1577535319.152102,104.000000,0.000000,4222.051270,4495.384766,4163.077148,4135.384766,4208.205078,450.000000,2.000000,,,,0.000000,4.000000,4.000000,4.000000,4.000000,4.000000,25.418797,9.709150,5.275169,3.450327,2.392334,1.925337,2.385999,1.570012,0.940788,2.708490,2.768399,2.519381,3.138125,1.617433,1.421458,4.399718,4.504098,3.299771,2.190225,1.574704,15.290496,8.181300,4.314480,3.162913,2.291450
1577535319.159830,105.000000,0.000000,4190.256348,4481.025879,4156.922852,4080.512939,4182.563965,450.000000,2.000000,,,,0.000000,4.000000,4.000000,4.000000,4.000000,4.000000,,,,,,,,,,,,,,,,,,,,,,,,,
1577535319.167658,106.000000,0.000000,4200.000000,4510.769043,4160.512695,4094.358887,4186.666504,450.000000,2.000000,,,,0.000000,4.000000,4.000000,4.000000,4.000000,4.000000,,,,,,,,,,,,,,,,,,,,,,,,,
1577535319.175385,107.000000,0.000000,4212.307617,4508.205078,4161.538574,4113.846191,4197.948730,16227.000000,2.000000,,,,0.000000,4.000000,4.000000,4.000000,4.000000,4.000000,,,,,,,,,,,,,,,,,,,,,,,,,
1577535319.183212,108.000000,0.000000,4177.436035,4461.538574,4127.692383,4065.641113,4168.717773,450.000000,2.000000,,,,0.000000,4.000000,4.000000,4.000000,4.000000,4.000000,,,,,,,,,,,,,,,,,,,,,,,,,
1577535319.190939,109.000000,0.000000,4152.307617,4464.615234,4106.666504,4028.205078,4147.179688,450.000000,2.000000,,,,0.000000,4.000000,4.000000,4.000000,4.000000,4.000000,,,,,,,,,,,,,,,,,,,,,,,,,
1577535319.198767,110.000000,0.000000,4178.974121,4515.384766,4132.820313,4044.102539,4164.102539,450.000000,2.000000,,,,0.000000,4.000000,4.000000,4.000000,4.000000,4.000000,,,,,,,,,,,,,,,,,,,,,,,,,
1577535319.206493,111.000000,0.000000,4222.563965,4521.025879,4133.333496,4052.820557,4196.410156,16227.000000,2.000000,,,,0.000000,4.000000,4.000000,4.000000,4.000000,4.000000,,,,,,,,,,,,,,,,,,,,,,,,,
1577535319.214319,112.000000,0.000000,4229.230957,4495.897461,4121.025879,4029.230713,4200.512695,450.000000,2.000000,,,,0.000000,4.000000,4.000000,4.000000,4.000000,4.000000,,,,,,,,,,,,,,,,,,,,,,,,,
1577535319.222045,113.000000,0.000000,4202.051270,4488.717773,4129.230957,4015.384521,4176.922852,450.000000,2.000000,,,,0.000000,4.000000,4.000000,4.000000,4.000000,4.000000,,,,,,,,,,,,,,,,,,,,,,,,,
1577535319.229871,114.000000,0.000000,4198.974121,4475.384766,4141.538574,4014.871826,4181.538574,450.000000,2.000000,,,,0.000000,4.000000,4.000000,4.000000,4.000000,4.000000,,,,,,,,,,,,,,,,,,,,,,,,,
1577535319.237597,115.000000,0.000000,4251.282227,4484.615234,4160.000000,4010.769287,4220.000000,16227.000000,2.000000,,,,0.000000,4.000000,4.000000,4.000000,4.000000,4.000000,,,,,,,,,,,,,,,,,,,,,,,,,
1577535319.245422,116.000000,0.000000,4268.205078,4500.512695,4142.051270,4002.564209,4222.563965,450.000000,2.000000,,,,0.000000,4.000000,4.000000,4.000000,4.000000,4.000000,,,,,,,,,,,,,,,,,,,,,,,,,
1577535319.253147,117.000000,0.000000,4240.512695,4486.153809,4126.153809,3994.358887,4206.666504,450.000000,2.000000,,,,0.000000,4.000000,4.000000,4.000000,4.000000,4.000000,,,,,,,,,,,,,,,,,,,,,,,,,
1577535319.260972,118.000000,0.000000,4297.436035,4488.205078,4158.461426,3994.358887,4258.461426,450.000000,2.000000,,,,0.000000,4.000000,4.000000,4.000000,4.000000,4.000000,,,,,,,,,,,,,,,,,,,,,,,,,
1577535319.268697,119.000000,0.000000,4377.436035,4501.025879,4172.307617,3995.897461,4311.794922,16227.000000,2.000000,,,,0.000000,4.000000,4.000000,4.000000,4.000000,4.000000,,,,,,,,,,,,,,,,,,,,,,,,,
1577535319.276521,120.000000,0.000000,4378.461426,4507.692383,4162.051270,4012.820557,4298.461426,450.000000,2.000000,,,,0.000000,4.000000,4.000000,4.000000,4.000000,4.000000,34.752586,12.710899,7.226742,4.543423,2.820415,1.683245,2.071924,1.945122,0.840255,3.029982,2.668083,2.598699,3.582432,2.099739,1.584682,3.810981,5.416363,4.010561,2.687997,1.746385,20.286003,9.514780,5.124151,4.040014,2.600124
1577535319.284246,121.000000,0.000000,4386.153809,4504.102539,4153.846191,4038.461426,4301.025879,450.000000,2.000000,,,,0.000000,4.000000,4.000000,4.000000,4.000000,4.000000,,,,,,,,,,,,,,,,,,,,,,,,,
1577535319.291976,122.000000,0.000000,4447.179688,4503.589844,4181.538574,4054.358887,4354.358887,450.000000,2.000000,,,,0.000000,4.000000,4.000000,4.000000,4.000000,4.000000,,,,,,,,,,,,,,,,,,,,,,,,,
1577535319.299806,123.000000,0.000000,4496.922852,4526.666504,4205.641113,4062.051270,4391.794922,16227.000000,2.000000,,,,0.000000,4.000000,4.000000,4.000000,4.000000,4.000000,,,,,,,,,,,,,,,,,,,,,,,,,
1577535319.307636,124.000000,0.000000,4477.436035,4516.922852,4161.538574,4027.692383,4365.641113,450.000000,2.000000,,,,0.000000,4.000000,4.000000,4.000000,4.000000,4.000000,,,,,,,,,,,,,,,,,,,,,,,,,
1577535319.315359,125.000000,0.000000,4407.692383,4465.641113,4117.948730,3969.230713,4303.077148,450.000000,2.000000,,,,0.000000,4.000000,4.000000,4.000000,4.000000,4.000000,,,,,,,,,,,,,,,,,,,,,,,,,
1577535319.323087,126.000000,0.000000,4398.461426,4480.000000,4129.743652,3976.410156,4291.282227,450.000000,2.000000,,,,0.000000,4.000000,4.000000,4.000000,4.000000,4.000000,,,,,,,,,,,,,,,,,,,,,,,,,
1577535319.330915,127.000000,0.000000,4466.153809,4545.641113,4171.282227,4032.307617,4348.205078,230.000000,2.000000,,,,0.000000,4.000000,4.000000,4.000000,4.000000,4.000000,,,,,,,,,,,,,,,,,,,,,,,,,
1577535319.338642,0.000000,0.000000,4481.025879,4541.538574,4173.846191,4036.410156,4366.666504,450.000000,2.000000,,,,0.000000,4.000000,4.000000,4.000000,4.000000,4.000000,,,,,,,,,,,,,,,,,,,,,,,,,
1577535319.346470,1.000000,0.000000,4434.358887,4503.589844,4131.282227,3995.384521,4333.333496,450.000000,2.000000,,,,0.000000,4.000000,4.000000,4.000000,4.000000,4.000000,,,,,,,,,,,,,,,,,,,,,,,,,
1577535319.354197,2.000000,0.000000,4444.615234,4499.487305,4136.922852,4002.564209,4341.538574,16221.000000,2.000000,,,,0.000000,4.000000,4.000000,4.000000,4.000000,4.000000,,,,,,,,,,,,,,,,,,,,,,,,,
1577535319.362024,3.000000,0.000000,4491.282227,4507.692383,4162.051270,4045.641113,4379.487305,450.000000,2.000000,,,,0.000000,4.000000,4.000000,4.000000,4.000000,4.000000,,,,,,,,,,,,,,,,,,,,,,,,,
1577535319.369751,4.000000,0.000000,4461.025879,4500.512695,4143.589844,4029.230713,4355.897461,16106.000000,2.000000,,,,0.000000,4.000000,4.000000,4.000000,4.000000,4.000000,,,,,,,,,,,,,,,,,,,,,,,,,
1577535319.377578,5.000000,0.000000,4408.205078,4489.743652,4129.743652,3991.794922,4300.512695,450.000000,2.000000,,,,0.000000,4.000000,4.000000,4.000000,4.000000,4.000000,,,,,,,,,,,,,,,,,,,,,,,,,
1577535319.385404,6.000000,0.000000,4420.512695,4492.307617,4130.769043,4007.692383,4300.512695,16078.000000,2.000000,,,,0.000000,4.000000,4.000000,4.000000,4.000000,4.000000,,,,,,,,,,,,,,,,,,,,,,,,,
1577535319.393126,7.000000,0.000000,4430.769043,4491.282227,4142.051270,4016.410156,4312.307617,450.000000,2.000000,,,,0.000000,4.000000,4.000000,4.000000,4.000000,4.000000,,,,,,,,,,,,,,,,,,,,,,,,,
1577535319.400852,8.000000,0.000000,4415.384766,4487.692383,4151.794922,4005.128174,4296.922852,450.000000,2.000000,,,,0.000000,4.000000,4.000000,4.000000,4.000000,4.000000,45.773510,16.155607,9.293742,5.679335,3.296345,1.586559,1.707102,2.329448,0.794206,3.351456,2.683977,2.852721,4.267971,2.604930,1.734251,5.300457,7.366268,4.748670,3.197587,1.949509,26.680548,10.949920,6.060362,4.976982,2.890878
1577535319.408678,9.000000,0.000000,4417.436035,4488.717773,4146.666504,4010.256348,4300.512695,16137.000000,2.000000,,,,0.000000,4.000000,4.000000,4.000000,4.000000,4.000000,,,,,,,,,,,,,,,,,,,,,,,,,
1577535319.416403,10.000000,0.000000,4430.256348,4497.948730,4152.307617,4015.384521,4320.000000,450.000000,2.000000,,,,0.000000,4.000000,4.000000,4.000000,4.000000,4.000000,,,,,,,,,,,,,,,,,,,,,,,,,
1577535319.424228,11.000000,0.000000,4437.948730,4523.589844,4152.307617,4009.743652,4330.769043,16210.000000,2.000000,,,,0.000000,4.000000,4.000000,4.000000,4.000000,4.000000,,,,,,,,,,,,,,,,,,,,,,,,,
1577535319.431953,12.000000,0.000000,4417.436035,4518.461426,4145.128418,3987.179443,4321.538574,450.000000,2.000000,,,,0.000000,4.000000,4.000000,4.000000,4.000000,4.000000,,,,,,,,,,,,,,,,,,,,,,,,,
1577535319.439683,13.000000,0.000000,4397.436035,4494.871582,4141.025879,3965.128174,4306.153809,450.000000,2.000000,,,,0.000000,4.000000,4.000000,4.000000,4.000000,4.000000,,,,,,,,,,,,,,,,,,,,,,,,,
1577535319.447512,14.000000,0.000000,4417.948730,4502.563965,4135.897461,3972.820557,4314.871582,450.000000,2.000000,,,,0.000000,4.000000,4.000000,4.000000,4.000000,4.000000,,,,,,,,,,,,,,,,,,,,,,,,,
1577535319.455342,15.000000,0.000000,4405.641113,4497.436035,4130.769043,3965.641113,4303.589844,16210.000000,2.000000,,,,0.000000,4.000000,4.000000,4.000000,4.000000,4.000000,,,,,,,,,,,,,,,,,,,,,,,,,
1577535319.463066,16.000000,0.000000,4361.025879,4488.205078,4117.436035,3939.487061,4269.743652,0.000000,2.000000,,,,0.000000,4.000000,4.000000,4.000000,4.000000,4.000000,,,,,,,,,,,,,,,,,,,,,,,,,
1577535319.470795,17.000000,0.000000,4406.153809,4508.717773,4144.615234,3968.718018,4309.230957,0.000000,2.000000,,,,0.000000,4.000000,4.000000,4.000000,4.000000,4.000000,,,,,,,,,,,,,,,,,,,,,,,,,
1577535319.478624,18.000000,0.000000,4468.205078,4506.666504,4171.794922,3998.974365,4367.179688,0.000000,2.000000,,,,0.000000,4.000000,4.000000,4.000000,4.000000,4.000000,,,,,,,,,,,,,,,,,,,,,,,,,
1577535319.486353,19.000000,0.000000,4430.769043,4492.307617,4136.922852,3956.923096,4343.589844,0.000000,2.000000,,,,0.000000,4.000000,4.000000,4.000000,4.000000,4.000000,,,,,,,,,,,,,,,,,,,,,,,,,
1577535319.494182,20.000000,0.000000,4413.333496,4517.948730,4146.666504,3937.948730,4327.179688,0.000000,2.000000,,,,0.000000,4.000000,4.000000,4.000000,4.000000,4.000000,,,,,,,,,,,,,,,,,,,,,,,,,
1577535319.502011,21.000000,0.000000,4437.948730,4520.000000,4168.717773,3959.487061,4341.538574,0.000000,2.000000,,,,0.000000,4.000000,4.000000,4.000000,4.000000,4.000000,,,,,,,,,,,,,,,,,,,,,,,,,
1577535319.509734,22.000000,0.000000,4394.358887,4483.077148,4136.410156,3938.974365,4305.128418,0.000000,2.000000,,,,0.000000,4.000000,4.000000,4.000000,4.000000,4.000000,,,,,,,,,,,,,,,,,,,,,,,,,
1577535319.517557,23.000000,0.000000,4366.153809,4493.333496,4137.436035,3931.794922,4282.563965,0.000000,2.000000,,,,0.000000,4.000000,4.000000,4.000000,4.000000,4.000000,,,,,,,,,,,,,,,,,,,,,,,,,
1577535319.525280,24.000000,0.000000,4399.487305,4520.000000,4159.487305,3964.102539,4317.436035,0.000000,2.000000,,,,0.000000,4.000000,4.000000,4.000000,4.000000,4.000000,54.801891,19.232700,11.073806,6.486486,3.741925,1.574966,1.415689,2.710794,0.812337,3.580135,2.970527,3.458552,5.166049,2.981592,1.838618,9.690430,10.853798,5.553451,3.550659,2.169648,32.678333,12.220358,7.000245,5.657391,3.113212
1577535319.533103,25.000000,0.000000,4393.333496,4494.871582,4160.000000,3968.205078,4318.974121,0.000000,2.000000,,,,0.000000,4.000000,4.000000,4.000000,4.000000,4.000000,,,,,,,,,,,,,,,,,,,,,,,,,
1577535319.540825,26.000000,0.000000,4363.589844,4472.820313,4145.128418,3951.794922,4282.051270,0.000000,2.000000,,,,0.000000,4.000000,4.000000,4.000000,4.000000,4.000000,,,,,,,,,,,,,,,,,,,,,,,,,
1577535319.548553,27.000000,0.000000,4372.820313,4505.641113,4137.948730,3959.487061,4282.563965,0.000000,2.000000,,,,0.000000,4.000000,4.000000,4.000000,4.000000,4.000000,,,,,,,,,,,,,,,,,,,,,,,,,
1577535319.556380,28.000000,0.000000,4383.077148,4529.230957,4158.461426,3981.025635,4301.025879,0.000000,2.000000,,,,0.000000,4.000000,4.000000,4.000000,4.000000,4.000000,,,,,,,,,,,,,,,,,,,,,,,,,
1577535319.564207,29.000000,0.000000,4367.692383,4497.436035,4148.717773,3981.538574,4292.307617,0.000000,2.000000,,,,0.000000,4.000000,4.000000,4.000000,4.000000,4.000000,,,,,,,,,,,,,,,,,,,,,,,,,
1577535319.571929,30.000000,0.000000,4337.948730,4473.333496,4121.538574,3960.512939,4271.282227,0.000000,2.000000,,,,0.000000,4.000000,4.000000,4.000000,4.000000,4.000000,,,,,,,,,,,,,,,,,,,,,,,,,
1577535319.579655,31.000000,0.000000,4329.230957,4496.410156,4126.153809,3962.564209,4267.692383,0.000000,2.000000,,,,0.000000,4.000000,4.000000,4.000000,4.000000,4.000000,,,,,,,,,,,,,,,,,,,,,,,,,
1577535319.587480,32.000000,0.000000,4353.333496,4511.282227,4131.794922,3978.461426,4280.000000,0.000000,2.000000,,,,0.000000,4.000000,4.000000,4.000000,4.000000,4.000000,,,,,,,,,,,,,,,,,,,,,,,,,
1577535319.595206,33.000000,0.000000,4351.282227,4482.563965,4119.487305,3963.076904,4269.230957,0.000000,2.000000,,,,0.000000,4.000000,4.000000,4.000000,4.000000,4.000000,,,,,,,,,,,,,,,,,,,,,,,,,
1577535319.602936,34.000000,0.000000,4340.000000,4470.256348,4111.794922,3963.589844,4264.102539,0.000000,2.000000,,,,0.000000,4.000000,4.000000,4.000000,4.000000,4.000000,,,,,,,,,,,,,,,,,,,,,,,,,
1577535319.610765,35.000000,0.000000,4375.897461,4504.102539,4140.000000,4004.102539,4304.102539,0.000000,2.000000,,,,0.000000,4.000000,4.000000,4.000000,4.000000,4.000000,,,,,,,,,,,,,,,,,,,,,,,,,
1577535319.618595,36.000000,0.000000,4384.102539,4508.205078,4148.717773,4009.230713,4307.179688,0.000000,2.000000,,,,0.000000,4.000000,4.000000,4.000000,4.000000,4.000000,,,,,,,,,,,,,,,,,,,,,,,,,
1577535319.626319,37.000000,0.000000,4315.897461,4475.897461,4110.769043,3969.230713,4246.153809,0.000000,2.000000,,,,0.000000,4.000000,4.000000,4.000000,4.000000,4.000000,,,,,,,,,,,,,,,,,,,,,,,,,
1577535319.634144,38.000000,0.000000,4290.256348,4505.641113,4126.153809,3969.743652,4229.230957,0.000000,2.000000,,,,0.000000,4.000000,4.000000,4.000000,4.000000,4.000000,,,,,,,,,,,,,,,,,,,,,,,,,
1577535319.641869,39.000000,0.000000,4327.692383,4542.563965,4149.743652,4002.564209,4254.358887,0.000000,2.000000,,,,0.000000,4.000000,4.000000,4.000000,4.000000,4.000000,,,,,,,,,,,,,,,,,,,,,,,,,
1577535319.649693,40.000000,0.000000,4317.948730,4502.563965,4124.102539,3995.897461,4243.077148,0.000000,2.000000,,,,0.000000,4.000000,4.000000,4.000000,4.000000,4.000000,59.559353,21.207323,12.276095,6.674050,4.124714,1.611997,1.280195,3.070989,0.892451,3.671307,3.597366,4.497202,6.070818,3.108747,1.894903,17.278381,15.969447,6.492725,3.657698,2.404551,36.769527,13.124021,7.840319,5.826974,3.266909
1577535319.657417,41.000000,0.000000,4310.256348,4489.743652,4139.487305,3998.974365,4247.179688,0.000000,2.000000,,,,0.000000,4.000000,4.000000,4.000000,4.000000,4.000000,,,,,,,,,,,,,,,,,,,,,,,,,
1577535319.665241,42.000000,0.000000,4369.230957,4514.871582,4180.000000,4039.487061,4304.615234,0.000000,2.000000,,,,0.000000,4.000000,4.000000,4.000000,4.000000,4.000000,,,,,,,,,,,,,,,,,,,,,,,,,
1577535319.672965,43.000000,0.000000,4377.948730,4497.948730,4169.743652,4023.589844,4308.717773,0.000000,2.000000,,,,0.000000,4.000000,4.000000,4.000000,4.000000,4.000000,,,,,,,,,,,,,,,,,,,,,,,,,
1577535319.680789,44.000000,0.000000,4314.871582,4481.025879,4124.102539,3964.102539,4252.820313,0.000000,2.000000,,,,0.000000,4.000000,4.000000,4.000000,4.000000,4.000000,,,,,,,,,,,,,,,,,,,,,,,,,
1577535319.688512,45.000000,0.000000,4310.256348,4493.846191,4116.922852,3970.769287,4262.051270,0.000000,2.000000,,,,0.000000,4.000000,4.000000,4.000000,4.000000,4.000000,,,,,,,,,,,,,,,,,,,,,,,,,
1577535319.696336,46.000000,0.000000,4362.051270,4515.897461,4148.717773,4013.333252,4308.717773,0.000000,2.000000,,,,0.000000,4.000000,4.000000,4.000000,4.000000,4.000000,,,,,,,,,,,,,,,,,,,,,,,,,
1577535319.704059,47.000000,0.000000,4361.538574,4520.000000,4129.743652,3998.461426,4293.846191,0.000000,2.000000,,,,0.000000,4.000000,4.000000,4.000000,4.000000,4.000000,,,,,,,,,,,,,,,,,,,,,,,,,
1577535319.711882,48.000000,0.000000,4305.128418,4486.666504,4099.487305,3961.538574,4243.077148,0.000000,2.000000,,,,0.000000,4.000000,4.000000,4.000000,4.000000,4.000000,,,,,,,,,,,,,,,,,,,,,,,,,
1577535319.719605,49.000000,0.000000,4306.153809,4468.717773,4131.794922,3988.205078,4245.641113,0.000000,2.000000,,,,0.000000,4.000000,4.000000,4.000000,4.000000,4.000000,,,,,,,,,,,,,,,,,,,,,,,,,
1577535319.727427,50.000000,0.000000,4351.794922,4511.282227,4167.179688,4024.615479,4283.077148,0.000000,2.000000,,,,0.000000,4.000000,4.000000,4.000000,4.000000,4.000000,,,,,,,,,,,,,,,,,,,,,,,,,
1577535319.735149,51.000000,0.000000,4325.641113,4532.307617,4156.922852,3996.410156,4257.948730,0.000000,2.000000,,,,0.000000,4.000000,4.000000,4.000000,4.000000,4.000000,,,,,,,,,,,,,,,,,,,,,,,,,
1577535319.742971,52.000000,0.000000,4296.922852,4501.025879,4136.922852,3979.487061,4231.794922,0.000000,2.000000,,,,0.000000,4.000000,4.000000,4.000000,4.000000,4.000000,,,,,,,,,,,,,,,,,,,,,,,,,
1577535319.750693,53.000000,0.000000,4330.256348,4486.666504,4163.077148,4006.153809,4267.692383,0.000000,2.000000,,,,0.000000,4.000000,4.000000,4.000000,4.000000,4.000000,,,,,,,,,,,,,,,,,,,,,,,,,
1577535319.758419,54.000000,0.000000,4322.563965,4490.256348,4171.282227,3991.794922,4262.563965,0.000000,2.000000,,,,0.000000,4.000000,4.000000,4.000000,4.000000,4.000000,,,,,,,,,,,,,,,,,,,,,,,,,
1577535319.766246,55.000000,0.000000,4258.461426,4507.179688,4124.615234,3939.487061,4210.769043,0.000000,2.000000,,,,0.000000,4.000000,4.000000,4.000000,4.000000,4.000000,,,,,,,,,,,,,,,,,,,,,,,,,
1577535319.773972,56.000000,0.000000,4261.538574,4525.641113,4140.512695,3948.205078,4226.666504,0.000000,2.000000,,,,0.000000,4.000000,4.000000,4.000000,4.000000,4.000000,59.609516,21.585854,12.823357,6.182693,4.467729,1.694627,1.284918,3.363485,1.023356,3.642037,4.532226,5.842447,6.688180,2.949525,1.926794,27.066099,21.970911,7.536850,3.538288,2.657082,38.081436,13.436684,8.559573,5.435717,3.397763
1577535319.781797,57.000000,0.000000,4329.743652,4509.743652,4182.563965,4000.512939,4286.153809,0.000000,2.000000,,,,0.000000,4.000000,4.000000,4.000000,4.000000,4.000000,,,,,,,,,,,,,,,,,,,,,,,,,
1577535319.789523,58.000000,0.000000,4351.282227,4493.333496,4171.282227,3994.358887,4294.358887,0.000000,2.000000,,,,0.000000,4.000000,4.000000,4.000000,4.000000,4.000000,,,,,,,,,,,,,,,,,,,,,,,,,
1577535319.797348,59.000000,0.000000,4324.102539,4517.436035,4154.358887,3963.589844,4272.820313,0.000000,2.000000,,,,0.000000,4.000000,4.000000,4.000000,4.000000,4.000000,,,,,,,,,,,,,,,,,,,,,,,,,
1577535319.805073,60.000000,0.000000,4320.000000,4537.948730,4146.153809,3968.718018,4280.000000,0.000000,2.000000,,,,0.000000,4.000000,4.000000,4.000000,4.000000,4.000000,,,,,,,,,,,,,,,,,,,,,,,,,
1577535319.812898,61.000000,0.000000,4340.000000,4512.820313,4161.025879,3980.000000,4297.948730,0.000000,2.000000,,,,0.000000,4.000000,4.000000,4.000000,4.000000,4.000000,,,,,,,,,,,,,,,,,,,,,,,,,
1577535319.820623,62.000000,0.000000,4331.794922,4481.538574,4163.589844,3968.205078,4278.974121,0.000000,2.000000,,,,0.000000,4.000000,4.000000,4.000000,4.000000,4.000000,,,,,,,,,,,,,,,,,,,,,,,,,
1577535319.828447,63.000000,0.000000,4301.025879,4493.333496,4140.000000,3956.410156,4245.641113,0.000000,2.000000,,,,0.000000,4.000000,4.000000,4.000000,4.000000,4.000000,,,,,,,,,,,,,,,,,,,,,,,,,
1577535319.836171,64.000000,0.000000,4300.000000,4525.641113,4150.769043,3972.307617,4249.743652,450.000000,2.000000,,,,0.000000,4.000000,4.000000,4.000000,4.000000,4.000000,,,,,,,,,,,,,,,,,,,,,,,,,
1577535319.843995,65.000000,0.000000,4310.256348,4518.461426,4166.153809,3991.794922,4271.282227,450.000000,2.000000,,,,0.000000,4.000000,4.000000,4.000000,4.000000,4.000000,,,,,,,,,,,,,,,,,,,,,,,,,
1577535319.851719,66.000000,0.000000,4283.077148,4486.666504,4150.256348,3966.666748,4251.282227,16228.000000,2.000000,,,,0.000000,4.000000,4.000000,4.000000,4.000000,4.000000,,,,,,,,,,,,,,,,,,,,,,,,,
1577535319.859447,67.000000,0.000000,4256.410156,4489.743652,4130.256348,3941.025635,4214.871582,450.000000,2.000000,,,,0.000000,4.000000,4.000000,4.000000,4.000000,4.000000,,,,,,,,,,,,,,,,,,,,,,,,,
1577535319.867179,68.000000,0.000000,4269.230957,4498.461426,4136.922852,3958.974365,4222.051270,16104.000000,2.000000,,,,0.000000,4.000000,4.000000,4.000000,4.000000,4.000000,,,,,,,,,,,,,,,,,,,,,,,,,
1577535319.875011,69.000000,0.000000,4269.230957,4489.743652,4148.717773,3962.051270,4225.128418,450.000000,2.000000,,,,0.000000,4.000000,4.000000,4.000000,4.000000,4.000000,,,,,,,,,,,,,,,,,,,,,,,,,
1577535319.882743,70.000000,0.000000,4241.538574,4484.102539,4126.666504,3937.948730,4198.461426,16083.000000,2.000000,,,,0.000000,4.000000,4.000000,4.000000,4.000000,4.000000,,,,,,,,,,,,,,,,,,,,,,,,,
1577535319.890575,71.000000,0.000000,4260.512695,4497.948730,4150.769043,3955.384521,4223.077148,450.000000,2.000000,,,,0.000000,4.000000,4.000000,4.000000,4.000000,4.000000,,,,,,,,,,,,,,,,,,,,,,,,,
1577535319.898306,72.000000,0.000000,4324.102539,4527.692383,4203.589844,4002.051270,4285.641113,450.000000,2.000000,,,,0.000000,4.000000,4.000000,4.000000,4.000000,4.000000,56.504848,20.194281,12.855252,5.237651,4.831320,1.815292,1.344912,3.546032,1.185875,3.555641,5.591643,7.151641,6.781952,2.574718,1.977103,36.327972,27.211874,8.507024,3.309089,2.929803,37.130005,12.936784,9.191044,4.682284,3.573377
1577535319.906137,73.000000,0.000000,4313.333496,4514.871582,4169.230957,3986.153809,4272.307617,16139.000000,2.000000,,,,0.000000,4.000000,4.000000,4.000000,4.000000,4.000000,,,,,,,,,,,,,,,,,,,,,,,,,
1577535319.913869,74.000000,0.000000,4267.179688,4488.205078,4137.436035,3955.897461,4225.641113,450.000000,2.000000,,,,0.000000,4.000000,4.000000,4.000000,4.000000,4.000000,,,,,,,,,,,,,,,,,,,,,,,,,
1577535319.921700,75.000000,0.000000,4292.307617,4513.846191,4151.794922,3977.435791,4244.102539,16217.000000,2.000000,,,,0.000000,4.000000,4.000000,4.000000,4.000000,4.000000,,,,,,,,,,,,,,,,,,,,,,,,,
1577535319.929431,76.000000,0.000000,4311.282227,4522.051270,4154.871582,3986.153809,4273.333496,450.000000,2.000000,,,,0.000000,4.000000,4.000000,4.000000,4.000000,4.000000,,,,,,,,,,,,,,,,,,,,,,,,,
1577535319.937262,77.000000,0.000000,4305.128418,4485.641113,4167.692383,3976.923096,4274.871582,450.000000,2.000000,,,,0.000000,4.000000,4.000000,4.000000,4.000000,4.000000,,,,,,,,,,,,,,,,,,,,,,,,,
1577535319.944993,78.000000,0.000000,4307.179688,4475.897461,4170.256348,3966.666748,4268.717773,450.000000,2.000000,,,,0.000000,4.000000,4.000000,4.000000,4.000000,4.000000,,,,,,,,,,,,,,,,,,,,,,,,,
1577535319.952823,79.000000,0.000000,4281.538574,4504.615234,4154.358887,3933.846191,4243.077148,16217.000000,2.000000,,,,0.000000,4.000000,4.000000,4.000000,4.000000,4.000000,,,,,,,,,,,,,,,,,,,,,,,,,
1577535319.960553,80.000000,0.000000,4283.077148,4526.666504,4167.692383,3935.897461,4249.230957,450.000000,2.000000,,,,0.000000,4.000000,4.000000,4.000000,4.000000,4.000000,,,,,,,,,,,,,,,,,,,,,,,,,
1577535319.968383,81.000000,0.000000,4330.769043,4514.871582,4206.666504,3972.820557,4292.820313,450.000000,2.000000,,,,0.000000,4.000000,4.000000,4.000000,4.000000,4.000000,,,,,,,,,,,,,,,,,,,,,,,,,
1577535319.976213,82.000000,0.000000,4318.461426,4492.307617,4201.025879,3956.923096,4275.384766,450.000000,2.000000,,,,0.000000,4.000000,4.000000,4.000000,4.000000,4.000000,,,,,,,,,,,,,,,,,,,,,,,,,
1577535319.983938,83.000000,0.000000,4267.179688,4493.846191,4152.820313,3918.974365,4224.615234,16217.000000,2.000000,,,,0.000000,4.000000,4.000000,4.000000,4.000000,4.000000,,,,,,,,,,,,,,,,,,,,,,,,,
1577535319.991667,84.000000,0.000000,4275.897461,4517.948730,4167.692383,3938.974365,4239.487305,450.000000,2.000000,,,,0.000000,4.000000,4.000000,4.000000,4.000000,4.000000,,,,,,,,,,,,,,,,,,,,,,,,,
1577535319.999495,85.000000,0.000000,4308.205078,4534.871582,4193.333496,3974.871826,4273.333496,450.000000,2.000000,,,,0.000000,4.000000,4.000000,4.000000,4.000000,4.000000,,,,,,,,,,,,,,,,,,,,,,,,,
1577535320.007224,86.000000,0.000000,4311.282227,4524.615234,4169.743652,3971.281982,4276.922852,450.000000,2.000000,,,,0.000000,4.000000,4.000000,4.000000,4.000000,4.000000,,,,,,,,,,,,,,,,,,,,,,,,,
1577535320.015053,87.000000,0.000000,4311.794922,4510.256348,4170.256348,3963.076904,4272.307617,16217.000000,2.000000,,,,0.000000,4.000000,4.000000,4.000000,4.000000,4.000000,,,,,,,,,,,,,,,,,,,,,,,,,
1577535320.022782,88.000000,0.000000,4319.487305,4516.922852,4179.487305,3975.897461,4276.410156,450.000000,2.000000,,,,0.000000,4.000000,4.000000,4.000000,4.000000,4.000000,52.287270,17.491871,12.635941,4.241254,5.267936,1.929701,1.364982,3.584917,1.348507,3.482100,6.548398,8.045292,6.317356,2.129333,2.091050,42.553539,29.972822,9.125353,3.114616,3.218338,34.741215,11.730326,9.781590,3.913117,3.844899
1577535320.030515,89.000000,0.000000,4326.666504,4507.692383,4175.384766,3983.589844,4291.794922,450.000000,2.000000,,,,0.000000,4.000000,4.000000,4.000000,4.000000,4.000000,,,,,,,,,,,,,,,,,,,,,,,,,
1577535320.038348,90.000000,0.000000,4319.487305,4477.948730,4164.102539,3973.333252,4286.666504,450.000000,2.000000,,,,0.000000,4.000000,4.000000,4.000000,4.000000,4.000000,,,,,,,,,,,,,,,,,,,,,,,,,
1577535320.046181,91.000000,0.000000,4277.436035,4492.820313,4138.974121,3954.358887,4242.563965,16217.000000,2.000000,,,,0.000000,4.000000,4.000000,4.000000,4.000000,4.000000,,,,,,,,,,,,,,,,,,,,,,,,,
1577535320.053909,92.000000,0.000000,4243.077148,4525.641113,4145.128418,3947.692383,4213.846191,450.000000,2.000000,,,,0.000000,4.000000,4.000000,4.000000,4.000000,4.000000,,,,,,,,,,,,,,,,,,,,,,,,,
1577535320.061737,93.000000,0.000000,4265.128418,4518.974121,4159.487305,3965.641113,4234.358887,450.000000,2.000000,,,,0.000000,4.000000,4.000000,4.000000,4.000000,4.000000,,,,,,,,,,,,,,,,,,,,,,,,,
1577535320.069464,94.000000,0.000000,4285.641113,4504.102539,4159.487305,3976.410156,4248.205078,450.000000,2.000000,,,,0.000000,4.000000,4.000000,4.000000,4.000000,4.000000,,,,,,,,,,,,,,,,,,,,,,,,,
1577535320.077195,95.000000,0.000000,4281.025879,4511.794922,4176.922852,3971.794922,4243.589844,16217.000000,2.000000,,,,0.000000,4.000000,4.000000,4.000000,4.000000,4.000000,,,,,,,,,,,,,,,,,,,,,,,,,
1577535320.085027,96.000000,0.000000,4295.384766,4521.025879,4187.692383,3967.692383,4265.641113,450.000000,2.000000,,,,0.000000,4.000000,4.000000,4.000000,4.000000,4.000000,,,,,,,,,,,,,,,,,,,,,,,,,
1577535320.092858,97.000000,0.000000,4311.282227,4511.282227,4185.128418,3964.615479,4283.077148,450.000000,2.000000,,,,0.000000,4.000000,4.000000,4.000000,4.000000,4.000000,,,,,,,,,,,,,,,,,,,,,,,,,
1577535320.100585,98.000000,0.000000,4314.358887,4511.282227,4180.512695,3961.538574,4276.922852,450.000000,2.000000,,,,0.000000,4.000000,4.000000,4.000000,4.000000,4.000000,,,,,,,,,,,,,,,,,,,,,,,,,
1577535320.108316,99.000000,0.000000,4330.769043,4522.563965,4191.794922,3968.205078,4296.410156,16217.000000,2.000000,,,,0.000000,4.000000,4.000000,4.000000,4.000000,4.000000,,,,,,,,,,,,,,,,,,,,,,,,,
1577535320.116146,100.000000,0.000000,4336.922852,4497.436035,4192.307617,3968.205078,4307.692383,450.000000,2.000000,,,,0.000000,4.000000,4.000000,4.000000,4.000000,4.000000,,,,,,,,,,,,,,,,,,,,,,,,,
1577535320.123876,101.000000,0.000000,4310.256348,4464.102539,4139.487305,3946.666748,4273.846191,450.000000,2.000000,,,,0.000000,4.000000,4.000000,4.000000,4.000000,4.000000,,,,,,,,,,,,,,,,,,,,,,,,,
1577535320.131707,102.000000,0.000000,4291.282227,4504.102539,4125.641113,3933.333252,4254.358887,450.000000,2.000000,,,,0.000000,4.000000,4.000000,4.000000,4.000000,4.000000,,,,,,,,,,,,,,,,,,,,,,,,,
1577535320.139436,103.000000,0.000000,4303.589844,4544.102539,4154.871582,3944.102539,4265.641113,16217.000000,2.000000,,,,0.000000,4.000000,4.000000,4.000000,4.000000,4.000000,,,,,,,,,,,,,,,,,,,,,,,,,
1577535320.147266,104.000000,0.000000,4304.615234,4502.051270,4151.794922,3947.692383,4260.512695,450.000000,2.000000,,,,0.000000,4.000000,4.000000,4.000000,4.000000,4.000000,48.019440,14.287532,12.311844,3.581192,5.774618,1.982966,1.308009,3.454971,1.478392,3.466674,7.170030,8.199144,5.463380,1.772238,2.292563,43.358387,29.237062,9.131244,3.047811,3.508658,31.857027,10.148245,10.229245,3.449320,4.217072
1577535320.154995,105.000000,0.000000,4278.461426,4481.538574,4146.666504,3942.564209,4236.922852,450.000000,2.000000,,,,0.000000,4.000000,4.000000,4.000000,4.000000,4.000000,,,,,,,,,,,,,,,,,,,,,,,,,
1577535320.162825,106.000000,0.000000,4282.051270,4513.333496,4158.974121,3972.307617,4238.461426,450.000000,2.000000,,,,0.000000,4.000000,4.000000,4.000000,4.000000,4.000000,,,,,,,,,,,,,,,,,,,,,,,,,
1577535320.170554,107.000000,0.000000,4313.333496,4528.717773,4190.769043,4017.435791,4265.641113,16217.000000,2.000000,,,,0.000000,4.000000,4.000000,4.000000,4.000000,4.000000,,,,,,,,,,,,,,,,,,,,,,,,,
1577535320.178383,108.000000,0.000000,4306.153809,4530.256348,4199.487305,4020.512939,4266.666504,450.000000,2.000000,,,,0.000000,4.000000,4.000000,4.000000,4.000000,4.000000,,,,,,,,,,,,,,,,,,,,,,,,,
1577535320.186112,109.000000,0.000000,4271.794922,4503.589844,4168.205078,3993.846191,4245.641113,450.000000,2.000000,,,,0.000000,4.000000,4.000000,4.000000,4.000000,4.000000,,,,,,,,,,,,,,,,,,,,,,,,,
1577535320.193940,110.000000,0.000000,4274.871582,4465.641113,4175.897461,3988.718018,4243.077148,450.000000,2.000000,,,,0.000000,4.000000,4.000000,4.000000,4.000000,4.000000,,,,,,,,,,,,,,,,,,,,,,,,,
1577535320.201669,111.000000,0.000000,4292.307617,4488.717773,4184.615234,3987.692383,4249.230957,16217.000000,2.000000,,,,0.000000,4.000000,4.000000,4.000000,4.000000,4.000000,,,,,,,,,,,,,,,,,,,,,,,,,
1577535320.209497,112.000000,0.000000,4294.871582,4533.846191,4180.000000,3968.718018,4259.487305,450.000000,2.000000,,,,0.000000,4.000000,4.000000,4.000000,4.000000,4.000000,,,,,,,,,,,,,,,,,,,,,,,,,
1577535320.217225,113.000000,0.000000,4306.153809,4517.436035,4200.000000,3957.948730,4277.948730,450.000000,2.000000,,,,0.000000,4.000000,4.000000,4.000000,4.000000,4.000000,,,,,,,,,,,,,,,,,,,,,,,,,
1577535320.225053,114.000000,0.000000,4276.410156,4481.538574,4171.794922,3923.076904,4242.051270,450.000000,2.000000,,,,0.000000,4.000000,4.000000,4.000000,4.000000,4.000000,,,,,,,,,,,,,,,,,,,,,,,,,
1577535320.232780,115.000000,0.000000,4250.769043,4500.512695,4147.692383,3899.487061,4206.153809,16217.000000,2.000000,,,,0.000000,4.000000,4.000000,4.000000,4.000000,4.000000,,,,,,,,,,,,,,,,,,,,,,,,,
1577535320.240607,116.000000,0.000000,4314.358887,4534.871582,4188.717773,3950.256348,4263.589844,450.000000,2.000000,,,,0.000000,4.000000,4.000000,4.000000,4.000000,4.000000,,,,,,,,,,,,,,,,,,,,,,,,,
1577535320.248334,117.000000,0.000000,4368.205078,4514.358887,4214.358887,3986.666748,4328.717773,450.000000,2.000000,,,,0.000000,4.000000,4.000000,4.000000,4.000000,4.000000,,,,,,,,,,,,,,,,,,,,,,,,,
1577535320.256161,118.000000,0.000000,4326.153809,4469.743652,4181.025879,3941.025635,4300.000000,450.000000,2.000000,,,,0.000000,4.000000,4.000000,4.000000,4.000000,4.000000,,,,,,,,,,,,,,,,,,,,,,,,,
1577535320.263888,119.000000,0.000000,4269.743652,4484.102539,4136.410156,3887.692383,4237.436035,16217.000000,2.000000,,,,0.000000,4.000000,4.000000,4.000000,4.000000,4.000000,,,,,,,,,,,,,,,,,,,,,,,,,
1577535320.271619,120.000000,0.000000,4272.307617,4534.358887,4153.333496,3893.333252,4232.307617,450.000000,2.000000,,,,0.000000,4.000000,4.000000,4.000000,4.000000,4.000000,43.786224,11.360162,11.826086,3.433858,6.273712,1.936556,1.206651,3.155260,1.557790,3.514951,7.253004,7.485817,4.466401,1.599208,2.567436,38.966141,25.110588,8.403872,3.097125,3.774581,28.793629,8.631349,10.310752,3.417419,4.639356
1577535320.279450,121.000000,0.000000,4291.794922,4526.153809,4172.307617,3912.307617,4254.871582,450.000000,2.000000,,,,0.000000,4.000000,4.000000,4.000000,4.000000,4.000000,,,,,,,,,,,,,,,,,,,,,,,,,
1577535320.287180,122.000000,0.000000,4290.256348,4498.974121,4171.794922,3917.948730,4264.102539,450.000000,2.000000,,,,0.000000,4.000000,4.000000,4.000000,4.000000,4.000000,,,,,,,,,,,,,,,,,,,,,,,,,
1577535320.295011,123.000000,0.000000,4276.922852,4503.589844,4188.205078,3925.128174,4252.820313,16217.000000,2.000000,,,,0.000000,4.000000,4.000000,4.000000,4.000000,4.000000,,,,,,,,,,,,,,,,,,,,,,,,,
1577535320.302742,124.000000,0.000000,4251.794922,4482.051270,4162.051270,3924.615479,4223.077148,450.000000,2.000000,,,,0.000000,4.000000,4.000000,4.000000,4.000000,4.000000,,,,,,,,,,,,,,,,,,,,,,,,,
1577535320.310572,125.000000,0.000000,4247.692383,4469.743652,4150.256348,3943.076904,4224.615234,450.000000,2.000000,,,,0.000000,4.000000,4.000000,4.000000,4.000000,4.000000,,,,,,,,,,,,,,,,,,,,,,,,,
1577535320.318302,126.000000,0.000000,4299.487305,4523.589844,4201.538574,4001.538574,4281.025879,450.000000,2.000000,,,,0.000000,4.000000,4.000000,4.000000,4.000000,4.000000,,,,,,,,,,,,,,,,,,,,,,,,,
1577535320.326132,127.000000,0.000000,4323.077148,4544.615234,4209.230957,4016.923096,4308.205078,230.000000,2.000000,,,,0.000000,4.000000,4.000000,4.000000,4.000000,4.000000,,,,,,,,,,,,,,,,,,,,,,,,,
1577535320.333861,0.000000,0.000000,4277.948730,4494.358887,4177.948730,3977.435791,4265.128418,450.000000,2.000000,,,,0.000000,4.000000,4.000000,4.000000,4.000000,4.000000,,,,,,,,,,,,,,,,,,,,,,,,,
1577535320.341691,1.000000,0.000000,4269.743652,4483.077148,4171.282227,3976.923096,4251.794922,450.000000,2.000000,,,,0.000000,4.000000,4.000000,4.000000,4.000000,4.000000,,,,,,,,,,,,,,,,,,,,,,,,,
1577535320.349420,2.000000,0.000000,4268.717773,4497.948730,4159.487305,3971.281982,4246.666504,16236.000000,2.000000,,,,0.000000,4.000000,4.000000,4.000000,4.000000,4.000000,,,,,,,,,,,,,,,,,,,,,,,,,
1577535320.357249,3.000000,0.000000,4231.794922,4495.384766,4134.871582,3935.384521,4203.589844,450.000000,2.000000,,,,0.000000,4.000000,4.000000,4.000000,4.000000,4.000000,,,,,,,,,,,,,,,,,,,,,,,,,
1577535320.364977,4.000000,0.000000,4243.589844,4501.025879,4145.641113,3949.230713,4218.974121,16114.000000,2.000000,,,,0.000000,4.000000,4.000000,4.000000,4.000000,4.000000,,,,,,,,,,,,,,,,,,,,,,,,,
1577535320.372806,5.000000,0.000000,4282.563965,4495.384766,4191.282227,3986.666748,4269.743652,450.000000,2.000000,,,,0.000000,4.000000,4.000000,4.000000,4.000000,4.000000,,,,,,,,,,,,,,,,,,,,,,,,,
1577535320.380534,6.000000,0.000000,4274.358887,4494.871582,4182.563965,3972.820557,4253.846191,16086.000000,2.000000,,,,0.000000,4.000000,4.000000,4.000000,4.000000,4.000000,,,,,,,,,,,,,,,,,,,,,,,,,
1577535320.388363,7.000000,0.000000,4258.974121,4526.153809,4154.358887,3952.820557,4229.743652,450.000000,2.000000,,,,0.000000,4.000000,4.000000,4.000000,4.000000,4.000000,,,,,,,,,,,,,,,,,,,,,,,,,
1577535320.396091,8.000000,0.000000,4279.487305,4534.358887,4188.205078,3981.538574,4257.436035,450.000000,2.000000,,,,0.000000,4.000000,4.000000,4.000000,4.000000,4.000000,38.471615,9.349060,11.032816,3.667685,6.638597,1.789649,1.129195,2.729161,1.598305,3.609096,6.790099,6.196617,3.594853,1.596084,2.866032,30.433126,18.910891,7.066356,3.153793,3.982001,25.329849,7.671862,9.852757,3.683461,5.027523
1577535320.403918,9.000000,0.000000,4273.846191,4484.615234,4200.000000,3992.307617,4256.922852,16133.000000,2.000000,,,,0.000000,4.000000,4.000000,4.000000,4.000000,4.000000,,,,,,,,,,,,,,,,,,,,,,,,,
1577535320.411646,10.000000,0.000000,4233.846191,4472.307617,4171.282227,3961.538574,4209.230957,450.000000,2.000000,,,,0.000000,4.000000,4.000000,4.000000,4.000000,4.000000,,,,,,,,,,,,,,,,,,,,,,,,,
1577535320.419473,11.000000,0.000000,4240.000000,4525.128418,4163.077148,3960.512939,4211.282227,16218.000000,2.000000,,,,0.000000,4.000000,4.000000,4.000000,4.000000,4.000000,,,,,,,,,,,,,,,,,,,,,,,,,
1577535320.427200,12.000000,0.000000,4252.820313,4535.384766,4172.307617,3969.230713,4243.077148,450.000000,2.000000,,,,0.000000,4.000000,4.000000,4.000000,4.000000,4.000000,,,,,,,,,,,,,,,,,,,,,,,,,
1577535320.434931,13.000000,0.000000,4227.179688,4502.051270,4169.230957,3938.974365,4222.563965,450.000000,2.000000,,,,0.000000,4.000000,4.000000,4.000000,4.000000,4.000000,,,,,,,,,,,,,,,,,,,,,,,,,
1577535320.442762,14.000000,0.000000,4220.000000,4489.743652,4146.153809,3915.384521,4191.282227,450.000000,2.000000,,,,0.000000,4.000000,4.000000,4.000000,4.000000,4.000000,,,,,,,,,,,,,,,,,,,,,,,,,
1577535320.450493,15.000000,0.000000,4242.563965,4496.922852,4154.358887,3924.102539,4204.615234,16218.000000,2.000000,,,,0.000000,4.000000,4.000000,4.000000,4.000000,4.000000,,,,,,,,,,,,,,,,,,,,,,,,,
1577535320.458324,16.000000,0.000000,4264.102539,4500.000000,4181.025879,3945.128174,4235.384766,0.000000,2.000000,,,,0.000000,4.000000,4.000000,4.000000,4.000000,4.000000,,,,,,,,,,,,,,,,,,,,,,,,,
1577535320.466054,17.000000,0.000000,4272.307617,4502.051270,4181.538574,3954.871826,4248.717773,0.000000,2.000000,,,,0.000000,4.000000,4.000000,4.000000,4.000000,4.000000,,,,,,,,,,,,,,,,,,,,,,,,,
1577535320.473885,18.000000,0.000000,4251.794922,4494.871582,4174.358887,3942.051270,4226.666504,0.000000,2.000000,,,,0.000000,4.000000,4.000000,4.000000,4.000000,4.000000,,,,,,,,,,,,,,,,,,,,,,,,,
1577535320.481615,19.000000,0.000000,4241.538574,4490.769043,4168.205078,3942.051270,4211.794922,0.000000,2.000000,,,,0.000000,4.000000,4.000000,4.000000,4.000000,4.000000,,,,,,,,,,,,,,,,,,,,,,,,,
1577535320.489445,20.000000,0.000000,4271.282227,4503.589844,4188.717773,3968.718018,4243.589844,0.000000,2.000000,,,,0.000000,4.000000,4.000000,4.000000,4.000000,4.000000,,,,,,,,,,,,,,,,,,,,,,,,,
1577535320.497175,21.000000,0.000000,4286.153809,4504.615234,4209.743652,3981.538574,4259.487305,0.000000,2.000000,,,,0.000000,4.000000,4.000000,4.000000,4.000000,4.000000,,,,,,,,,,,,,,,,,,,,,,,,,
1577535320.505004,22.000000,0.000000,4288.717773,4503.589844,4198.461426,3980.000000,4253.846191,0.000000,2.000000,,,,0.000000,4.000000,4.000000,4.000000,4.000000,4.000000,,,,,,,,,,,,,,,,,,,,,,,,,
1577535320.512734,23.000000,0.000000,4315.384766,4523.589844,4202.051270,3983.589844,4270.256348,0.000000,2.000000,,,,0.000000,4.000000,4.000000,4.000000,4.000000,4.000000,,,,,,,,,,,,,,,,,,,,,,,,,
1577535320.520563,24.000000,0.000000,4320.512695,4534.358887,4198.461426,3971.281982,4276.922852,0.000000,2.000000,,,,0.000000,4.000000,4.000000,4.000000,4.000000,4.000000,31.567875,8.444309,9.830318,3.994401,6.766738,1.568681,1.146309,2.263711,1.632121,3.740829,5.987726,4.896235,3.061416,1.685790,3.133300,21.341097,12.582132,5.559726,3.109801,4.104577,21.370804,7.481939,8.844909,3.990470,5.316127
1577535320.528292,25.000000,0.000000,4288.717773,4512.820313,4180.512695,3945.641113,4252.820313,0.000000,2.000000,,,,0.000000,4.000000,4.000000,4.000000,4.000000,4.000000,,,,,,,,,,,,,,,,,,,,,,,,,
1577535320.536121,26.000000,0.000000,4290.769043,4502.051270,4191.794922,3955.384521,4250.769043,0.000000,2.000000,,,,0.000000,4.000000,4.000000,4.000000,4.000000,4.000000,,,,,,,,,,,,,,,,,,,,,,,,,
1577535320.543850,27.000000,0.000000,4314.358887,4498.974121,4193.333496,3978.974365,4269.743652,0.000000,2.000000,,,,0.000000,4.000000,4.000000,4.000000,4.000000,4.000000,,,,,,,,,,,,,,,,,,,,,,,,,
1577535320.551678,28.000000,0.000000,4275.897461,4484.615234,4175.897461,3950.256348,4237.436035,0.000000,2.000000,,,,0.000000,4.000000,4.000000,4.000000,4.000000,4.000000,,,,,,,,,,,,,,,,,,,,,,,,,
1577535320.559407,29.000000,0.000000,4243.077148,4496.410156,4170.769043,3931.794922,4206.153809,0.000000,2.000000,,,,0.000000,4.000000,4.000000,4.000000,4.000000,4.000000,,,,,,,,,,,,,,,,,,,,,,,,,
1577535320.567235,30.000000,0.000000,4282.563965,4505.128418,4185.641113,3968.718018,4240.512695,0.000000,2.000000,,,,0.000000,4.000000,4.000000,4.000000,4.000000,4.000000,,,,,,,,,,,,,,,,,,,,,,,,,
1577535320.574963,31.000000,0.000000,4304.102539,4494.358887,4188.717773,3981.538574,4258.974121,0.000000,2.000000,,,,0.000000,4.000000,4.000000,4.000000,4.000000,4.000000,,,,,,,,,,,,,,,,,,,,,,,,,
1577535320.582791,32.000000,0.000000,4283.077148,4497.948730,4167.179688,3965.641113,4236.410156,0.000000,2.000000,,,,0.000000,4.000000,4.000000,4.000000,4.000000,4.000000,,,,,,,,,,,,,,,,,,,,,,,,,
1577535320.590519,33.000000,0.000000,4289.743652,4514.358887,4173.846191,3973.333252,4240.000000,0.000000,2.000000,,,,0.000000,4.000000,4.000000,4.000000,4.000000,4.000000,,,,,,,,,,,,,,,,,,,,,,,,,
1577535320.598346,34.000000,0.000000,4327.179688,4531.282227,4191.794922,3988.205078,4269.743652,0.000000,2.000000,,,,0.000000,4.000000,4.000000,4.000000,4.000000,4.000000,,,,,,,,,,,,,,,,,,,,,,,,,
1577535320.606073,35.000000,0.000000,4351.794922,4550.769043,4197.436035,3987.179443,4291.282227,0.000000,2.000000,,,,0.000000,4.000000,4.000000,4.000000,4.000000,4.000000,,,,,,,,,,,,,,,,,,,,,,,,,
1577535320.613900,36.000000,0.000000,4335.897461,4538.974121,4203.077148,3974.358887,4276.922852,0.000000,2.000000,,,,0.000000,4.000000,4.000000,4.000000,4.000000,4.000000,,,,,,,,,,,,,,,,,,,,,,,,,
1577535320.621627,37.000000,0.000000,4287.179688,4486.153809,4164.102539,3944.615479,4229.743652,0.000000,2.000000,,,,0.000000,4.000000,4.000000,4.000000,4.000000,4.000000,,,,,,,,,,,,,,,,,,,,,,,,,
1577535320.629454,38.000000,0.000000,4262.051270,4476.410156,4145.641113,3925.128174,4213.333496,0.000000,2.000000,,,,0.000000,4.000000,4.000000,4.000000,4.000000,4.000000,,,,,,,,,,,,,,,,,,,,,,,,,
1577535320.637180,39.000000,0.000000,4288.205078,4513.333496,4186.153809,3947.179443,4235.897461,0.000000,2.000000,,,,0.000000,4.000000,4.000000,4.000000,4.000000,4.000000,,,,,,,,,,,,,,,,,,,,,,,,,
1577535320.645006,40.000000,0.000000,4323.589844,4524.615234,4196.922852,3975.384521,4260.000000,0.000000,2.000000,,,,0.000000,4.000000,4.000000,4.000000,4.000000,4.000000,23.338861,8.307561,8.398782,4.185770,6.631209,1.316756,1.278516,1.841830,1.694509,3.918198,5.130033,4.075105,2.936789,1.795349,3.328522,14.241191,7.879318,4.583022,2.941555,4.130097,16.883656,7.817177,7.590262,4.152221,5.484044
1577535320.652732,41.000000,0.000000,4320.512695,4492.820313,4177.948730,3973.333252,4258.974121,0.000000,2.000000,,,,0.000000,4.000000,4.000000,4.000000,4.000000,4.000000,,,,,,,,,,,,,,,,,,,,,,,,,
1577535320.660558,42.000000,0.000000,4274.358887,4468.717773,4145.641113,3947.692383,4224.102539,0.000000,2.000000,,,,0.000000,4.000000,4.000000,4.000000,4.000000,4.000000,,,,,,,,,,,,,,,,,,,,,,,,,
1577535320.668284,43.000000,0.000000,4244.615234,4485.128418,4136.922852,3937.435791,4200.000000,0.000000,2.000000,,,,0.000000,4.000000,4.000000,4.000000,4.000000,4.000000,,,,,,,,,,,,,,,,,,,,,,,,,
1577535320.676109,44.000000,0.000000,4281.538574,4518.974121,4178.461426,3973.846191,4230.769043,0.000000,2.000000,,,,0.000000,4.000000,4.000000,4.000000,4.000000,4.000000,,,,,,,,,,,,,,,,,,,,,,,,,
1577535320.683835,45.000000,0.000000,4282.051270,4507.692383,4172.307617,3986.153809,4234.358887,0.000000,2.000000,,,,0.000000,4.000000,4.000000,4.000000,4.000000,4.000000,,,,,,,,,,,,,,,,,,,,,,,,,
1577535320.691660,46.000000,0.000000,4235.897461,4486.153809,4148.717773,3958.461426,4193.333496,0.000000,2.000000,,,,0.000000,4.000000,4.000000,4.000000,4.000000,4.000000,,,,,,,,,,,,,,,,,,,,,,,,,
1577535320.699385,47.000000,0.000000,4273.333496,4520.512695,4181.538574,3974.358887,4216.922852,0.000000,2.000000,,,,0.000000,4.000000,4.000000,4.000000,4.000000,4.000000,,,,,,,,,,,,,,,,,,,,,,,,,
1577535320.707210,48.000000,0.000000,4329.743652,4534.358887,4212.820313,4003.076904,4273.333496,0.000000,2.000000,,,,0.000000,4.000000,4.000000,4.000000,4.000000,4.000000,,,,,,,,,,,,,,,,,,,,,,,,,
1577535320.714934,49.000000,0.000000,4312.820313,4497.436035,4209.230957,3988.718018,4273.846191,0.000000,2.000000,,,,0.000000,4.000000,4.000000,4.000000,4.000000,4.000000,,,,,,,,,,,,,,,,,,,,,,,,,
1577535320.722663,50.000000,0.000000,4301.538574,4485.128418,4194.871582,3969.743652,4267.692383,0.000000,2.000000,,,,0.000000,4.000000,4.000000,4.000000,4.000000,4.000000,,,,,,,,,,,,,,,,,,,,,,,,,
1577535320.730491,51.000000,0.000000,4296.410156,4505.641113,4190.256348,3953.333252,4260.512695,0.000000,2.000000,,,,0.000000,4.000000,4.000000,4.000000,4.000000,4.000000,,,,,,,,,,,,,,,,,,,,,,,,,
1577535320.738220,52.000000,0.000000,4246.153809,4505.641113,4158.974121,3911.794922,4208.205078,0.000000,2.000000,,,,0.000000,4.000000,4.000000,4.000000,4.000000,4.000000,,,,,,,,,,,,,,,,,,,,,,,,,
1577535320.746048,53.000000,0.000000,4212.307617,4491.794922,4136.922852,3884.615479,4175.384766,0.000000,2.000000,,,,0.000000,4.000000,4.000000,4.000000,4.000000,4.000000,,,,,,,,,,,,,,,,,,,,,,,,,
1577535320.753775,54.000000,0.000000,4236.410156,4495.897461,4175.897461,3911.281982,4201.538574,0.000000,2.000000,,,,0.000000,4.000000,4.000000,4.000000,4.000000,4.000000,,,,,,,,,,,,,,,,,,,,,,,,,
1577535320.761603,55.000000,0.000000,4285.641113,4520.512695,4201.538574,3955.897461,4248.205078,0.000000,2.000000,,,,0.000000,4.000000,4.000000,4.000000,4.000000,4.000000,,,,,,,,,,,,,,,,,,,,,,,,,
1577535320.769331,56.000000,0.000000,4321.025879,4528.717773,4212.307617,3984.102539,4287.692383,0.000000,2.000000,,,,0.000000,4.000000,4.000000,4.000000,4.000000,4.000000,15.541116,8.471786,7.230809,4.203569,6.295799,1.062763,1.495011,1.508449,1.821773,4.142992,4.383512,3.926637,3.157623,1.897001,3.436123,11.325168,5.598947,4.675266,2.731663,4.067774,12.573100,8.257537,6.640415,4.165420,5.559749
1577535320.777158,57.000000,0.000000,4305.641113,4494.358887,4211.282227,3981.025635,4272.307617,0.000000,2.000000,,,,0.000000,4.000000,4.000000,4.000000,4.000000,4.000000,,,,,,,,,,,,,,,,,,,,,,,,,
1577535320.784886,58.000000,0.000000,4267.692383,4475.384766,4182.051270,3960.512939,4228.205078,0.000000,2.000000,,,,0.000000,4.000000,4.000000,4.000000,4.000000,4.000000,,,,,,,,,,,,,,,,,,,,,,,,,
1577535320.792713,59.000000,0.000000,4269.230957,4501.538574,4181.538574,3960.000000,4229.743652,0.000000,2.000000,,,,0.000000,4.000000,4.000000,4.000000,4.000000,4.000000,,,,,,,,,,,,,,,,,,,,,,,,,
1577535320.800440,60.000000,0.000000,4283.077148,4531.794922,4186.153809,3974.871826,4249.230957,0.000000,2.000000,,,,0.000000,4.000000,4.000000,4.000000,4.000000,4.000000,,,,,,,,,,,,,,,,,,,,,,,,,
1577535320.808267,61.000000,0.000000,4280.512695,4536.922852,4182.051270,3976.410156,4246.153809,0.000000,2.000000,,,,0.000000,4.000000,4.000000,4.000000,4.000000,4.000000,,,,,,,,,,,,,,,,,,,,,,,,,
1577535320.815993,62.000000,0.000000,4258.461426,4496.410156,4173.846191,3959.487061,4223.589844,0.000000,2.000000,,,,0.000000,4.000000,4.000000,4.000000,4.000000,4.000000,,,,,,,,,,,,,,,,,,,,,,,,,
1577535320.823819,63.000000,0.000000,4209.743652,4462.563965,4140.000000,3938.974365,4186.153809,0.000000,2.000000,,,,0.000000,4.000000,4.000000,4.000000,4.000000,4.000000,,,,,,,,,,,,,,,,,,,,,,,,,
1577535320.831545,64.000000,0.000000,4191.794922,4497.436035,4149.743652,3952.307617,4176.410156,450.000000,2.000000,,,,0.000000,4.000000,4.000000,4.000000,4.000000,4.000000,,,,,,,,,,,,,,,,,,,,,,,,,
1577535320.839276,65.000000,0.000000,4217.436035,4518.461426,4178.461426,3981.025635,4197.948730,450.000000,2.000000,,,,0.000000,4.000000,4.000000,4.000000,4.000000,4.000000,,,,,,,,,,,,,,,,,,,,,,,,,
1577535320.847106,66.000000,0.000000,4222.051270,4490.256348,4166.153809,3978.974365,4202.051270,16224.000000,2.000000,,,,0.000000,4.000000,4.000000,4.000000,4.000000,4.000000,,,,,,,,,,,,,,,,,,,,,,,,,
1577535320.854835,67.000000,0.000000,4215.384766,4487.179688,4162.563965,3977.435791,4199.487305,450.000000,2.000000,,,,0.000000,4.000000,4.000000,4.000000,4.000000,4.000000,,,,,,,,,,,,,,,,,,,,,,,,,
1577535320.862665,68.000000,0.000000,4225.641113,4519.487305,4175.897461,3992.820557,4217.948730,16119.000000,2.000000,,,,0.000000,4.000000,4.000000,4.000000,4.000000,4.000000,,,,,,,,,,,,,,,,,,,,,,,,,
1577535320.870394,69.000000,0.000000,4237.436035,4544.102539,4193.846191,3996.410156,4238.974121,450.000000,2.000000,,,,0.000000,4.000000,4.000000,4.000000,4.000000,4.000000,,,,,,,,,,,,,,,,,,,,,,,,,
1577535320.878223,70.000000,0.000000,4232.307617,4526.153809,4175.384766,3978.974365,4224.615234,16083.000000,2.000000,,,,0.000000,4.000000,4.000000,4.000000,4.000000,4.000000,,,,,,,,,,,,,,,,,,,,,,,,,
1577535320.885952,71.000000,0.000000,4196.922852,4495.897461,4141.025879,3949.743652,4182.563965,450.000000,2.000000,,,,0.000000,4.000000,4.000000,4.000000,4.000000,4.000000,,,,,,,,,,,,,,,,,,,,,,,,,
1577535320.893781,72.000000,0.000000,4176.922852,4498.461426,4160.512695,3950.256348,4167.179688,450.000000,2.000000,,,,0.000000,4.000000,4.000000,4.000000,4.000000,4.000000,10.057111,8.674565,6.752964,4.104126,5.880073,0.827552,1.766001,1.279248,2.030963,4.380834,3.788574,4.294413,3.556368,1.984003,3.464468,11.993834,5.500341,5.793724,2.565703,3.940565,9.247169,8.481549,6.386425,4.102735,5.586536
1577535320.901510,73.000000,0.000000,4226.666504,4509.743652,4185.128418,3992.307617,4211.794922,16114.000000,2.000000,,,,0.000000,4.000000,4.000000,4.000000,4.000000,4.000000,,,,,,,,,,,,,,,,,,,,,,,,,
1577535320.909339,74.000000,0.000000,4272.820313,4489.230957,4186.153809,4015.897461,4252.820313,450.000000,2.000000,,,,0.000000,4.000000,4.000000,4.000000,4.000000,4.000000,,,,,,,,,,,,,,,,,,,,,,,,,
1577535320.917067,75.000000,0.000000,4249.230957,4492.307617,4173.846191,3997.948730,4234.871582,16209.000000,2.000000,,,,0.000000,4.000000,4.000000,4.000000,4.000000,4.000000,,,,,,,,,,,,,,,,,,,,,,,,,
1577535320.924895,76.000000,0.000000,4209.743652,4516.922852,4157.436035,3978.461426,4200.000000,450.000000,2.000000,,,,0.000000,4.000000,4.000000,4.000000,4.000000,4.000000,,,,,,,,,,,,,,,,,,,,,,,,,
1577535320.932623,77.000000,0.000000,4219.487305,4516.410156,4171.794922,3992.820557,4196.410156,450.000000,2.000000,,,,0.000000,4.000000,4.000000,4.000000,4.000000,4.000000,,,,,,,,,,,,,,,,,,,,,,,,,
1577535320.940451,78.000000,0.000000,4250.256348,4512.307617,4179.487305,4022.051270,4222.051270,450.000000,2.000000,,,,0.000000,4.000000,4.000000,4.000000,4.000000,4.000000,,,,,,,,,,,,,,,,,,,,,,,,,
1577535320.948279,79.000000,0.000000,4235.897461,4508.717773,4167.692383,4013.846191,4225.128418,16209.000000,2.000000,,,,0.000000,4.000000,4.000000,4.000000,4.000000,4.000000,,,,,,,,,,,,,,,,,,,,,,,,,
1577535320.956002,80.000000,0.000000,4201.025879,4503.077148,4156.922852,3984.615479,4189.230957,450.000000,2.000000,,,,0.000000,4.000000,4.000000,4.000000,4.000000,4.000000,,,,,,,,,,,,,,,,,,,,,,,,,
1577535320.963729,81.000000,0.000000,4191.794922,4500.000000,4136.410156,3968.205078,4161.538574,450.000000,2.000000,,,,0.000000,4.000000,4.000000,4.000000,4.000000,4.000000,,,,,,,,,,,,,,,,,,,,,,,,,
1577535320.971556,82.000000,0.000000,4211.282227,4505.128418,4151.794922,3987.692383,4186.153809,450.000000,2.000000,,,,0.000000,4.000000,4.000000,4.000000,4.000000,4.000000,,,,,,,,,,,,,,,,,,,,,,,,,
1577535320.979283,83.000000,0.000000,4244.102539,4510.769043,4177.948730,4025.128174,4226.666504,16209.000000,2.000000,,,,0.000000,4.000000,4.000000,4.000000,4.000000,4.000000,,,,,,,,,,,,,,,,,,,,,,,,,
1577535320.987109,84.000000,0.000000,4241.025879,4501.025879,4174.871582,4024.102539,4213.846191,450.000000,2.000000,,,,0.000000,4.000000,4.000000,4.000000,4.000000,4.000000,,,,,,,,,,,,,,,,,,,,,,,,,
1577535320.994836,85.000000,0.000000,4247.692383,4505.128418,4191.282227,4026.153809,4211.282227,450.000000,2.000000,,,,0.000000,4.000000,4.000000,4.000000,4.000000,4.000000,,,,,,,,,,,,,,,,,,,,,,,,,
1577535321.002566,86.000000,0.000000,4285.128418,4518.974121,4201.025879,4050.769287,4250.256348,450.000000,2.000000,,,,0.000000,4.000000,4.000000,4.000000,4.000000,4.000000,,,,,,,,,,,,,,,,,,,,,,,,,
1577535321.010397,87.000000,0.000000,4249.230957,4503.589844,4167.692383,4029.230713,4222.563965,16209.000000,2.000000,,,,0.000000,4.000000,4.000000,4.000000,4.000000,4.000000,,,,,,,,,,,,,,,,,,,,,,,,,
1577535321.018228,88.000000,0.000000,4188.205078,4489.743652,4131.282227,3994.358887,4160.000000,450.000000,2.000000,,,,0.000000,4.000000,4.000000,4.000000,4.000000,4.000000,7.264089,8.688095,7.062680,4.048061,5.495077,0.629820,2.102163,1.123911,2.308008,4.580523,3.391958,4.794787,3.971665,2.075322,3.428661,14.753946,6.610742,7.407795,2.513650,3.769551,7.287013,8.290153,6.849012,4.102016,5.581048
1577535321.025954,89.000000,0.000000,4218.461426,4494.871582,4150.256348,4014.871826,4186.153809,450.000000,2.000000,,,,0.000000,4.000000,4.000000,4.000000,4.000000,4.000000,,,,,,,,,,,,,,,,,,,,,,,,,
1577535321.033684,90.000000,0.000000,4256.922852,4491.282227,4183.077148,4026.666748,4224.102539,450.000000,2.000000,,,,0.000000,4.000000,4.000000,4.000000,4.000000,4.000000,,,,,,,,,,,,,,,,,,,,,,,,,
1577535321.041513,91.000000,0.000000,4220.000000,4501.025879,4155.384766,3981.538574,4184.102539,16209.000000,2.000000,,,,0.000000,4.000000,4.000000,4.000000,4.000000,4.000000,,,,,,,,,,,,,,,,,,,,,,,,,
1577535321.049243,92.000000,0.000000,4195.384766,4517.948730,4149.743652,3954.871826,4158.974121,450.000000,2.000000,,,,0.000000,4.000000,4.000000,4.000000,4.000000,4.000000,,,,,,,,,,,,,,,,,,,,,,,,,
1577535321.057072,93.000000,0.000000,4230.769043,4497.948730,4184.102539,3974.358887,4194.358887,450.000000,2.000000,,,,0.000000,4.000000,4.000000,4.000000,4.000000,4.000000,,,,,,,,,,,,,,,,,,,,,,,,,
1577535321.064902,94.000000,0.000000,4231.282227,4482.563965,4171.794922,3960.512939,4197.948730,450.000000,2.000000,,,,0.000000,4.000000,4.000000,4.000000,4.000000,4.000000,,,,,,,,,,,,,,,,,,,,,,,,,
1577535321.072627,95.000000,0.000000,4190.769043,4503.589844,4151.794922,3918.974365,4162.563965,16209.000000,2.000000,,,,0.000000,4.000000,4.000000,4.000000,4.000000,4.000000,,,,,,,,,,,,,,,,,,,,,,,,,
1577535321.080451,96.000000,0.000000,4212.307617,4518.974121,4168.717773,3939.487061,4189.230957,450.000000,2.000000,,,,0.000000,4.000000,4.000000,4.000000,4.000000,4.000000,,,,,,,,,,,,,,,,,,,,,,,,,
1577535321.088176,97.000000,0.000000,4260.512695,4505.128418,4190.256348,3974.871826,4240.000000,450.000000,2.000000,,,,0.000000,4.000000,4.000000,4.000000,4.000000,4.000000,,,,,,,,,,,,,,,,,,,,,,,,,
1577535321.096000,98.000000,0.000000,4237.948730,4491.794922,4169.743652,3953.333252,4206.666504,450.000000,2.000000,,,,0.000000,4.000000,4.000000,4.000000,4.000000,4.000000,,,,,,,,,,,,,,,,,,,,,,,,,
1577535321.103724,99.000000,0.000000,4202.051270,4491.282227,4136.410156,3940.512939,4169.230957,16209.000000,2.000000,,,,0.000000,4.000000,4.000000,4.000000,4.000000,4.000000,,,,,,,,,,,,,,,,,,,,,,,,,
1577535321.111548,100.000000,0.000000,4218.461426,4510.256348,4162.563965,3973.333252,4198.974121,450.000000,2.000000,,,,0.000000,4.000000,4.000000,4.000000,4.000000,4.000000,,,,,,,,,,,,,,,,,,,,,,,,,
1577535321.119271,101.000000,0.000000,4251.794922,4540.000000,4192.307617,4003.076904,4225.641113,450.000000,2.000000,,,,0.000000,4.000000,4.000000,4.000000,4.000000,4.000000,,,,,,,,,,,,,,,,,,,,,,,,,
1577535321.127095,102.000000,0.000000,4264.615234,4534.871582,4194.358887,4010.256348,4229.743652,450.000000,2.000000,,,,0.000000,4.000000,4.000000,4.000000,4.000000,4.000000,,,,,,,,,,,,,,,,,,,,,,,,,
1577535321.134818,103.000000,0.000000,4260.512695,4512.307617,4200.000000,4009.743652,4235.897461,16209.000000,2.000000,,,,0.000000,4.000000,4.000000,4.000000,4.000000,4.000000,,,,,,,,,,,,,,,,,,,,,,,,,
1577535321.142546,104.000000,0.000000,4254.358887,4507.692383,4194.871582,3998.974365,4237.948730,450.000000,2.000000,,,,0.000000,4.000000,4.000000,4.000000,4.000000,4.000000,6.479256,8.528808,7.980933,4.168596,5.204047,0.479846,2.538643,1.022009,2.603277,4.693503,3.139212,5.102608,4.327224,2.172996,3.340509,17.003672,7.995082,8.867477,2.577384,3.572170,6.421416,7.764842,7.770689,4.261743,5.530117
1577535321.150373,105.000000,0.000000,4249.743652,4491.794922,4192.307617,3982.564209,4230.769043,450.000000,2.000000,,,,0.000000,4.000000,4.000000,4.000000,4.000000,4.000000,,,,,,,,,,,,,,,,,,,,,,,,,
1577535321.158099,106.000000,0.000000,4252.307617,4474.871582,4185.128418,3978.974365,4225.128418,450.000000,2.000000,,,,0.000000,4.000000,4.000000,4.000000,4.000000,4.000000,,,,,,,,,,,,,,,,,,,,,,,,,
1577535321.165926,107.000000,0.000000,4244.615234,4494.358887,4174.358887,3969.743652,4217.948730,16209.000000,2.000000,,,,0.000000,4.000000,4.000000,4.000000,4.000000,4.000000,,,,,,,,,,,,,,,,,,,,,,,,,
1577535321.173652,108.000000,0.000000,4218.974121,4508.205078,4176.922852,3947.179443,4194.358887,450.000000,2.000000,,,,0.000000,4.000000,4.000000,4.000000,4.000000,4.000000,,,,,,,,,,,,,,,,,,,,,,,,,
1577535321.181479,109.000000,0.000000,4220.000000,4495.897461,4178.461426,3953.846191,4190.256348,450.000000,2.000000,,,,0.000000,4.000000,4.000000,4.000000,4.000000,4.000000,,,,,,,,,,,,,,,,,,,,,,,,,
1577535321.189205,110.000000,0.000000,4234.358887,4513.846191,4189.743652,3971.281982,4201.025879,450.000000,2.000000,,,,0.000000,4.000000,4.000000,4.000000,4.000000,4.000000,,,,,,,,,,,,,,,,,,,,,,,,,
1577535321.197031,111.000000,0.000000,4213.846191,4529.230957,4183.077148,3954.358887,4183.077148,16209.000000,2.000000,,,,0.000000,4.000000,4.000000,4.000000,4.000000,4.000000,,,,,,,,,,,,,,,,,,,,,,,,,
1577535321.204756,112.000000,0.000000,4188.717773,4487.692383,4158.974121,3935.897461,4167.179688,450.000000,2.000000,,,,0.000000,4.000000,4.000000,4.000000,4.000000,4.000000,,,,,,,,,,,,,,,,,,,,,,,,,
1577535321.212581,113.000000,0.000000,4195.897461,4480.512695,4169.743652,3945.641113,4173.846191,450.000000,2.000000,,,,0.000000,4.000000,4.000000,4.000000,4.000000,4.000000,,,,,,,,,,,,,,,,,,,,,,,,,
1577535321.220307,114.000000,0.000000,4214.358887,4526.153809,4176.410156,3956.923096,4187.692383,450.000000,2.000000,,,,0.000000,4.000000,4.000000,4.000000,4.000000,4.000000,,,,,,,,,,,,,,,,,,,,,,,,,
1577535321.228132,115.000000,0.000000,4210.256348,4529.743652,4165.641113,3944.615479,4190.769043,16209.000000,2.000000,,,,0.000000,4.000000,4.000000,4.000000,4.000000,4.000000,,,,,,,,,,,,,,,,,,,,,,,,,
1577535321.235857,116.000000,0.000000,4195.897461,4501.538574,4164.615234,3932.820557,4184.102539,450.000000,2.000000,,,,0.000000,4.000000,4.000000,4.000000,4.000000,4.000000,,,,,,,,,,,,,,,,,,,,,,,,,
1577535321.243681,117.000000,0.000000,4202.563965,4496.922852,4163.077148,3942.564209,4190.256348,450.000000,2.000000,,,,0.000000,4.000000,4.000000,4.000000,4.000000,4.000000,,,,,,,,,,,,,,,,,,,,,,,,,
1577535321.251406,118.000000,0.000000,4249.230957,4513.846191,4203.589844,3979.487061,4231.282227,450.000000,2.000000,,,,0.000000,4.000000,4.000000,4.000000,4.000000,4.000000,,,,,,,,,,,,,,,,,,,,,,,,,
1577535321.259134,119.000000,0.000000,4282.051270,4527.692383,4227.692383,4002.051270,4267.692383,16209.000000,2.000000,,,,0.000000,4.000000,4.000000,4.000000,4.000000,4.000000,,,,,,,,,,,,,,,,,,,,,,,,,
1577535321.266962,120.000000,0.000000,4233.333496,4508.205078,4186.153809,3963.076904,4230.769043,450.000000,2.000000,,,,0.000000,4.000000,4.000000,4.000000,4.000000,4.000000,6.874904,8.440738,9.207040,4.536475,5.042068,0.395261,3.062080,0.980235,2.864531,4.680398,2.970315,5.113977,4.628160,2.292473,3.216450,17.625208,9.294290,9.794218,2.731669,3.382087,6.345542,7.227211,8.832229,4.633315,5.440109
1577535321.274690,121.000000,0.000000,4180.512695,4469.743652,4163.077148,3929.743652,4173.333496,450.000000,2.000000,,,,0.000000,4.000000,4.000000,4.000000,4.000000,4.000000,,,,,,,,,,,,,,,,,,,,,,,,,
1577535321.282518,122.000000,0.000000,4205.641113,4480.512695,4183.589844,3954.358887,4188.717773,450.000000,2.000000,,,,0.000000,4.000000,4.000000,4.000000,4.000000,4.000000,,,,,,,,,,,,,,,,,,,,,,,,,
1577535321.290246,123.000000,0.000000,4243.589844,4512.307617,4208.717773,3983.076904,4226.153809,16209.000000,2.000000,,,,0.000000,4.000000,4.000000,4.000000,4.000000,4.000000,,,,,,,,,,,,,,,,,,,,,,,,,
1577535321.298074,124.000000,0.000000,4233.333496,4500.512695,4191.794922,3976.410156,4216.922852,450.000000,2.000000,,,,0.000000,4.000000,4.000000,4.000000,4.000000,4.000000,,,,,,,,,,,,,,,,,,,,,,,,,
1577535321.305801,125.000000,0.000000,4219.487305,4504.102539,4180.000000,3970.256348,4207.692383,450.000000,2.000000,,,,0.000000,4.000000,4.000000,4.000000,4.000000,4.000000,,,,,,,,,,,,,,,,,,,,,,,,,
1577535321.313628,126.000000,0.000000,4248.205078,4535.384766,4213.333496,3999.487061,4234.358887,450.000000,2.000000,,,,0.000000,4.000000,4.000000,4.000000,4.000000,4.000000,,,,,,,,,,,,,,,,,,,,,,,,,
1577535321.321355,127.000000,0.000000,4286.666504,4510.769043,4225.128418,4023.076904,4267.692383,230.000000,2.000000,,,,0.000000,4.000000,4.000000,4.000000,4.000000,4.000000,,,,,,,,,,,,,,,,,,,,,,,,,
1577535321.329181,0.000000,0.000000,4283.077148,4476.922852,4221.025879,4005.128174,4274.871582,450.000000,2.000000,,,,0.000000,4.000000,4.000000,4.000000,4.000000,4.000000,,,,,,,,,,,,,,,,,,,,,,,,,
1577535321.336908,1.000000,0.000000,4254.358887,4509.230957,4215.384766,3978.461426,4245.128418,450.000000,2.000000,,,,0.000000,4.000000,4.000000,4.000000,4.000000,4.000000,,,,,,,,,,,,,,,,,,,,,,,,,
1577535321.344735,2.000000,0.000000,4227.692383,4508.717773,4189.743652,3962.051270,4204.615234,16217.000000,2.000000,,,,0.000000,4.000000,4.000000,4.000000,4.000000,4.000000,,,,,,,,,,,,,,,,,,,,,,,,,
1577535321.352461,3.000000,0.000000,4226.153809,4489.743652,4191.282227,3967.692383,4199.487305,450.000000,2.000000,,,,0.000000,4.000000,4.000000,4.000000,4.000000,4.000000,,,,,,,,,,,,,,,,,,,,,,,,,
1577535321.360287,4.000000,0.000000,4256.922852,4522.051270,4207.692383,3993.333252,4230.769043,16125.000000,2.000000,,,,0.000000,4.000000,4.000000,4.000000,4.000000,4.000000,,,,,,,,,,,,,,,,,,,,,,,,,
1577535321.368013,5.000000,0.000000,4238.974121,4500.000000,4184.615234,3975.384521,4218.461426,450.000000,2.000000,,,,0.000000,4.000000,4.000000,4.000000,4.000000,4.000000,,,,,,,,,,,,,,,,,,,,,,,,,
1577535321.375839,6.000000,0.000000,4189.743652,4461.538574,4149.230957,3946.153809,4169.230957,16078.000000,2.000000,,,,0.000000,4.000000,4.000000,4.000000,4.000000,4.000000,,,,,,,,,,,,,,,,,,,,,,,,,
1577535321.383565,7.000000,0.000000,4198.461426,4498.974121,4154.358887,3964.615479,4168.717773,450.000000,2.000000,,,,0.000000,4.000000,4.000000,4.000000,4.000000,4.000000,,,,,,,,,,,,,,,,,,,,,,,,,
1577535321.391390,8.000000,0.000000,4227.179688,4514.871582,4190.769043,3979.487061,4198.461426,450.000000,2.000000,,,,0.000000,4.000000,4.000000,4.000000,4.000000,4.000000,7.586056,8.571793,10.369118,5.075066,5.010452,0.381126,3.578834,1.032025,3.034676,4.514363,2.874764,4.834914,4.895292,2.434530,3.072538,16.339514,10.356913,10.050463,2.917884,3.226127,6.616762,6.926119,9.715652,5.143717,5.331895
1577535321.399115,9.000000,0.000000,4220.512695,4480.000000,4184.615234,3962.564209,4202.051270,16112.000000,2.000000,,,,0.000000,4.000000,4.000000,4.000000,4.000000,4.000000,,,,,,,,,,,,,,,,,,,,,,,,,
1577535321.406844,10.000000,0.000000,4226.666504,4494.358887,4177.948730,3963.076904,4211.794922,450.000000,2.000000,,,,0.000000,4.000000,4.000000,4.000000,4.000000,4.000000,,,,,,,,,,,,,,,,,,,,,,,,,
1577535321.414673,11.000000,0.000000,4268.717773,4527.692383,4206.666504,3980.000000,4240.000000,16208.000000,2.000000,,,,0.000000,4.000000,4.000000,4.000000,4.000000,4.000000,,,,,,,,,,,,,,,,,,,,,,,,,
1577535321.422502,12.000000,0.000000,4251.282227,4491.794922,4173.846191,3953.333252,4215.897461,450.000000,2.000000,,,,0.000000,4.000000,4.000000,4.000000,4.000000,4.000000,,,,,,,,,,,,,,,,,,,,,,,,,
1577535321.430226,13.000000,0.000000,4186.666504,4475.384766,4131.794922,3934.871826,4169.230957,450.000000,2.000000,,,,0.000000,4.000000,4.000000,4.000000,4.000000,4.000000,,,,,,,,,,,,,,,,,,,,,,,,,
1577535321.438051,14.000000,0.000000,4195.384766,4511.282227,4156.922852,3980.000000,4186.153809,450.000000,2.000000,,,,0.000000,4.000000,4.000000,4.000000,4.000000,4.000000,,,,,,,,,,,,,,,,,,,,,,,,,
1577535321.445775,15.000000,0.000000,4257.948730,4518.974121,4200.000000,4017.948730,4233.846191,16208.000000,2.000000,,,,0.000000,4.000000,4.000000,4.000000,4.000000,4.000000,,,,,,,,,,,,,,,,,,,,,,,,,
1577535321.453503,16.000000,0.000000,4272.820313,4504.615234,4206.153809,4011.281982,4241.025879,0.000000,2.000000,,,,0.000000,4.000000,4.000000,4.000000,4.000000,4.000000,,,,,,,,,,,,,,,,,,,,,,,,,
1577535321.461332,17.000000,0.000000,4246.666504,4514.358887,4184.615234,4003.589844,4226.666504,0.000000,2.000000,,,,0.000000,4.000000,4.000000,4.000000,4.000000,4.000000,,,,,,,,,,,,,,,,,,,,,,,,,
1577535321.469060,18.000000,0.000000,4238.974121,4522.051270,4184.615234,4003.076904,4218.974121,0.000000,2.000000,,,,0.000000,4.000000,4.000000,4.000000,4.000000,4.000000,,,,,,,,,,,,,,,,,,,,,,,,,
1577535321.476888,19.000000,0.000000,4235.384766,4490.769043,4180.512695,3991.794922,4203.589844,0.000000,2.000000,,,,0.000000,4.000000,4.000000,4.000000,4.000000,4.000000,,,,,,,,,,,,,,,,,,,,,,,,,
1577535321.484615,20.000000,0.000000,4228.717773,4487.179688,4173.333496,3988.205078,4201.538574,0.000000,2.000000,,,,0.000000,4.000000,4.000000,4.000000,4.000000,4.000000,,,,,,,,,,,,,,,,,,,,,,,,,
1577535321.492443,21.000000,0.000000,4229.743652,4501.025879,4186.666504,3997.435791,4207.179688,0.000000,2.000000,,,,0.000000,4.000000,4.000000,4.000000,4.000000,4.000000,,,,,,,,,,,,,,,,,,,,,,,,,
1577535321.500270,22.000000,0.000000,4230.256348,4503.077148,4177.436035,3998.974365,4201.538574,0.000000,2.000000,,,,0.000000,4.000000,4.000000,4.000000,4.000000,4.000000,,,,,,,,,,,,,,,,,,,,,,,,,
1577535321.507994,23.000000,0.000000,4218.461426,4519.487305,4170.769043,3989.743652,4195.384766,0.000000,2.000000,,,,0.000000,4.000000,4.000000,4.000000,4.000000,4.000000,,,,,,,,,,,,,,,,,,,,,,,,,
1577535321.515720,24.000000,0.000000,4208.205078,4528.205078,4183.077148,3981.538574,4191.282227,0.000000,2.000000,,,,0.000000,4.000000,4.000000,4.000000,4.000000,4.000000,8.254912,8.860987,11.159241,5.607634,5.082599,0.432483,3.954509,1.199321,3.095914,4.210528,2.894815,4.351522,5.158209,2.575893,2.925299,14.099481,11.109002,9.741527,3.072712,3.120342,7.039437,6.899028,10.243148,5.645938,5.235847
1577535321.523547,25.000000,0.000000,4234.358887,4522.051270,4192.820313,3988.718018,4215.384766,0.000000,2.000000,,,,0.000000,4.000000,4.000000,4.000000,4.000000,4.000000,,,,,,,,,,,,,,,,,,,,,,,,,
1577535321.531374,26.000000,0.000000,4253.333496,4502.563965,4193.846191,3984.102539,4236.410156,0.000000,2.000000,,,,0.000000,4.000000,4.000000,4.000000,4.000000,4.000000,,,,,,,,,,,,,,,,,,,,,,,,,
1577535321.539096,27.000000,0.000000,4230.769043,4490.256348,4169.230957,3958.461426,4211.794922,0.000000,2.000000,,,,0.000000,4.000000,4.000000,4.000000,4.000000,4.000000,,,,,,,,,,,,,,,,,,,,,,,,,
1577535321.546822,28.000000,0.000000,4236.410156,4507.692383,4172.307617,3965.128174,4208.717773,0.000000,2.000000,,,,0.000000,4.000000,4.000000,4.000000,4.000000,4.000000,,,,,,,,,,,,,,,,,,,,,,,,,
1577535321.554648,29.000000,0.000000,4278.974121,4512.820313,4202.051270,4004.102539,4251.282227,0.000000,2.000000,,,,0.000000,4.000000,4.000000,4.000000,4.000000,4.000000,,,,,,,,,,,,,,,,,,,,,,,,,
1577535321.562373,30.000000,0.000000,4267.179688,4493.333496,4180.000000,3994.358887,4249.743652,0.000000,2.000000,,,,0.000000,4.000000,4.000000,4.000000,4.000000,4.000000,,,,,,,,,,,,,,,,,,,,,,,,,
1577535321.570103,31.000000,0.000000,4242.563965,4506.153809,4170.769043,3969.230713,4225.128418,0.000000,2.000000,,,,0.000000,4.000000,4.000000,4.000000,4.000000,4.000000,,,,,,,,,,,,,,,,,,,,,,,,,
1577535321.577932,32.000000,0.000000,4273.846191,4531.282227,4193.846191,3995.384521,4248.205078,0.000000,2.000000,,,,0.000000,4.000000,4.000000,4.000000,4.000000,4.000000,,,,,,,,,,,,,,,,,,,,,,,,,
1577535321.585661,33.000000,0.000000,4268.717773,4513.846191,4183.077148,4009.743652,4246.666504,0.000000,2.000000,,,,0.000000,4.000000,4.000000,4.000000,4.000000,4.000000,,,,,,,,,,,,,,,,,,,,,,,,,
1577535321.593490,34.000000,0.000000,4234.871582,4488.205078,4177.948730,4004.102539,4210.256348,0.000000,2.000000,,,,0.000000,4.000000,4.000000,4.000000,4.000000,4.000000,,,,,,,,,,,,,,,,,,,,,,,,,
1577535321.601319,35.000000,0.000000,4224.615234,4475.384766,4171.282227,4000.512939,4191.794922,0.000000,2.000000,,,,0.000000,4.000000,4.000000,4.000000,4.000000,4.000000,,,,,,,,,,,,,,,,,,,,,,,,,
1577535321.609043,36.000000,0.000000,4189.743652,4484.102539,4146.666504,3974.871826,4162.051270,0.000000,2.000000,,,,0.000000,4.000000,4.000000,4.000000,4.000000,4.000000,,,,,,,,,,,,,,,,,,,,,,,,,
1577535321.616868,37.000000,0.000000,4172.307617,4506.666504,4151.282227,3971.281982,4152.820313,0.000000,2.000000,,,,0.000000,4.000000,4.000000,4.000000,4.000000,4.000000,,,,,,,,,,,,,,,,,,,,,,,,,
1577535321.624593,38.000000,0.000000,4208.205078,4504.615234,4181.025879,3997.948730,4188.717773,0.000000,2.000000,,,,0.000000,4.000000,4.000000,4.000000,4.000000,4.000000,,,,,,,,,,,,,,,,,,,,,,,,,
1577535321.632417,39.000000,0.000000,4220.512695,4496.922852,4186.666504,3997.435791,4197.436035,0.000000,2.000000,,,,0.000000,4.000000,4.000000,4.000000,4.000000,4.000000,,,,,,,,,,,,,,,,,,,,,,,,,
1577535321.640141,40.000000,0.000000,4202.051270,4509.230957,4169.743652,3980.000000,4183.589844,0.000000,2.000000,,,,0.000000,4.000000,4.000000,4.000000,4.000000,4.000000,9.031236,8.999454,11.421924,5.953914,5.207967,0.518480,4.073722,1.492855,3.059381,3.834514,3.030931,3.763461,5.421195,2.680047,2.791272,12.083197,11.436945,9.086061,3.144030,3.069366,7.781333,6.962078,10.407530,5.982968,5.167993
1577535321.647869,41.000000,0.000000,4218.461426,4517.436035,4192.307617,3994.871826,4208.717773,0.000000,2.000000,,,,0.000000,4.000000,4.000000,4.000000,4.000000,4.000000,,,,,,,,,,,,,,,,,,,,,,,,,
1577535321.655697,42.000000,0.000000,4225.641113,4513.333496,4185.641113,3992.307617,4209.743652,0.000000,2.000000,,,,0.000000,4.000000,4.000000,4.000000,4.000000,4.000000,,,,,,,,,,,,,,,,,,,,,,,,,
1577535321.663525,43.000000,0.000000,4196.922852,4501.025879,4143.077148,3961.538574,4171.282227,0.000000,2.000000,,,,0.000000,4.000000,4.000000,4.000000,4.000000,4.000000,,,,,,,,,,,,,,,,,,,,,,,,,
1577535321.671248,44.000000,0.000000,4213.333496,4503.589844,4168.717773,3980.512939,4188.205078,0.000000,2.000000,,,,0.000000,4.000000,4.000000,4.000000,4.000000,4.000000,,,,,,,,,,,,,,,,,,,,,,,,,
1577535321.678975,45.000000,0.000000,4250.256348,4515.897461,4190.256348,4011.794922,4233.846191,0.000000,2.000000,,,,0.000000,4.000000,4.000000,4.000000,4.000000,4.000000,,,,,,,,,,,,,,,,,,,,,,,,,
1577535321.686802,46.000000,0.000000,4243.589844,4488.717773,4184.102539,4007.179443,4246.153809,0.000000,2.000000,,,,0.000000,4.000000,4.000000,4.000000,4.000000,4.000000,,,,,,,,,,,,,,,,,,,,,,,,,
1577535321.694529,47.000000,0.000000,4221.538574,4472.820313,4189.230957,3995.897461,4230.769043,0.000000,2.000000,,,,0.000000,4.000000,4.000000,4.000000,4.000000,4.000000,,,,,,,,,,,,,,,,,,,,,,,,,
1577535321.702355,48.000000,0.000000,4229.743652,4529.743652,4184.102539,3991.281982,4222.563965,0.000000,2.000000,,,,0.000000,4.000000,4.000000,4.000000,4.000000,4.000000,,,,,,,,,,,,,,,,,,,,,,,,,
1577535321.710082,49.000000,0.000000,4257.948730,4561.538574,4195.384766,4000.000000,4240.512695,0.000000,2.000000,,,,0.000000,4.000000,4.000000,4.000000,4.000000,4.000000,,,,,,,,,,,,,,,,,,,,,,,,,
1577535321.717812,50.000000,0.000000,4250.256348,4510.256348,4194.358887,4006.153809,4235.384766,0.000000,2.000000,,,,0.000000,4.000000,4.000000,4.000000,4.000000,4.000000,,,,,,,,,,,,,,,,,,,,,,,,,
1577535321.725642,51.000000,0.000000,4199.487305,4488.205078,4170.256348,3985.128174,4188.717773,0.000000,2.000000,,,,0.000000,4.000000,4.000000,4.000000,4.000000,4.000000,,,,,,,,,,,,,,,,,,,,,,,,,
1577535321.733472,52.000000,0.000000,4174.871582,4536.922852,4173.333496,3975.897461,4162.051270,0.000000,2.000000,,,,0.000000,4.000000,4.000000,4.000000,4.000000,4.000000,,,,,,,,,,,,,,,,,,,,,,,,,
1577535321.741198,53.000000,0.000000,4201.538574,4549.230957,4186.666504,4004.102539,4185.641113,0.000000,2.000000,,,,0.000000,4.000000,4.000000,4.000000,4.000000,4.000000,,,,,,,,,,,,,,,,,,,,,,,,,
1577535321.749023,54.000000,0.000000,4212.307617,4506.666504,4185.641113,4011.794922,4199.487305,0.000000,2.000000,,,,0.000000,4.000000,4.000000,4.000000,4.000000,4.000000,,,,,,,,,,,,,,,,,,,,,,,,,
1577535321.756748,55.000000,0.000000,4202.563965,4490.769043,4174.358887,3996.410156,4196.410156,0.000000,2.000000,,,,0.000000,4.000000,4.000000,4.000000,4.000000,4.000000,,,,,,,,,,,,,,,,,,,,,,,,,
1577535321.764573,56.000000,0.000000,4199.487305,4495.384766,4168.205078,3986.153809,4195.897461,0.000000,2.000000,,,,0.000000,4.000000,4.000000,4.000000,4.000000,4.000000,9.599087,8.697330,11.136860,6.014211,5.329000,0.593998,3.886129,1.863239,2.941350,3.475981,3.337615,3.157372,5.651883,2.719182,2.686628,11.218468,11.264837,8.328971,3.107281,3.061934,8.710455,6.915084,10.266031,6.054525,5.115090
1577535321.772306,57.000000,0.000000,4206.666504,4501.025879,4182.563965,3988.205078,4190.769043,0.000000,2.000000,,,,0.000000,4.000000,4.000000,4.000000,4.000000,4.000000,,,,,,,,,,,,,,,,,,,,,,,,,
1577535321.780243,58.000000,0.000000,4227.179688,4520.512695,4188.205078,4004.615479,4206.153809,0.000000,2.000000,,,,0.000000,4.000000,4.000000,4.000000,4.000000,4.000000,,,,,,,,,,,,,,,,,,,,,,,,,
1577535321.788080,59.000000,0.000000,4226.666504,4502.051270,4177.948730,4000.512939,4219.487305,0.000000,2.000000,,,,0.000000,4.000000,4.000000,4.000000,4.000000,4.000000,,,,,,,,,,,,,,,,,,,,,,,,,
1577535321.795917,60.000000,0.000000,4216.410156,4478.974121,4171.282227,3983.589844,4210.769043,0.000000,2.000000,,,,0.000000,4.000000,4.000000,4.000000,4.000000,4.000000,,,,,,,,,,,,,,,,,,,,,,,,,
1577535321.803754,61.000000,0.000000,4208.717773,4508.205078,4176.410156,3978.461426,4200.512695,0.000000,2.000000,,,,0.000000,4.000000,4.000000,4.000000,4.000000,4.000000,,,,,,,,,,,,,,,,,,,,,,,,,
1577535321.811482,62.000000,0.000000,4187.692383,4515.384766,4187.692383,3980.000000,4184.615234,0.000000,2.000000,,,,0.000000,4.000000,4.000000,4.000000,4.000000,4.000000,,,,,,,,,,,,,,,,,,,,,,,,,
1577535321.819414,63.000000,0.000000,4180.512695,4492.820313,4176.410156,3986.153809,4170.769043,0.000000,2.000000,,,,0.000000,4.000000,4.000000,4.000000,4.000000,4.000000,,,,,,,,,,,,,,,,,,,,,,,,,
1577535321.827245,64.000000,0.000000,4192.307617,4514.871582,4175.384766,3990.769287,4178.461426,450.000000,2.000000,,,,0.000000,4.000000,4.000000,4.000000,4.000000,4.000000,,,,,,,,,,,,,,,,,,,,,,,,,
1577535321.835177,65.000000,0.000000,4186.153809,4524.102539,4183.589844,3984.102539,4177.948730,450.000000,2.000000,,,,0.000000,4.000000,4.000000,4.000000,4.000000,4.000000,,,,,,,,,,,,,,,,,,,,,,,,,
1577535321.843008,66.000000,0.000000,4190.769043,4475.897461,4184.102539,3988.718018,4178.461426,16226.000000,2.000000,,,,0.000000,4.000000,4.000000,4.000000,4.000000,4.000000,,,,,,,,,,,,,,,,,,,,,,,,,
1577535321.850939,67.000000,0.000000,4213.333496,4479.487305,4205.128418,4002.564209,4201.025879,450.000000,2.000000,,,,0.000000,4.000000,4.000000,4.000000,4.000000,4.000000,,,,,,,,,,,,,,,,,,,,,,,,,
1577535321.858770,68.000000,0.000000,4208.717773,4532.820313,4199.487305,3990.769287,4203.077148,16114.000000,2.000000,,,,0.000000,4.000000,4.000000,4.000000,4.000000,4.000000,,,,,,,,,,,,,,,,,,,,,,,,,
1577535321.866501,69.000000,0.000000,4203.077148,4521.538574,4186.666504,3982.051270,4202.051270,450.000000,2.000000,,,,0.000000,4.000000,4.000000,4.000000,4.000000,4.000000,,,,,,,,,,,,,,,,,,,,,,,,,
1577535321.874332,70.000000,0.000000,4222.563965,4478.461426,4195.897461,4001.025635,4217.436035,16087.000000,2.000000,,,,0.000000,4.000000,4.000000,4.000000,4.000000,4.000000,,,,,,,,,,,,,,,,,,,,,,,,,
1577535321.882063,71.000000,0.000000,4216.410156,4474.358887,4175.897461,4003.589844,4209.230957,450.000000,2.000000,,,,0.000000,4.000000,4.000000,4.000000,4.000000,4.000000,,,,,,,,,,,,,,,,,,,,,,,,,
1577535321.889894,72.000000,0.000000,4184.615234,4504.102539,4161.538574,3996.410156,4179.487305,450.000000,2.000000,,,,0.000000,4.000000,4.000000,4.000000,4.000000,4.000000,10.127120,8.047053,10.416515,5.798954,5.405304,0.640712,3.439376,2.198857,2.766056,3.204966,3.727773,2.581862,5.772601,2.698346,2.624769,11.670915,10.571207,7.587307,2.971725,3.080446,9.895067,6.811808,9.901828,5.860839,5.052557
1577535321.897624,73.000000,0.000000,4176.922852,4520.000000,4169.230957,4010.256348,4168.717773,16111.000000,2.000000,,,,0.000000,4.000000,4.000000,4.000000,4.000000,4.000000,,,,,,,,,,,,,,,,,,,,,,,,,
1577535321.905454,74.000000,0.000000,4176.410156,4484.615234,4180.000000,4016.410156,4171.794922,450.000000,2.000000,,,,0.000000,4.000000,4.000000,4.000000,4.000000,4.000000,,,,,,,,,,,,,,,,,,,,,,,,,
1577535321.913183,75.000000,0.000000,4173.846191,4466.153809,4201.025879,4016.923096,4169.743652,16210.000000,2.000000,,,,0.000000,4.000000,4.000000,4.000000,4.000000,4.000000,,,,,,,,,,,,,,,,,,,,,,,,,
1577535321.921013,76.000000,0.000000,4170.769043,4502.563965,4196.410156,4019.487061,4161.538574,450.000000,2.000000,,,,0.000000,4.000000,4.000000,4.000000,4.000000,4.000000,,,,,,,,,,,,,,,,,,,,,,,,,
1577535321.928743,77.000000,0.000000,4148.205078,4516.410156,4178.461426,4004.102539,4143.077148,450.000000,2.000000,,,,0.000000,4.000000,4.000000,4.000000,4.000000,4.000000,,,,,,,,,,,,,,,,,,,,,,,,,
1577535321.936572,78.000000,0.000000,4161.538574,4505.128418,4186.153809,4009.743652,4153.333496,450.000000,2.000000,,,,0.000000,4.000000,4.000000,4.000000,4.000000,4.000000,,,,,,,,,,,,,,,,,,,,,,,,,
1577535321.944402,79.000000,0.000000,4207.179688,4522.563965,4200.000000,4034.358887,4191.282227,16210.000000,2.000000,,,,0.000000,4.000000,4.000000,4.000000,4.000000,4.000000,,,,,,,,,,,,,,,,,,,,,,,,,
1577535321.952127,80.000000,0.000000,4223.077148,4529.743652,4210.769043,4040.512939,4209.743652,450.000000,2.000000,,,,0.000000,4.000000,4.000000,4.000000,4.000000,4.000000,,,,,,,,,,,,,,,,,,,,,,,,,
1577535321.959856,81.000000,0.000000,4232.820313,4510.256348,4211.794922,4031.794922,4227.692383,450.000000,2.000000,,,,0.000000,4.000000,4.000000,4.000000,4.000000,4.000000,,,,,,,,,,,,,,,,,,,,,,,,,
1577535321.967685,82.000000,0.000000,4243.589844,4511.794922,4208.717773,4013.846191,4238.974121,450.000000,2.000000,,,,0.000000,4.000000,4.000000,4.000000,4.000000,4.000000,,,,,,,,,,,,,,,,,,,,,,,,,
1577535321.975514,83.000000,0.000000,4232.307617,4496.922852,4207.179688,4002.564209,4228.205078,16210.000000,2.000000,,,,0.000000,4.000000,4.000000,4.000000,4.000000,4.000000,,,,,,,,,,,,,,,,,,,,,,,,,
1577535321.983238,84.000000,0.000000,4216.410156,4472.820313,4194.358887,4002.564209,4220.512695,450.000000,2.000000,,,,0.000000,4.000000,4.000000,4.000000,4.000000,4.000000,,,,,,,,,,,,,,,,,,,,,,,,,
1577535321.990967,85.000000,0.000000,4191.282227,4507.179688,4171.282227,3981.025635,4195.897461,450.000000,2.000000,,,,0.000000,4.000000,4.000000,4.000000,4.000000,4.000000,,,,,,,,,,,,,,,,,,,,,,,,,
1577535321.998795,86.000000,0.000000,4167.692383,4527.179688,4152.307617,3964.102539,4166.153809,450.000000,2.000000,,,,0.000000,4.000000,4.000000,4.000000,4.000000,4.000000,,,,,,,,,,,,,,,,,,,,,,,,,
1577535322.006523,87.000000,0.000000,4194.871582,4488.717773,4181.025879,3998.461426,4194.358887,16210.000000,2.000000,,,,0.000000,4.000000,4.000000,4.000000,4.000000,4.000000,,,,,,,,,,,,,,,,,,,,,,,,,
1577535322.014454,88.000000,0.000000,4223.077148,4485.128418,4197.436035,4022.564209,4219.487305,450.000000,2.000000,,,,0.000000,4.000000,4.000000,4.000000,4.000000,4.000000,10.584532,7.434588,9.398097,5.371776,5.402001,0.689615,2.875409,2.442204,2.564952,3.058426,4.146504,2.058938,5.674145,2.634746,2.597543,12.763975,9.432331,6.816331,2.759124,3.093551,11.258587,6.910562,9.346042,5.462462,4.941007
1577535322.022286,89.000000,0.000000,4196.410156,4515.897461,4169.743652,4005.641113,4193.846191,450.000000,2.000000,,,,0.000000,4.000000,4.000000,4.000000,4.000000,4.000000,,,,,,,,,,,,,,,,,,,,,,,,,
1577535322.030117,90.000000,0.000000,4184.102539,4509.743652,4184.102539,4020.000000,4185.128418,450.000000,2.000000,,,,0.000000,4.000000,4.000000,4.000000,4.000000,4.000000,,,,,,,,,,,,,,,,,,,,,,,,,
1577535322.037844,91.000000,0.000000,4187.179688,4489.230957,4186.153809,4034.358887,4184.615234,16210.000000,2.000000,,,,0.000000,4.000000,4.000000,4.000000,4.000000,4.000000,,,,,,,,,,,,,,,,,,,,,,,,,
1577535322.045672,92.000000,0.000000,4164.615234,4505.128418,4163.077148,4012.307617,4164.615234,450.000000,2.000000,,,,0.000000,4.000000,4.000000,4.000000,4.000000,4.000000,,,,,,,,,,,,,,,,,,,,,,,,,
1577535322.053398,93.000000,0.000000,4182.563965,4527.179688,4190.769043,4023.589844,4183.589844,450.000000,2.000000,,,,0.000000,4.000000,4.000000,4.000000,4.000000,4.000000,,,,,,,,,,,,,,,,,,,,,,,,,
1577535322.061225,94.000000,0.000000,4230.769043,4515.384766,4202.051270,4042.564209,4222.563965,450.000000,2.000000,,,,0.000000,4.000000,4.000000,4.000000,4.000000,4.000000,,,,,,,,,,,,,,,,,,,,,,,,,
1577535322.068952,95.000000,0.000000,4201.025879,4485.128418,4169.743652,4002.051270,4190.256348,16210.000000,2.000000,,,,0.000000,4.000000,4.000000,4.000000,4.000000,4.000000,,,,,,,,,,,,,,,,,,,,,,,,,
1577535322.076778,96.000000,0.000000,4176.410156,4492.820313,4170.769043,3989.230713,4164.102539,450.000000,2.000000,,,,0.000000,4.000000,4.000000,4.000000,4.000000,4.000000,,,,,,,,,,,,,,,,,,,,,,,,,
1577535322.084505,97.000000,0.000000,4246.153809,4524.615234,4213.333496,4042.564209,4237.436035,450.000000,2.000000,,,,0.000000,4.000000,4.000000,4.000000,4.000000,4.000000,,,,,,,,,,,,,,,,,,,,,,,,,
1577535322.092234,98.000000,0.000000,4268.717773,4503.077148,4218.974121,4052.820557,4271.794922,450.000000,2.000000,,,,0.000000,4.000000,4.000000,4.000000,4.000000,4.000000,,,,,,,,,,,,,,,,,,,,,,,,,
1577535322.100064,99.000000,0.000000,4191.282227,4467.179688,4160.512695,3998.974365,4193.846191,16210.000000,2.000000,,,,0.000000,4.000000,4.000000,4.000000,4.000000,4.000000,,,,,,,,,,,,,,,,,,,,,,,,,
1577535322.107794,100.000000,0.000000,4146.153809,4503.077148,4137.948730,3977.948730,4144.615234,450.000000,2.000000,,,,0.000000,4.000000,4.000000,4.000000,4.000000,4.000000,,,,,,,,,,,,,,,,,,,,,,,,,
1577535322.115623,101.000000,0.000000,4182.051270,4534.871582,4165.128418,4016.410156,4176.922852,450.000000,2.000000,,,,0.000000,4.000000,4.000000,4.000000,4.000000,4.000000,,,,,,,,,,,,,,,,,,,,,,,,,
1577535322.123352,102.000000,0.000000,4211.282227,4510.256348,4172.820313,4040.512939,4200.512695,450.000000,2.000000,,,,0.000000,4.000000,4.000000,4.000000,4.000000,4.000000,,,,,,,,,,,,,,,,,,,,,,,,,
1577535322.131181,103.000000,0.000000,4198.974121,4502.563965,4180.512695,4034.358887,4195.384766,16210.000000,2.000000,,,,0.000000,4.000000,4.000000,4.000000,4.000000,4.000000,,,,,,,,,,,,,,,,,,,,,,,,,
1577535322.138910,104.000000,0.000000,4167.692383,4508.717773,4167.179688,4018.974365,4174.358887,450.000000,2.000000,,,,0.000000,4.000000,4.000000,4.000000,4.000000,4.000000,11.107033,7.133776,8.282925,4.824637,5.278455,0.773136,2.361766,2.585985,2.374349,3.052487,4.455393,1.613788,5.304606,2.537140,2.570114,13.439481,7.983688,5.928973,2.493198,3.057009,12.711695,7.327544,8.674843,4.956164,4.732495
1577535322.146739,105.000000,0.000000,4156.410156,4498.461426,4155.897461,4008.718018,4158.974121,450.000000,2.000000,,,,0.000000,4.000000,4.000000,4.000000,4.000000,4.000000,,,,,,,,,,,,,,,,,,,,,,,,,
1577535322.154467,106.000000,0.000000,4186.666504,4501.025879,4184.615234,4028.205078,4185.641113,450.000000,2.000000,,,,0.000000,4.000000,4.000000,4.000000,4.000000,4.000000,,,,,,,,,,,,,,,,,,,,,,,,,
1577535322.162296,107.000000,0.000000,4188.717773,4498.974121,4181.538574,4028.718018,4193.333496,16210.000000,2.000000,,,,0.000000,4.000000,4.000000,4.000000,4.000000,4.000000,,,,,,,,,,,,,,,,,,,,,,,,,
1577535322.170024,108.000000,0.000000,4175.384766,4493.846191,4174.358887,4009.230713,4177.436035,450.000000,2.000000,,,,0.000000,4.000000,4.000000,4.000000,4.000000,4.000000,,,,,,,,,,,,,,,,,,,,,,,,,
1577535322.177852,109.000000,0.000000,4209.230957,4508.717773,4187.179688,4019.487061,4198.461426,450.000000,2.000000,,,,0.000000,4.000000,4.000000,4.000000,4.000000,4.000000,,,,,,,,,,,,,,,,,,,,,,,,,
1577535322.185579,110.000000,0.000000,4201.025879,4491.794922,4171.794922,3998.461426,4190.256348,450.000000,2.000000,,,,0.000000,4.000000,4.000000,4.000000,4.000000,4.000000,,,,,,,,,,,,,,,,,,,,,,,,,
1577535322.193407,111.000000,0.000000,4146.153809,4460.512695,4151.794922,3957.948730,4140.512695,16210.000000,2.000000,,,,0.000000,4.000000,4.000000,4.000000,4.000000,4.000000,,,,,,,,,,,,,,,,,,,,,,,,,
1577535322.201134,112.000000,0.000000,4168.205078,4491.282227,4165.128418,3988.718018,4167.692383,450.000000,2.000000,,,,0.000000,4.000000,4.000000,4.000000,4.000000,4.000000,,,,,,,,,,,,,,,,,,,,,,,,,
1577535322.208962,113.000000,0.000000,4237.948730,4540.512695,4194.358887,4038.461426,4235.897461,450.000000,2.000000,,,,0.000000,4.000000,4.000000,4.000000,4.000000,4.000000,,,,,,,,,,,,,,,,,,,,,,,,,
1577535322.216688,114.000000,0.000000,4232.820313,4522.051270,4173.333496,4009.230713,4218.974121,450.000000,2.000000,,,,0.000000,4.000000,4.000000,4.000000,4.000000,4.000000,,,,,,,,,,,,,,,,,,,,,,,,,
1577535322.224515,115.000000,0.000000,4184.102539,4466.153809,4146.153809,3966.153809,4170.769043,16210.000000,2.000000,,,,0.000000,4.000000,4.000000,4.000000,4.000000,4.000000,,,,,,,,,,,,,,,,,,,,,,,,,
1577535322.232242,116.000000,0.000000,4202.051270,4485.641113,4183.589844,4002.564209,4193.333496,450.000000,2.000000,,,,0.000000,4.000000,4.000000,4.000000,4.000000,4.000000,,,,,,,,,,,,,,,,,,,,,,,,,
1577535322.240069,117.000000,0.000000,4244.615234,4553.846191,4205.641113,4045.641113,4235.897461,450.000000,2.000000,,,,0.000000,4.000000,4.000000,4.000000,4.000000,4.000000,,,,,,,,,,,,,,,,,,,,,,,,,
1577535322.247795,118.000000,0.000000,4214.358887,4536.922852,4180.000000,4010.256348,4212.307617,450.000000,2.000000,,,,0.000000,4.000000,4.000000,4.000000,4.000000,4.000000,,,,,,,,,,,,,,,,,,,,,,,,,
1577535322.255622,119.000000,0.000000,4177.948730,4472.307617,4161.538574,3975.384521,4168.717773,16210.000000,2.000000,,,,0.000000,4.000000,4.000000,4.000000,4.000000,4.000000,,,,,,,,,,,,,,,,,,,,,,,,,
1577535322.263348,120.000000,0.000000,4221.538574,4503.077148,4190.769043,4013.333252,4199.487305,450.000000,2.000000,,,,0.000000,4.000000,4.000000,4.000000,4.000000,4.000000,11.495914,7.405144,7.302051,4.275798,5.014868,0.909336,2.012259,2.647578,2.219434,3.188828,4.568697,1.329291,4.721341,2.423292,2.502449,12.894408,6.423769,4.947275,2.210549,2.937661,13.882921,8.172715,8.022408,4.461658,4.406157
1577535322.271280,121.000000,0.000000,4248.205078,4544.102539,4224.615234,4033.846191,4231.282227,450.000000,2.000000,,,,0.000000,4.000000,4.000000,4.000000,4.000000,4.000000,,,,,,,,,,,,,,,,,,,,,,,,,
1577535322.279113,122.000000,0.000000,4205.128418,4489.743652,4193.333496,3995.384521,4198.461426,450.000000,2.000000,,,,0.000000,4.000000,4.000000,4.000000,4.000000,4.000000,,,,,,,,,,,,,,,,,,,,,,,,,
1577535322.286946,123.000000,0.000000,4189.230957,4467.692383,4166.153809,3981.538574,4181.025879,16210.000000,2.000000,,,,0.000000,4.000000,4.000000,4.000000,4.000000,4.000000,,,,,,,,,,,,,,,,,,,,,,,,,
1577535322.294671,124.000000,0.000000,4200.000000,4512.820313,4168.717773,3985.641113,4182.051270,450.000000,2.000000,,,,0.000000,4.000000,4.000000,4.000000,4.000000,4.000000,,,,,,,,,,,,,,,,,,,,,,,,,
1577535322.302400,125.000000,0.000000,4180.000000,4511.794922,4148.717773,3966.153809,4156.922852,450.000000,2.000000,,,,0.000000,4.000000,4.000000,4.000000,4.000000,4.000000,,,,,,,,,,,,,,,,,,,,,,,,,
1577535322.310229,126.000000,0.000000,4178.974121,4489.743652,4152.307617,3967.179443,4150.256348,450.000000,2.000000,,,,0.000000,4.000000,4.000000,4.000000,4.000000,4.000000,,,,,,,,,,,,,,,,,,,,,,,,,
1577535322.317957,127.000000,0.000000,4225.641113,4504.102539,4174.871582,3999.487061,4194.871582,230.000000,2.000000,,,,0.000000,4.000000,4.000000,4.000000,4.000000,4.000000,,,,,,,,,,,,,,,,,,,,,,,,,
1577535322.325786,0.000000,0.000000,4228.717773,4507.692383,4174.871582,3995.384521,4211.282227,450.000000,2.000000,,,,0.000000,4.000000,4.000000,4.000000,4.000000,4.000000,,,,,,,,,,,,,,,,,,,,,,,,,
1577535322.333514,1.000000,0.000000,4194.871582,4496.410156,4173.333496,3976.923096,4185.641113,450.000000,2.000000,,,,0.000000,4.000000,4.000000,4.000000,4.000000,4.000000,,,,,,,,,,,,,,,,,,,,,,,,,
1577535322.341342,2.000000,0.000000,4204.102539,4502.563965,4174.358887,3984.615479,4192.307617,16218.000000,2.000000,,,,0.000000,4.000000,4.000000,4.000000,4.000000,4.000000,,,,,,,,,,,,,,,,,,,,,,,,,
1577535322.349070,3.000000,0.000000,4211.794922,4510.256348,4185.128418,3973.846191,4201.538574,450.000000,2.000000,,,,0.000000,4.000000,4.000000,4.000000,4.000000,4.000000,,,,,,,,,,,,,,,,,,,,,,,,,
1577535322.356898,4.000000,0.000000,4216.410156,4515.384766,4206.153809,3978.461426,4208.717773,16114.000000,2.000000,,,,0.000000,4.000000,4.000000,4.000000,4.000000,4.000000,,,,,,,,,,,,,,,,,,,,,,,,,
1577535322.364626,5.000000,0.000000,4253.333496,4508.717773,4225.128418,4016.410156,4240.000000,450.000000,2.000000,,,,0.000000,4.000000,4.000000,4.000000,4.000000,4.000000,,,,,,,,,,,,,,,,,,,,,,,,,
1577535322.372557,6.000000,0.000000,4260.000000,4500.000000,4218.974121,4013.846191,4230.769043,16076.000000,2.000000,,,,0.000000,4.000000,4.000000,4.000000,4.000000,4.000000,,,,,,,,,,,,,,,,,,,,,,,,,
1577535322.380388,7.000000,0.000000,4225.641113,4498.974121,4177.948730,3984.615479,4192.307617,450.000000,2.000000,,,,0.000000,4.000000,4.000000,4.000000,4.000000,4.000000,,,,,,,,,,,,,,,,,,,,,,,,,
1577535322.388219,8.000000,0.000000,4207.179688,4497.948730,4165.641113,3988.718018,4191.794922,450.000000,2.000000,,,,0.000000,4.000000,4.000000,4.000000,4.000000,4.000000,11.762284,8.298120,6.588589,3.837656,4.656120,1.085514,1.850083,2.631252,2.095480,3.453722,4.418619,1.273768,4.030584,2.318577,2.382450,11.191271,5.008278,4.019385,1.953320,2.755029,14.548113,9.408710,7.476632,4.079060,4.021333
1577535322.395946,9.000000,0.000000,4203.077148,4506.153809,4169.743652,3997.948730,4193.846191,16112.000000,2.000000,,,,0.000000,4.000000,4.000000,4.000000,4.000000,4.000000,,,,,,,,,,,,,,,,,,,,,,,,,
1577535322.403876,10.000000,0.000000,4193.333496,4492.820313,4158.461426,3980.000000,4175.897461,450.000000,2.000000,,,,0.000000,4.000000,4.000000,4.000000,4.000000,4.000000,,,,,,,,,,,,,,,,,,,,,,,,,
1577535322.411707,11.000000,0.000000,4212.307617,4488.717773,4170.256348,3988.205078,4188.717773,16208.000000,2.000000,,,,0.000000,4.000000,4.000000,4.000000,4.000000,4.000000,,,,,,,,,,,,,,,,,,,,,,,,,
