title:sc3, start timestamp:2019-12-27T07:31:38.573737+03:00, stop timestamp:2019-12-27T07:32:09.676399+03:00, headset type:INSIGHT, headset serial:A2D200FB, headset firmware:930, subject name:Qasim, channels:44, sampling rate:eeg_128;pow_8, samples:3990      , version:2.0
Timestamp,EEG.Counter,EEG.Interpolated,EEG.AF3,EEG.T7,EEG.Pz,EEG.T8,EEG.AF4,EEG.RawCq,EEG.Battery,MarkerIndex,MarkerType,MarkerValueInt,EEG.MarkerHardware,CQ.AF3,CQ.T7,CQ.Pz,CQ.T8,CQ.AF4,POW.AF3.Theta,POW.AF3.Alpha,POW.AF3.BetaL,POW.AF3.BetaH,POW.AF3.Gamma,POW.T7.Theta,POW.T7.Alpha,POW.T7.BetaL,POW.T7.BetaH,POW.T7.Gamma,POW.Pz.Theta,POW.Pz.Alpha,POW.Pz.BetaL,POW.Pz.BetaH,POW.Pz.Gamma,POW.T8.Theta,POW.T8.Alpha,POW.T8.BetaL,POW.T8.BetaH,POW.T8.Gamma,POW.AF4.Theta,POW.AF4.Alpha,POW.AF4.BetaL,POW.AF4.BetaH,POW.AF4.Gamma
1577421098.573737,48.000000,0.000000,4218.974121,4352.820313,4140.512695,4167.692383,4217.436035,0.000000,4.000000,,,,0.000000,4.000000,4.000000,4.000000,4.000000,4.000000,,,,,,,,,,,,,,,,,,,,,,,,,
1577421098.581434,49.000000,0.000000,4191.794922,4328.717773,4101.025879,4123.077148,4191.794922,0.000000,4.000000,,,,0.000000,4.000000,4.000000,4.000000,4.000000,4.000000,,,,,,,,,,,,,,,,,,,,,,,,,
1577421098.589230,50.000000,0.000000,4186.153809,4310.769043,4084.102539,4117.948730,4189.230957,0.000000,4.000000,,,,0.000000,4.000000,4.000000,4.000000,4.000000,4.000000,,,,,,,,,,,,,,,,,,,,,,,,,
1577421098.596926,51.000000,0.000000,4242.051270,4348.717773,4124.615234,4172.820313,4240.512695,0.000000,4.000000,,,,0.000000,4.000000,4.000000,4.000000,4.000000,4.000000,,,,,,,,,,,,,,,,,,,,,,,,,
1577421098.604723,52.000000,0.000000,4235.897461,4343.077148,4114.358887,4160.512695,4229.230957,0.000000,4.000000,,,,0.000000,4.000000,4.000000,4.000000,4.000000,4.000000,,,,,,,,,,,,,,,,,,,,,,,,,
1577421098.612419,53.000000,0.000000,4205.128418,4317.948730,4082.051270,4140.512695,4200.512695,0.000000,4.000000,,,,0.000000,4.000000,4.000000,4.000000,4.000000,4.000000,,,,,,,,,,,,,,,,,,,,,,,,,
1577421098.620215,54.000000,0.000000,4226.666504,4329.743652,4092.820557,4161.538574,4228.717773,0.000000,4.000000,,,,0.000000,4.000000,4.000000,4.000000,4.000000,4.000000,,,,,,,,,,,,,,,,,,,,,,,,,
1577421098.627912,55.000000,0.000000,4238.974121,4322.563965,4090.769287,4156.922852,4250.769043,0.000000,4.000000,,,,0.000000,4.000000,4.000000,4.000000,4.000000,4.000000,,,,,,,,,,,,,,,,,,,,,,,,,
1577421098.635708,56.000000,0.000000,4240.000000,4317.436035,4076.410156,4141.538574,4245.128418,0.000000,4.000000,,,,0.000000,4.000000,4.000000,4.000000,4.000000,4.000000,,,,,,,,,,,,,,,,,,,,,,,,,
1577421098.643404,57.000000,0.000000,4230.769043,4332.307617,4055.897461,4129.230957,4227.692383,0.000000,4.000000,,,,0.000000,4.000000,4.000000,4.000000,4.000000,4.000000,6.154395,6.438767,3.177872,4.263701,4.679653,142.425003,15.988754,8.355717,4.233942,1.958145,87.790855,7.909170,3.533013,2.700175,3.463008,5.327599,4.466637,5.404337,2.394613,6.493805,5.146142,5.019536,3.098389,4.408097,3.780399
1577421098.651201,58.000000,0.000000,4222.563965,4355.384766,4048.205078,4130.256348,4221.025879,0.000000,4.000000,,,,0.000000,4.000000,4.000000,4.000000,4.000000,4.000000,,,,,,,,,,,,,,,,,,,,,,,,,
1577421098.658897,59.000000,0.000000,4214.871582,4369.230957,4069.743652,4126.666504,4212.307617,0.000000,4.000000,,,,0.000000,4.000000,4.000000,4.000000,4.000000,4.000000,,,,,,,,,,,,,,,,,,,,,,,,,
1577421098.666693,60.000000,0.000000,4177.948730,4364.615234,4099.487305,4124.102539,4196.410156,0.000000,4.000000,,,,0.000000,4.000000,4.000000,4.000000,4.000000,4.000000,,,,,,,,,,,,,,,,,,,,,,,,,
1577421098.674390,61.000000,0.000000,4293.333496,4490.769043,4289.743652,4212.307617,4309.230957,0.000000,4.000000,,,,0.000000,4.000000,4.000000,4.000000,4.000000,4.000000,,,,,,,,,,,,,,,,,,,,,,,,,
1577421098.682086,62.000000,0.000000,4263.589844,4472.307617,4344.615234,4105.128418,4241.025879,0.000000,4.000000,,,,0.000000,4.000000,4.000000,4.000000,4.000000,4.000000,,,,,,,,,,,,,,,,,,,,,,,,,
1577421098.689882,63.000000,0.000000,4016.410156,4313.846191,4207.179688,4036.923096,4085.128174,0.000000,4.000000,,,,0.000000,4.000000,4.000000,4.000000,4.000000,4.000000,,,,,,,,,,,,,,,,,,,,,,,,,
1577421098.697579,64.000000,0.000000,4541.025879,4793.333496,4715.384766,4428.717773,4524.102539,450.000000,4.000000,,,,0.000000,4.000000,4.000000,4.000000,4.000000,4.000000,,,,,,,,,,,,,,,,,,,,,,,,,
1577421098.705375,65.000000,0.000000,4674.871582,4832.820313,4803.077148,4153.333496,4403.589844,450.000000,4.000000,,,,0.000000,4.000000,4.000000,4.000000,4.000000,4.000000,,,,,,,,,,,,,,,,,,,,,,,,,
1577421098.713071,66.000000,0.000000,4159.487305,4394.871582,4341.538574,3948.205078,4066.153809,16150.000000,4.000000,,,,0.000000,4.000000,4.000000,4.000000,4.000000,4.000000,,,,,,,,,,,,,,,,,,,,,,,,,
1577421098.720868,67.000000,0.000000,4483.589844,4706.153809,4625.128418,4481.025879,4536.922852,450.000000,4.000000,,,,0.000000,4.000000,4.000000,4.000000,4.000000,4.000000,,,,,,,,,,,,,,,,,,,,,,,,,
1577421098.728564,68.000000,0.000000,4555.384766,4742.051270,4628.717773,4338.461426,4481.538574,16135.000000,4.000000,,,,0.000000,4.000000,4.000000,4.000000,4.000000,4.000000,,,,,,,,,,,,,,,,,,,,,,,,,
1577421098.736360,69.000000,0.000000,4317.436035,4560.000000,4385.641113,4186.153809,4292.307617,450.000000,4.000000,,,,0.000000,4.000000,4.000000,4.000000,4.000000,4.000000,,,,,,,,,,,,,,,,,,,,,,,,,
1577421098.744057,70.000000,0.000000,4398.461426,4664.615234,4457.948730,4300.512695,4404.615234,16196.000000,4.000000,,,,0.000000,4.000000,4.000000,4.000000,4.000000,4.000000,,,,,,,,,,,,,,,,,,,,,,,,,
1577421098.751853,71.000000,0.000000,4309.230957,4626.153809,4376.410156,4195.384766,4288.205078,450.000000,4.000000,,,,0.000000,4.000000,4.000000,4.000000,4.000000,4.000000,,,,,,,,,,,,,,,,,,,,,,,,,
1577421098.759549,72.000000,0.000000,4291.794922,4646.666504,4343.589844,4230.769043,4283.077148,450.000000,4.000000,,,,0.000000,4.000000,4.000000,4.000000,4.000000,4.000000,,,,,,,,,,,,,,,,,,,,,,,,,
1577421098.767346,73.000000,0.000000,4252.820313,4631.282227,4288.205078,4184.615234,4240.000000,16201.000000,4.000000,,,,0.000000,4.000000,4.000000,4.000000,4.000000,4.000000,4.679337,5.665416,2.518588,4.124735,4.637660,128.372787,17.333755,7.122396,3.597733,2.097130,97.751564,7.641813,3.616407,2.452802,3.616679,4.406541,3.747998,4.176598,2.238683,6.690014,4.508713,4.672657,2.367586,4.049194,3.784010
1577421098.775042,74.000000,0.000000,4210.769043,4625.641113,4242.051270,4148.717773,4205.641113,450.000000,4.000000,,,,0.000000,4.000000,4.000000,4.000000,4.000000,4.000000,,,,,,,,,,,,,,,,,,,,,,,,,
1577421098.782838,75.000000,0.000000,4247.692383,4670.256348,4254.871582,4192.820313,4238.974121,16210.000000,4.000000,,,,0.000000,4.000000,4.000000,4.000000,4.000000,4.000000,,,,,,,,,,,,,,,,,,,,,,,,,
1577421098.790535,76.000000,0.000000,4232.820313,4665.128418,4222.051270,4184.102539,4220.512695,450.000000,4.000000,,,,0.000000,4.000000,4.000000,4.000000,4.000000,4.000000,,,,,,,,,,,,,,,,,,,,,,,,,
1577421098.798331,77.000000,0.000000,4194.358887,4658.461426,4186.153809,4138.461426,4180.512695,450.000000,4.000000,,,,0.000000,4.000000,4.000000,4.000000,4.000000,4.000000,,,,,,,,,,,,,,,,,,,,,,,,,
1577421098.806027,78.000000,0.000000,4184.615234,4665.641113,4160.512695,4128.205078,4160.512695,450.000000,4.000000,,,,0.000000,4.000000,4.000000,4.000000,4.000000,4.000000,,,,,,,,,,,,,,,,,,,,,,,,,
1577421098.813724,79.000000,0.000000,4206.153809,4672.820313,4144.102539,4162.051270,4181.025879,16210.000000,4.000000,,,,0.000000,4.000000,4.000000,4.000000,4.000000,4.000000,,,,,,,,,,,,,,,,,,,,,,,,,
1577421098.821520,80.000000,0.000000,4207.692383,4668.205078,4122.563965,4153.333496,4186.666504,450.000000,4.000000,,,,0.000000,4.000000,4.000000,4.000000,4.000000,4.000000,,,,,,,,,,,,,,,,,,,,,,,,,
1577421098.829217,81.000000,0.000000,4193.333496,4669.743652,4079.487061,4123.589844,4170.256348,450.000000,4.000000,,,,0.000000,4.000000,4.000000,4.000000,4.000000,4.000000,,,,,,,,,,,,,,,,,,,,,,,,,
1577421098.837013,82.000000,0.000000,4184.102539,4670.769043,4025.128174,4108.717773,4158.461426,450.000000,4.000000,,,,0.000000,4.000000,4.000000,4.000000,4.000000,4.000000,,,,,,,,,,,,,,,,,,,,,,,,,
1577421098.844709,83.000000,0.000000,4169.230957,4645.128418,3984.615479,4098.974121,4148.205078,16210.000000,4.000000,,,,0.000000,4.000000,4.000000,4.000000,4.000000,4.000000,,,,,,,,,,,,,,,,,,,,,,,,,
1577421098.852505,84.000000,0.000000,4174.358887,4623.589844,3956.410156,4116.922852,4156.922852,450.000000,4.000000,,,,0.000000,4.000000,4.000000,4.000000,4.000000,4.000000,,,,,,,,,,,,,,,,,,,,,,,,,
1577421098.860202,85.000000,0.000000,4203.589844,4633.846191,3913.333252,4137.948730,4180.512695,450.000000,4.000000,,,,0.000000,4.000000,4.000000,4.000000,4.000000,4.000000,,,,,,,,,,,,,,,,,,,,,,,,,
1577421098.867998,86.000000,0.000000,4213.333496,4625.128418,3869.230713,4127.692383,4190.769043,450.000000,4.000000,,,,0.000000,4.000000,4.000000,4.000000,4.000000,4.000000,,,,,,,,,,,,,,,,,,,,,,,,,
1577421098.875695,87.000000,0.000000,4209.230957,4562.563965,3840.512939,4128.717773,4197.948730,16210.000000,4.000000,,,,0.000000,4.000000,4.000000,4.000000,4.000000,4.000000,,,,,,,,,,,,,,,,,,,,,,,,,
1577421098.883491,88.000000,0.000000,4211.794922,4502.563965,3809.230713,4135.384766,4198.461426,450.000000,4.000000,,,,0.000000,4.000000,4.000000,4.000000,4.000000,4.000000,,,,,,,,,,,,,,,,,,,,,,,,,
1577421098.891287,89.000000,0.000000,4212.307617,4496.922852,3776.410156,4101.025879,4190.769043,450.000000,4.000000,,,,0.000000,4.000000,4.000000,4.000000,4.000000,4.000000,3.912487,5.049243,2.231775,3.940604,4.764414,121.052795,18.686071,6.046530,3.125000,2.475180,111.373886,7.489596,3.808187,2.141625,3.825775,3.718626,3.231297,3.249589,2.150833,6.651803,4.483089,4.323739,1.970830,3.614265,3.911320
1577421098.898984,90.000000,0.000000,4209.230957,4517.948730,3753.846191,4084.102539,4189.743652,450.000000,4.000000,,,,0.000000,4.000000,4.000000,4.000000,4.000000,4.000000,,,,,,,,,,,,,,,,,,,,,,,,,
1577421098.906680,91.000000,0.000000,4206.153809,4508.717773,3732.307617,4096.410156,4185.641113,16210.000000,4.000000,,,,0.000000,4.000000,4.000000,4.000000,4.000000,4.000000,,,,,,,,,,,,,,,,,,,,,,,,,
1577421098.914476,92.000000,0.000000,4198.974121,4481.025879,3709.743652,4084.615479,4173.846191,450.000000,4.000000,,,,0.000000,4.000000,4.000000,4.000000,4.000000,4.000000,,,,,,,,,,,,,,,,,,,,,,,,,
1577421098.922173,93.000000,0.000000,4187.692383,4472.820313,3697.948730,4077.948730,4163.077148,450.000000,4.000000,,,,0.000000,4.000000,4.000000,4.000000,4.000000,4.000000,,,,,,,,,,,,,,,,,,,,,,,,,
1577421098.929969,94.000000,0.000000,4182.051270,4482.051270,3693.846191,4093.333252,4163.077148,450.000000,4.000000,,,,0.000000,4.000000,4.000000,4.000000,4.000000,4.000000,,,,,,,,,,,,,,,,,,,,,,,,,
1577421098.937665,95.000000,0.000000,4194.358887,4484.615234,3698.974365,4100.512695,4173.846191,16210.000000,4.000000,,,,0.000000,4.000000,4.000000,4.000000,4.000000,4.000000,,,,,,,,,,,,,,,,,,,,,,,,,
1577421098.945462,96.000000,0.000000,4201.025879,4476.922852,3716.410156,4103.077148,4174.871582,450.000000,4.000000,,,,0.000000,4.000000,4.000000,4.000000,4.000000,4.000000,,,,,,,,,,,,,,,,,,,,,,,,,
1577421098.953158,97.000000,0.000000,4195.897461,4481.025879,3734.871826,4107.179688,4171.794922,450.000000,4.000000,,,,0.000000,4.000000,4.000000,4.000000,4.000000,4.000000,,,,,,,,,,,,,,,,,,,,,,,,,
1577421098.960954,98.000000,0.000000,4224.615234,4494.358887,3758.974365,4115.384766,4203.077148,450.000000,4.000000,,,,0.000000,4.000000,4.000000,4.000000,4.000000,4.000000,,,,,,,,,,,,,,,,,,,,,,,,,
1577421098.968651,99.000000,0.000000,4260.512695,4474.871582,3770.769287,4117.948730,4229.743652,16210.000000,4.000000,,,,0.000000,4.000000,4.000000,4.000000,4.000000,4.000000,,,,,,,,,,,,,,,,,,,,,,,,,
1577421098.976347,100.000000,0.000000,4264.102539,4436.922852,3758.461426,4090.256348,4218.974121,450.000000,4.000000,,,,0.000000,4.000000,4.000000,4.000000,4.000000,4.000000,,,,,,,,,,,,,,,,,,,,,,,,,
1577421098.984144,101.000000,0.000000,4275.384766,4430.769043,3757.948730,4064.615479,4218.974121,450.000000,4.000000,,,,0.000000,4.000000,4.000000,4.000000,4.000000,4.000000,,,,,,,,,,,,,,,,,,,,,,,,,
1577421098.991940,102.000000,0.000000,4328.717773,4450.256348,3791.794922,4090.769287,4261.538574,450.000000,4.000000,,,,0.000000,4.000000,4.000000,4.000000,4.000000,4.000000,,,,,,,,,,,,,,,,,,,,,,,,,
1577421098.999637,103.000000,0.000000,4415.384766,4469.230957,3855.897461,4144.102539,4326.666504,16210.000000,4.000000,,,,0.000000,4.000000,4.000000,4.000000,4.000000,4.000000,,,,,,,,,,,,,,,,,,,,,,,,,
1577421099.007433,104.000000,0.000000,4482.563965,4467.692383,3906.666748,4171.282227,4370.256348,450.000000,4.000000,,,,0.000000,4.000000,4.000000,4.000000,4.000000,4.000000,,,,,,,,,,,,,,,,,,,,,,,,,
1577421099.015129,105.000000,0.000000,4483.589844,4428.205078,3906.153809,4157.436035,4361.538574,450.000000,4.000000,,,,0.000000,4.000000,4.000000,4.000000,4.000000,4.000000,6.031226,5.450881,2.584764,3.843430,6.275853,118.826500,19.213417,5.183200,2.912673,3.986610,135.319092,9.870186,4.772154,1.882253,5.026248,3.872064,3.076377,2.789333,2.220849,7.333315,6.115339,4.325015,1.945995,3.202495,5.016932
1577421099.022926,106.000000,0.000000,4437.436035,4357.436035,3866.666748,4105.128418,4312.307617,450.000000,4.000000,,,,0.000000,4.000000,4.000000,4.000000,4.000000,4.000000,,,,,,,,,,,,,,,,,,,,,,,,,
1577421099.030622,107.000000,0.000000,4402.563965,4288.205078,3840.512939,4057.435791,4278.974121,16210.000000,4.000000,,,,0.000000,4.000000,4.000000,4.000000,4.000000,4.000000,,,,,,,,,,,,,,,,,,,,,,,,,
1577421099.038418,108.000000,0.000000,4387.692383,4241.538574,3841.538574,4050.256348,4262.563965,450.000000,4.000000,,,,0.000000,4.000000,4.000000,4.000000,4.000000,4.000000,,,,,,,,,,,,,,,,,,,,,,,,,
1577421099.046115,109.000000,0.000000,4351.282227,4201.538574,3828.205078,4057.948730,4225.128418,450.000000,4.000000,,,,0.000000,4.000000,4.000000,4.000000,4.000000,4.000000,,,,,,,,,,,,,,,,,,,,,,,,,
1577421099.053911,110.000000,0.000000,4309.743652,4164.615234,3807.179443,4060.000000,4196.922852,450.000000,4.000000,,,,0.000000,4.000000,4.000000,4.000000,4.000000,4.000000,,,,,,,,,,,,,,,,,,,,,,,,,
1577421099.061607,111.000000,0.000000,4283.589844,4142.051270,3795.384521,4043.076904,4176.922852,16210.000000,4.000000,,,,0.000000,4.000000,4.000000,4.000000,4.000000,4.000000,,,,,,,,,,,,,,,,,,,,,,,,,
1577421099.069404,112.000000,0.000000,4253.846191,4133.846191,3778.974365,4024.102539,4147.179688,450.000000,4.000000,,,,0.000000,4.000000,4.000000,4.000000,4.000000,4.000000,,,,,,,,,,,,,,,,,,,,,,,,,
1577421099.077100,113.000000,0.000000,4225.641113,4143.589844,3773.333252,4014.871826,4128.205078,450.000000,4.000000,,,,0.000000,4.000000,4.000000,4.000000,4.000000,4.000000,,,,,,,,,,,,,,,,,,,,,,,,,
1577421099.084796,114.000000,0.000000,4206.153809,4153.333496,3782.564209,4012.307617,4115.897461,450.000000,4.000000,,,,0.000000,4.000000,4.000000,4.000000,4.000000,4.000000,,,,,,,,,,,,,,,,,,,,,,,,,
1577421099.092593,115.000000,0.000000,4191.282227,4149.230957,3789.743652,4024.615479,4108.205078,16210.000000,4.000000,,,,0.000000,4.000000,4.000000,4.000000,4.000000,4.000000,,,,,,,,,,,,,,,,,,,,,,,,,
1577421099.100289,116.000000,0.000000,4183.589844,4154.871582,3799.487061,4048.718018,4108.205078,450.000000,4.000000,,,,0.000000,4.000000,4.000000,4.000000,4.000000,4.000000,,,,,,,,,,,,,,,,,,,,,,,,,
1577421099.108085,117.000000,0.000000,4184.102539,4172.307617,3823.076904,4065.641113,4122.563965,450.000000,4.000000,,,,0.000000,4.000000,4.000000,4.000000,4.000000,4.000000,,,,,,,,,,,,,,,,,,,,,,,,,
1577421099.115782,118.000000,0.000000,4184.102539,4176.922852,3851.794922,4066.153809,4134.871582,450.000000,4.000000,,,,0.000000,4.000000,4.000000,4.000000,4.000000,4.000000,,,,,,,,,,,,,,,,,,,,,,,,,
1577421099.123578,119.000000,0.000000,4168.205078,4156.922852,3867.692383,4068.205078,4118.461426,16210.000000,4.000000,,,,0.000000,4.000000,4.000000,4.000000,4.000000,4.000000,,,,,,,,,,,,,,,,,,,,,,,,,
1577421099.131275,120.000000,0.000000,4165.641113,4135.897461,3881.025635,4064.102539,4115.384766,450.000000,4.000000,,,,0.000000,4.000000,4.000000,4.000000,4.000000,4.000000,,,,,,,,,,,,,,,,,,,,,,,,,
1577421099.139071,121.000000,0.000000,4165.641113,4116.922852,3881.538574,4051.794922,4118.461426,450.000000,4.000000,,,,0.000000,4.000000,4.000000,4.000000,4.000000,4.000000,14.319247,7.783543,3.695091,3.972328,10.673717,121.647263,18.644543,4.630489,3.074432,7.676850,175.491486,17.673536,7.127877,1.812001,8.395105,5.870535,3.414064,2.839069,2.512065,10.055064,11.251641,5.094974,2.225817,2.897515,8.208488
1577421099.146767,122.000000,0.000000,4120.000000,4083.589844,3849.230713,4051.794922,4086.153809,450.000000,4.000000,,,,0.000000,4.000000,4.000000,4.000000,4.000000,4.000000,,,,,,,,,,,,,,,,,,,,,,,,,
1577421099.154563,123.000000,0.000000,4103.589844,4075.897461,3829.230713,4067.692383,4080.512939,16210.000000,4.000000,,,,0.000000,4.000000,4.000000,4.000000,4.000000,4.000000,,,,,,,,,,,,,,,,,,,,,,,,,
1577421099.162260,124.000000,0.000000,4143.589844,4086.153809,3833.846191,4068.718018,4105.641113,450.000000,4.000000,,,,0.000000,4.000000,4.000000,4.000000,4.000000,4.000000,,,,,,,,,,,,,,,,,,,,,,,,,
1577421099.170056,125.000000,0.000000,4158.461426,4077.435791,3831.281982,4072.820557,4109.230957,450.000000,4.000000,,,,0.000000,4.000000,4.000000,4.000000,4.000000,4.000000,,,,,,,,,,,,,,,,,,,,,,,,,
1577421099.177753,126.000000,0.000000,4141.538574,4071.794922,3825.128174,4097.948730,4101.025879,450.000000,4.000000,,,,0.000000,4.000000,4.000000,4.000000,4.000000,4.000000,,,,,,,,,,,,,,,,,,,,,,,,,
1577421099.185549,127.000000,0.000000,4129.743652,4076.923096,3812.307617,4092.820557,4093.333252,235.000000,4.000000,,,,0.000000,4.000000,4.000000,4.000000,4.000000,4.000000,,,,,,,,,,,,,,,,,,,,,,,,,
1577421099.193245,0.000000,0.000000,4124.102539,4083.076904,3798.974365,4082.051270,4089.230713,450.000000,4.000000,,,,0.000000,4.000000,4.000000,4.000000,4.000000,4.000000,,,,,,,,,,,,,,,,,,,,,,,,,
1577421099.201042,1.000000,0.000000,4115.384766,4092.307617,3804.102539,4104.615234,4092.307617,450.000000,4.000000,,,,0.000000,4.000000,4.000000,4.000000,4.000000,4.000000,,,,,,,,,,,,,,,,,,,,,,,,,
1577421099.208738,2.000000,0.000000,4112.820313,4101.025879,3820.000000,4111.282227,4094.358887,16201.000000,4.000000,,,,0.000000,4.000000,4.000000,4.000000,4.000000,4.000000,,,,,,,,,,,,,,,,,,,,,,,,,
1577421099.216434,3.000000,0.000000,4084.102539,4093.333252,3811.281982,4072.820557,4061.025635,450.000000,4.000000,,,,0.000000,4.000000,4.000000,4.000000,4.000000,4.000000,,,,,,,,,,,,,,,,,,,,,,,,,
1577421099.224231,4.000000,0.000000,4050.769287,4095.384521,3800.000000,4056.923096,4027.179443,16180.000000,4.000000,,,,0.000000,4.000000,4.000000,4.000000,4.000000,4.000000,,,,,,,,,,,,,,,,,,,,,,,,,
1577421099.231927,5.000000,0.000000,4103.077148,4149.743652,3861.025635,4116.410156,4084.102539,450.000000,4.000000,,,,0.000000,4.000000,4.000000,4.000000,4.000000,4.000000,,,,,,,,,,,,,,,,,,,,,,,,,
1577421099.239723,6.000000,0.000000,4174.358887,4194.358887,3935.897461,4167.179688,4153.333496,16166.000000,4.000000,,,,0.000000,4.000000,4.000000,4.000000,4.000000,4.000000,,,,,,,,,,,,,,,,,,,,,,,,,
1577421099.247420,7.000000,0.000000,4162.051270,4178.974121,3942.564209,4152.820313,4141.538574,450.000000,4.000000,,,,0.000000,4.000000,4.000000,4.000000,4.000000,4.000000,,,,,,,,,,,,,,,,,,,,,,,,,
1577421099.255216,8.000000,0.000000,4135.897461,4172.820313,3934.871826,4145.128418,4121.538574,450.000000,4.000000,,,,0.000000,4.000000,4.000000,4.000000,4.000000,4.000000,,,,,,,,,,,,,,,,,,,,,,,,,
1577421099.262912,9.000000,0.000000,4138.461426,4182.563965,3920.512939,4143.077148,4121.538574,16187.000000,4.000000,,,,0.000000,4.000000,4.000000,4.000000,4.000000,4.000000,31.586739,12.444976,5.566213,4.398497,18.496473,127.136116,17.601854,4.659374,3.655876,13.843554,235.675797,31.937153,11.082226,2.041331,14.370440,10.816235,4.260821,3.433058,3.063148,15.452733,21.764742,6.870219,2.762568,2.758690,13.922134
1577421099.270709,10.000000,0.000000,4134.358887,4170.769043,3882.051270,4118.974121,4113.846191,450.000000,4.000000,,,,0.000000,4.000000,4.000000,4.000000,4.000000,4.000000,,,,,,,,,,,,,,,,,,,,,,,,,
1577421099.278405,11.000000,0.000000,4141.025879,4168.717773,3889.743652,4120.512695,4115.897461,16220.000000,4.000000,,,,0.000000,4.000000,4.000000,4.000000,4.000000,4.000000,,,,,,,,,,,,,,,,,,,,,,,,,
1577421099.286201,12.000000,0.000000,4143.077148,4169.743652,3920.000000,4123.077148,4108.717773,450.000000,4.000000,,,,0.000000,4.000000,4.000000,4.000000,4.000000,4.000000,,,,,,,,,,,,,,,,,,,,,,,,,
1577421099.293898,13.000000,0.000000,4124.615234,4160.512695,3910.769287,4105.641113,4091.794922,450.000000,4.000000,,,,0.000000,4.000000,4.000000,4.000000,4.000000,4.000000,,,,,,,,,,,,,,,,,,,,,,,,,
1577421099.301694,14.000000,0.000000,4125.128418,4166.153809,3910.256348,4089.743652,4096.922852,450.000000,4.000000,,,,0.000000,4.000000,4.000000,4.000000,4.000000,4.000000,,,,,,,,,,,,,,,,,,,,,,,,,
1577421099.309390,15.000000,0.000000,4136.922852,4168.205078,3936.410156,4081.538574,4113.333496,16220.000000,4.000000,,,,0.000000,4.000000,4.000000,4.000000,4.000000,4.000000,,,,,,,,,,,,,,,,,,,,,,,,,
1577421099.317187,16.000000,0.000000,4146.153809,4166.666504,3940.000000,4094.358887,4127.692383,0.000000,4.000000,,,,0.000000,4.000000,4.000000,4.000000,4.000000,4.000000,,,,,,,,,,,,,,,,,,,,,,,,,
1577421099.324883,17.000000,0.000000,4151.282227,4171.794922,3892.307617,4100.000000,4132.307617,0.000000,4.000000,,,,0.000000,4.000000,4.000000,4.000000,4.000000,4.000000,,,,,,,,,,,,,,,,,,,,,,,,,
1577421099.332580,18.000000,0.000000,4147.179688,4158.461426,3840.000000,4083.076904,4123.077148,0.000000,4.000000,,,,0.000000,4.000000,4.000000,4.000000,4.000000,4.000000,,,,,,,,,,,,,,,,,,,,,,,,,
1577421099.340376,19.000000,0.000000,4140.512695,4133.333496,3835.897461,4073.846191,4112.307617,0.000000,4.000000,,,,0.000000,4.000000,4.000000,4.000000,4.000000,4.000000,,,,,,,,,,,,,,,,,,,,,,,,,
1577421099.348173,20.000000,0.000000,4135.897461,4138.974121,3844.102539,4080.512939,4106.153809,0.000000,4.000000,,,,0.000000,4.000000,4.000000,4.000000,4.000000,4.000000,,,,,,,,,,,,,,,,,,,,,,,,,
1577421099.355869,21.000000,0.000000,4133.333496,4163.077148,3830.256348,4082.051270,4108.717773,0.000000,4.000000,,,,0.000000,4.000000,4.000000,4.000000,4.000000,4.000000,,,,,,,,,,,,,,,,,,,,,,,,,
1577421099.363665,22.000000,0.000000,4125.128418,4160.000000,3812.307617,4072.307617,4104.102539,0.000000,4.000000,,,,0.000000,4.000000,4.000000,4.000000,4.000000,4.000000,,,,,,,,,,,,,,,,,,,,,,,,,
1577421099.371362,23.000000,0.000000,4119.487305,4149.743652,3809.230713,4066.666748,4097.436035,0.000000,4.000000,,,,0.000000,4.000000,4.000000,4.000000,4.000000,4.000000,,,,,,,,,,,,,,,,,,,,,,,,,
1577421099.379058,24.000000,0.000000,4132.307617,4164.102539,3821.538574,4075.384521,4106.153809,0.000000,4.000000,,,,0.000000,4.000000,4.000000,4.000000,4.000000,4.000000,,,,,,,,,,,,,,,,,,,,,,,,,
1577421099.386855,25.000000,0.000000,4152.820313,4180.512695,3833.846191,4080.000000,4120.512695,0.000000,4.000000,,,,0.000000,4.000000,4.000000,4.000000,4.000000,4.000000,58.945930,19.029686,7.890540,5.055960,28.504940,133.967422,16.972212,5.555689,4.579170,21.490364,305.721375,50.108437,15.959302,2.619087,22.016159,18.788643,5.511022,4.533216,3.867974,22.737165,38.431217,9.667514,3.451570,2.792012,21.289818
1577421099.394651,26.000000,0.000000,4168.717773,4175.897461,3836.923096,4080.512939,4142.051270,0.000000,4.000000,,,,0.000000,4.000000,4.000000,4.000000,4.000000,4.000000,,,,,,,,,,,,,,,,,,,,,,,,,
1577421099.402348,27.000000,0.000000,4173.333496,4137.436035,3822.051270,4100.000000,4157.948730,0.000000,4.000000,,,,0.000000,4.000000,4.000000,4.000000,4.000000,4.000000,,,,,,,,,,,,,,,,,,,,,,,,,
1577421099.410044,28.000000,0.000000,4166.666504,4083.076904,3800.512939,4108.717773,4157.948730,0.000000,4.000000,,,,0.000000,4.000000,4.000000,4.000000,4.000000,4.000000,,,,,,,,,,,,,,,,,,,,,,,,,
1577421099.417841,29.000000,0.000000,4158.974121,4047.179443,3784.615479,4088.205078,4151.794922,0.000000,4.000000,,,,0.000000,4.000000,4.000000,4.000000,4.000000,4.000000,,,,,,,,,,,,,,,,,,,,,,,,,
1577421099.425637,30.000000,0.000000,4155.384766,4041.025635,3761.538574,4072.820557,4144.102539,0.000000,4.000000,,,,0.000000,4.000000,4.000000,4.000000,4.000000,4.000000,,,,,,,,,,,,,,,,,,,,,,,,,
1577421099.433333,31.000000,0.000000,4162.563965,4054.871826,3736.410156,4081.538574,4149.743652,0.000000,4.000000,,,,0.000000,4.000000,4.000000,4.000000,4.000000,4.000000,,,,,,,,,,,,,,,,,,,,,,,,,
1577421099.441129,32.000000,0.000000,4172.820313,4078.461426,3726.153809,4089.743652,4159.487305,0.000000,4.000000,,,,0.000000,4.000000,4.000000,4.000000,4.000000,4.000000,,,,,,,,,,,,,,,,,,,,,,,,,
1577421099.448826,33.000000,0.000000,4162.051270,4111.282227,3726.153809,4061.538574,4152.307617,0.000000,4.000000,,,,0.000000,4.000000,4.000000,4.000000,4.000000,4.000000,,,,,,,,,,,,,,,,,,,,,,,,,
1577421099.456622,34.000000,0.000000,4150.769043,4160.000000,3738.974365,4042.051270,4145.128418,0.000000,4.000000,,,,0.000000,4.000000,4.000000,4.000000,4.000000,4.000000,,,,,,,,,,,,,,,,,,,,,,,,,
1577421099.464319,35.000000,0.000000,4164.615234,4213.846191,3763.076904,4077.435791,4155.897461,0.000000,4.000000,,,,0.000000,4.000000,4.000000,4.000000,4.000000,4.000000,,,,,,,,,,,,,,,,,,,,,,,,,
1577421099.472015,36.000000,0.000000,4173.846191,4246.153809,3780.512939,4106.153809,4166.666504,0.000000,4.000000,,,,0.000000,4.000000,4.000000,4.000000,4.000000,4.000000,,,,,,,,,,,,,,,,,,,,,,,,,
1577421099.479812,37.000000,0.000000,4167.179688,4257.436035,3798.461426,4091.794922,4162.051270,0.000000,4.000000,,,,0.000000,4.000000,4.000000,4.000000,4.000000,4.000000,,,,,,,,,,,,,,,,,,,,,,,,,
1577421099.487608,38.000000,0.000000,4182.563965,4271.282227,3829.230713,4101.025879,4174.358887,0.000000,4.000000,,,,0.000000,4.000000,4.000000,4.000000,4.000000,4.000000,,,,,,,,,,,,,,,,,,,,,,,,,
1577421099.495405,39.000000,0.000000,4216.922852,4284.615234,3856.410156,4137.436035,4205.641113,0.000000,4.000000,,,,0.000000,4.000000,4.000000,4.000000,4.000000,4.000000,,,,,,,,,,,,,,,,,,,,,,,,,
1577421099.503202,40.000000,0.000000,4223.589844,4275.384766,3862.051270,4133.846191,4207.692383,0.000000,4.000000,,,,0.000000,4.000000,4.000000,4.000000,4.000000,4.000000,,,,,,,,,,,,,,,,,,,,,,,,,
1577421099.510898,41.000000,0.000000,4207.179688,4262.563965,3862.564209,4109.743652,4193.333496,0.000000,4.000000,,,,0.000000,4.000000,4.000000,4.000000,4.000000,4.000000,93.762329,26.170122,10.229383,5.793748,37.907139,141.527985,17.582211,7.245662,5.603381,28.513119,368.974976,67.398155,20.351690,3.514095,29.187210,28.781467,6.851775,6.021458,4.868582,29.800217,60.016922,13.066795,4.279843,2.995673,28.275702
1577421099.518594,42.000000,0.000000,4205.128418,4267.179688,3875.897461,4103.077148,4191.794922,0.000000,4.000000,,,,0.000000,4.000000,4.000000,4.000000,4.000000,4.000000,,,,,,,,,,,,,,,,,,,,,,,,,
1577421099.526391,43.000000,0.000000,4200.512695,4249.230957,3886.666748,4102.051270,4180.512695,0.000000,4.000000,,,,0.000000,4.000000,4.000000,4.000000,4.000000,4.000000,,,,,,,,,,,,,,,,,,,,,,,,,
1577421099.534187,44.000000,0.000000,4184.102539,4213.333496,3890.256348,4105.641113,4169.743652,0.000000,4.000000,,,,0.000000,4.000000,4.000000,4.000000,4.000000,4.000000,,,,,,,,,,,,,,,,,,,,,,,,,
1577421099.541883,45.000000,0.000000,4182.563965,4205.128418,3897.948730,4116.410156,4181.025879,0.000000,4.000000,,,,0.000000,4.000000,4.000000,4.000000,4.000000,4.000000,,,,,,,,,,,,,,,,,,,,,,,,,
1577421099.549580,46.000000,0.000000,4199.487305,4205.128418,3911.281982,4127.692383,4201.538574,0.000000,4.000000,,,,0.000000,4.000000,4.000000,4.000000,4.000000,4.000000,,,,,,,,,,,,,,,,,,,,,,,,,
1577421099.557376,47.000000,0.000000,4206.153809,4181.025879,3914.358887,4116.922852,4208.717773,0.000000,4.000000,,,,0.000000,4.000000,4.000000,4.000000,4.000000,4.000000,,,,,,,,,,,,,,,,,,,,,,,,,
1577421099.565072,48.000000,0.000000,4189.230957,4137.948730,3900.000000,4100.512695,4195.384766,0.000000,4.000000,,,,0.000000,4.000000,4.000000,4.000000,4.000000,4.000000,,,,,,,,,,,,,,,,,,,,,,,,,
1577421099.572869,49.000000,0.000000,4171.794922,4108.717773,3890.769287,4109.230957,4184.102539,0.000000,4.000000,,,,0.000000,4.000000,4.000000,4.000000,4.000000,4.000000,,,,,,,,,,,,,,,,,,,,,,,,,
1577421099.580565,50.000000,0.000000,4167.179688,4099.487305,3899.487061,4113.846191,4186.153809,0.000000,4.000000,,,,0.000000,4.000000,4.000000,4.000000,4.000000,4.000000,,,,,,,,,,,,,,,,,,,,,,,,,
1577421099.588361,51.000000,0.000000,4162.563965,4086.666748,3910.769287,4096.922852,4191.282227,0.000000,4.000000,,,,0.000000,4.000000,4.000000,4.000000,4.000000,4.000000,,,,,,,,,,,,,,,,,,,,,,,,,
1577421099.596058,52.000000,0.000000,4160.000000,4085.128174,3915.384521,4104.102539,4193.333496,0.000000,4.000000,,,,0.000000,4.000000,4.000000,4.000000,4.000000,4.000000,,,,,,,,,,,,,,,,,,,,,,,,,
1577421099.603854,53.000000,0.000000,4165.641113,4100.000000,3919.487061,4121.025879,4197.436035,0.000000,4.000000,,,,0.000000,4.000000,4.000000,4.000000,4.000000,4.000000,,,,,,,,,,,,,,,,,,,,,,,,,
1577421099.611550,54.000000,0.000000,4189.743652,4111.282227,3938.974365,4116.410156,4221.025879,0.000000,4.000000,,,,0.000000,4.000000,4.000000,4.000000,4.000000,4.000000,,,,,,,,,,,,,,,,,,,,,,,,,
1577421099.619347,55.000000,0.000000,4209.743652,4115.384766,3967.179443,4118.461426,4241.025879,0.000000,4.000000,,,,0.000000,4.000000,4.000000,4.000000,4.000000,4.000000,,,,,,,,,,,,,,,,,,,,,,,,,
1577421099.627043,56.000000,0.000000,4196.410156,4110.769043,3962.051270,4130.256348,4234.358887,0.000000,4.000000,,,,0.000000,4.000000,4.000000,4.000000,4.000000,4.000000,,,,,,,,,,,,,,,,,,,,,,,,,
1577421099.634839,57.000000,0.000000,4186.666504,4114.871582,3939.487061,4128.205078,4227.179688,0.000000,4.000000,,,,0.000000,4.000000,4.000000,4.000000,4.000000,4.000000,128.970459,31.932957,12.121408,6.412549,43.513790,148.179214,19.343317,9.226369,6.384093,32.570511,403.735596,77.998955,22.832521,4.599492,33.431995,38.500992,7.877526,7.635846,5.911544,34.115753,82.171417,16.325176,5.283506,3.344199,32.510746
1577421099.642536,58.000000,0.000000,4183.589844,4149.230957,3931.794922,4118.461426,4215.384766,0.000000,4.000000,,,,0.000000,4.000000,4.000000,4.000000,4.000000,4.000000,,,,,,,,,,,,,,,,,,,,,,,,,
1577421099.650232,59.000000,0.000000,4170.256348,4207.179688,3933.333252,4124.102539,4199.487305,0.000000,4.000000,,,,0.000000,4.000000,4.000000,4.000000,4.000000,4.000000,,,,,,,,,,,,,,,,,,,,,,,,,
1577421099.658028,60.000000,0.000000,4173.333496,4262.051270,3950.769287,4138.974121,4207.692383,0.000000,4.000000,,,,0.000000,4.000000,4.000000,4.000000,4.000000,4.000000,,,,,,,,,,,,,,,,,,,,,,,,,
1577421099.665725,61.000000,0.000000,4190.256348,4291.282227,3978.974365,4145.128418,4225.128418,0.000000,4.000000,,,,0.000000,4.000000,4.000000,4.000000,4.000000,4.000000,,,,,,,,,,,,,,,,,,,,,,,,,
1577421099.673521,62.000000,0.000000,4202.563965,4300.000000,3997.948730,4148.717773,4235.897461,0.000000,4.000000,,,,0.000000,4.000000,4.000000,4.000000,4.000000,4.000000,,,,,,,,,,,,,,,,,,,,,,,,,
1577421099.681217,63.000000,0.000000,4204.102539,4299.487305,4003.589844,4144.615234,4235.897461,0.000000,4.000000,,,,0.000000,4.000000,4.000000,4.000000,4.000000,4.000000,,,,,,,,,,,,,,,,,,,,,,,,,
1577421099.689014,64.000000,0.000000,4199.487305,4308.717773,4000.512939,4136.410156,4229.743652,450.000000,4.000000,,,,0.000000,4.000000,4.000000,4.000000,4.000000,4.000000,,,,,,,,,,,,,,,,,,,,,,,,,
1577421099.696710,65.000000,0.000000,4197.436035,4334.358887,3995.897461,4127.692383,4226.153809,450.000000,4.000000,,,,0.000000,4.000000,4.000000,4.000000,4.000000,4.000000,,,,,,,,,,,,,,,,,,,,,,,,,
1577421099.704506,66.000000,0.000000,4192.307617,4335.897461,3987.179443,4114.358887,4222.051270,16210.000000,4.000000,,,,0.000000,4.000000,4.000000,4.000000,4.000000,4.000000,,,,,,,,,,,,,,,,,,,,,,,,,
1577421099.712203,67.000000,0.000000,4195.897461,4315.384766,3985.641113,4121.025879,4222.563965,450.000000,4.000000,,,,0.000000,4.000000,4.000000,4.000000,4.000000,4.000000,,,,,,,,,,,,,,,,,,,,,,,,,
1577421099.719999,68.000000,0.000000,4199.487305,4306.666504,3988.205078,4126.153809,4216.922852,16196.000000,4.000000,,,,0.000000,4.000000,4.000000,4.000000,4.000000,4.000000,,,,,,,,,,,,,,,,,,,,,,,,,
1577421099.727696,69.000000,0.000000,4184.615234,4307.692383,3989.230713,4108.205078,4198.974121,450.000000,4.000000,,,,0.000000,4.000000,4.000000,4.000000,4.000000,4.000000,,,,,,,,,,,,,,,,,,,,,,,,,
1577421099.735492,70.000000,0.000000,4200.000000,4323.589844,4024.102539,4135.897461,4219.487305,16155.000000,4.000000,,,,0.000000,4.000000,4.000000,4.000000,4.000000,4.000000,,,,,,,,,,,,,,,,,,,,,,,,,
1577421099.743188,71.000000,0.000000,4245.641113,4343.077148,4070.256348,4185.641113,4271.282227,450.000000,4.000000,,,,0.000000,4.000000,4.000000,4.000000,4.000000,4.000000,,,,,,,,,,,,,,,,,,,,,,,,,
1577421099.750984,72.000000,0.000000,4249.230957,4343.589844,4068.205078,4175.384766,4277.436035,450.000000,4.000000,,,,0.000000,4.000000,4.000000,4.000000,4.000000,4.000000,,,,,,,,,,,,,,,,,,,,,,,,,
1577421099.758681,73.000000,0.000000,4215.897461,4334.358887,4046.666748,4148.205078,4242.563965,16170.000000,4.000000,,,,0.000000,4.000000,4.000000,4.000000,4.000000,4.000000,155.872391,34.716995,13.237862,6.709813,43.231216,153.429123,22.020157,10.969496,6.628222,32.182003,396.309021,78.521912,22.769571,5.647733,33.154781,45.439621,8.297565,9.048286,6.727704,33.965466,99.181236,18.647882,6.447406,3.731447,32.409863
1577421099.766477,74.000000,0.000000,4206.666504,4320.512695,4043.076904,4143.589844,4230.769043,450.000000,4.000000,,,,0.000000,4.000000,4.000000,4.000000,4.000000,4.000000,,,,,,,,,,,,,,,,,,,,,,,,,
1577421099.774174,75.000000,0.000000,4222.051270,4291.794922,4049.230713,4151.282227,4240.512695,16212.000000,4.000000,,,,0.000000,4.000000,4.000000,4.000000,4.000000,4.000000,,,,,,,,,,,,,,,,,,,,,,,,,
1577421099.781970,76.000000,0.000000,4223.077148,4266.666504,4057.435791,4164.615234,4238.974121,450.000000,4.000000,,,,0.000000,4.000000,4.000000,4.000000,4.000000,4.000000,,,,,,,,,,,,,,,,,,,,,,,,,
1577421099.789666,77.000000,0.000000,4213.333496,4262.051270,4061.538574,4153.846191,4234.358887,450.000000,4.000000,,,,0.000000,4.000000,4.000000,4.000000,4.000000,4.000000,,,,,,,,,,,,,,,,,,,,,,,,,
1577421099.797463,78.000000,0.000000,4218.461426,4254.871582,4054.871826,4143.589844,4233.846191,450.000000,4.000000,,,,0.000000,4.000000,4.000000,4.000000,4.000000,4.000000,,,,,,,,,,,,,,,,,,,,,,,,,
1577421099.805159,79.000000,0.000000,4223.077148,4237.948730,4047.692383,4147.179688,4234.871582,16212.000000,4.000000,,,,0.000000,4.000000,4.000000,4.000000,4.000000,4.000000,,,,,,,,,,,,,,,,,,,,,,,,,
1577421099.812855,80.000000,0.000000,4217.436035,4257.436035,4051.281982,4135.897461,4237.436035,450.000000,4.000000,,,,0.000000,4.000000,4.000000,4.000000,4.000000,4.000000,,,,,,,,,,,,,,,,,,,,,,,,,
1577421099.820652,81.000000,0.000000,4205.641113,4304.102539,4052.820557,4134.871582,4229.743652,450.000000,4.000000,,,,0.000000,4.000000,4.000000,4.000000,4.000000,4.000000,,,,,,,,,,,,,,,,,,,,,,,,,
1577421099.828348,82.000000,0.000000,4189.743652,4321.025879,4052.820557,4152.820313,4211.794922,450.000000,4.000000,,,,0.000000,4.000000,4.000000,4.000000,4.000000,4.000000,,,,,,,,,,,,,,,,,,,,,,,,,
1577421099.836144,83.000000,0.000000,4186.666504,4332.307617,4060.512939,4144.615234,4197.436035,16212.000000,4.000000,,,,0.000000,4.000000,4.000000,4.000000,4.000000,4.000000,,,,,,,,,,,,,,,,,,,,,,,,,
1577421099.843841,84.000000,0.000000,4189.230957,4357.436035,4066.153809,4118.974121,4193.846191,450.000000,4.000000,,,,0.000000,4.000000,4.000000,4.000000,4.000000,4.000000,,,,,,,,,,,,,,,,,,,,,,,,,
1577421099.851637,85.000000,0.000000,4182.051270,4376.410156,4071.794922,4127.692383,4197.948730,450.000000,4.000000,,,,0.000000,4.000000,4.000000,4.000000,4.000000,4.000000,,,,,,,,,,,,,,,,,,,,,,,,,
1577421099.859433,86.000000,0.000000,4179.487305,4393.846191,4081.025635,4145.641113,4198.461426,450.000000,4.000000,,,,0.000000,4.000000,4.000000,4.000000,4.000000,4.000000,,,,,,,,,,,,,,,,,,,,,,,,,
1577421099.867130,87.000000,0.000000,4191.794922,4403.077148,4083.076904,4131.794922,4201.025879,16212.000000,4.000000,,,,0.000000,4.000000,4.000000,4.000000,4.000000,4.000000,,,,,,,,,,,,,,,,,,,,,,,,,
1577421099.874926,88.000000,0.000000,4206.153809,4396.410156,4090.256348,4129.230957,4212.307617,450.000000,4.000000,,,,0.000000,4.000000,4.000000,4.000000,4.000000,4.000000,,,,,,,,,,,,,,,,,,,,,,,,,
1577421099.882622,89.000000,0.000000,4213.333496,4401.025879,4109.230957,4158.461426,4221.538574,450.000000,4.000000,,,,0.000000,4.000000,4.000000,4.000000,4.000000,4.000000,167.188995,33.879768,13.467296,6.603755,37.095097,159.364014,25.195387,12.172460,6.249420,27.451733,348.877991,69.368668,20.544283,6.417616,28.402128,47.555405,8.025999,9.955256,7.069913,29.281534,106.076004,19.436893,7.663349,4.035817,27.947189
1577421099.890319,90.000000,0.000000,4222.051270,4391.282227,4120.512695,4175.897461,4227.179688,450.000000,4.000000,,,,0.000000,4.000000,4.000000,4.000000,4.000000,4.000000,,,,,,,,,,,,,,,,,,,,,,,,,
1577421099.898115,91.000000,0.000000,4231.282227,4315.897461,4118.461426,4168.205078,4226.153809,16212.000000,4.000000,,,,0.000000,4.000000,4.000000,4.000000,4.000000,4.000000,,,,,,,,,,,,,,,,,,,,,,,,,
1577421099.905811,92.000000,0.000000,4228.205078,4225.641113,4116.410156,4169.743652,4226.666504,450.000000,4.000000,,,,0.000000,4.000000,4.000000,4.000000,4.000000,4.000000,,,,,,,,,,,,,,,,,,,,,,,,,
1577421099.913608,93.000000,0.000000,4215.384766,4191.794922,4116.922852,4168.205078,4229.230957,450.000000,4.000000,,,,0.000000,4.000000,4.000000,4.000000,4.000000,4.000000,,,,,,,,,,,,,,,,,,,,,,,,,
1577421099.921304,94.000000,0.000000,4203.077148,4182.563965,4107.179688,4138.461426,4217.948730,450.000000,4.000000,,,,0.000000,4.000000,4.000000,4.000000,4.000000,4.000000,,,,,,,,,,,,,,,,,,,,,,,,,
1577421099.929100,95.000000,0.000000,4205.128418,4170.769043,4103.077148,4133.333496,4213.333496,16212.000000,4.000000,,,,0.000000,4.000000,4.000000,4.000000,4.000000,4.000000,,,,,,,,,,,,,,,,,,,,,,,,,
1577421099.936797,96.000000,0.000000,4210.769043,4171.282227,4109.743652,4150.256348,4217.948730,450.000000,4.000000,,,,0.000000,4.000000,4.000000,4.000000,4.000000,4.000000,,,,,,,,,,,,,,,,,,,,,,,,,
1577421099.944593,97.000000,0.000000,4195.384766,4164.615234,4102.563965,4134.871582,4204.615234,450.000000,4.000000,,,,0.000000,4.000000,4.000000,4.000000,4.000000,4.000000,,,,,,,,,,,,,,,,,,,,,,,,,
1577421099.952289,98.000000,0.000000,4192.820313,4159.487305,4112.307617,4130.769043,4201.025879,450.000000,4.000000,,,,0.000000,4.000000,4.000000,4.000000,4.000000,4.000000,,,,,,,,,,,,,,,,,,,,,,,,,
1577421099.959986,99.000000,0.000000,4209.743652,4166.666504,4137.948730,4137.436035,4212.307617,16212.000000,4.000000,,,,0.000000,4.000000,4.000000,4.000000,4.000000,4.000000,,,,,,,,,,,,,,,,,,,,,,,,,
1577421099.967783,100.000000,0.000000,4202.051270,4160.512695,4134.871582,4127.692383,4203.589844,450.000000,4.000000,,,,0.000000,4.000000,4.000000,4.000000,4.000000,4.000000,,,,,,,,,,,,,,,,,,,,,,,,,
1577421099.975579,101.000000,0.000000,4197.436035,4163.077148,4136.410156,4144.615234,4202.563965,450.000000,4.000000,,,,0.000000,4.000000,4.000000,4.000000,4.000000,4.000000,,,,,,,,,,,,,,,,,,,,,,,,,
1577421099.983275,102.000000,0.000000,4201.538574,4171.794922,4139.487305,4154.871582,4212.820313,450.000000,4.000000,,,,0.000000,4.000000,4.000000,4.000000,4.000000,4.000000,,,,,,,,,,,,,,,,,,,,,,,,,
1577421099.991072,103.000000,0.000000,4186.666504,4154.358887,4115.384766,4123.589844,4201.025879,16212.000000,4.000000,,,,0.000000,4.000000,4.000000,4.000000,4.000000,4.000000,,,,,,,,,,,,,,,,,,,,,,,,,
1577421099.998768,104.000000,0.000000,4182.051270,4147.179688,4111.282227,4121.538574,4188.205078,450.000000,4.000000,,,,0.000000,4.000000,4.000000,4.000000,4.000000,4.000000,,,,,,,,,,,,,,,,,,,,,,,,,
1577421100.006564,105.000000,0.000000,4210.769043,4172.820313,4149.230957,4162.051270,4213.333496,450.000000,4.000000,,,,0.000000,4.000000,4.000000,4.000000,4.000000,4.000000,159.627396,29.876087,12.930936,6.124817,27.234354,169.870911,28.833122,12.794369,5.392485,20.014080,275.063354,54.604603,17.247564,6.700252,20.829378,44.420334,7.247192,10.181092,6.807724,21.663279,100.728279,18.498302,8.772079,4.164136,20.669363
1577421100.014261,106.000000,0.000000,4231.282227,4181.538574,4175.384766,4163.589844,4239.487305,450.000000,4.000000,,,,0.000000,4.000000,4.000000,4.000000,4.000000,4.000000,,,,,,,,,,,,,,,,,,,,,,,,,
1577421100.022057,107.000000,0.000000,4214.871582,4166.666504,4165.128418,4137.948730,4221.025879,16212.000000,4.000000,,,,0.000000,4.000000,4.000000,4.000000,4.000000,4.000000,,,,,,,,,,,,,,,,,,,,,,,,,
1577421100.029753,108.000000,0.000000,4204.102539,4163.589844,4163.589844,4143.589844,4208.717773,450.000000,4.000000,,,,0.000000,4.000000,4.000000,4.000000,4.000000,4.000000,,,,,,,,,,,,,,,,,,,,,,,,,
1577421100.037550,109.000000,0.000000,4209.230957,4147.179688,4172.307617,4137.948730,4207.692383,450.000000,4.000000,,,,0.000000,4.000000,4.000000,4.000000,4.000000,4.000000,,,,,,,,,,,,,,,,,,,,,,,,,
1577421100.045246,110.000000,0.000000,4196.922852,4100.512695,4167.179688,4113.333496,4190.256348,450.000000,4.000000,,,,0.000000,4.000000,4.000000,4.000000,4.000000,4.000000,,,,,,,,,,,,,,,,,,,,,,,,,
1577421100.053042,111.000000,0.000000,4192.307617,4068.718018,4170.256348,4118.974121,4191.282227,16212.000000,4.000000,,,,0.000000,4.000000,4.000000,4.000000,4.000000,4.000000,,,,,,,,,,,,,,,,,,,,,,,,,
1577421100.060739,112.000000,0.000000,4209.230957,4056.410156,4176.922852,4136.410156,4204.615234,450.000000,4.000000,,,,0.000000,4.000000,4.000000,4.000000,4.000000,4.000000,,,,,,,,,,,,,,,,,,,,,,,,,
1577421100.068535,113.000000,0.000000,4209.230957,4042.051270,4166.153809,4132.307617,4201.025879,450.000000,4.000000,,,,0.000000,4.000000,4.000000,4.000000,4.000000,4.000000,,,,,,,,,,,,,,,,,,,,,,,,,
1577421100.076232,114.000000,0.000000,4194.358887,4026.153809,4155.897461,4125.641113,4191.794922,450.000000,4.000000,,,,0.000000,4.000000,4.000000,4.000000,4.000000,4.000000,,,,,,,,,,,,,,,,,,,,,,,,,
1577421100.084028,115.000000,0.000000,4197.436035,4006.666748,4163.077148,4125.641113,4193.846191,16212.000000,4.000000,,,,0.000000,4.000000,4.000000,4.000000,4.000000,4.000000,,,,,,,,,,,,,,,,,,,,,,,,,
1577421100.091724,116.000000,0.000000,4204.102539,3990.769287,4175.897461,4128.717773,4199.487305,450.000000,4.000000,,,,0.000000,4.000000,4.000000,4.000000,4.000000,4.000000,,,,,,,,,,,,,,,,,,,,,,,,,
1577421100.099421,117.000000,0.000000,4186.153809,3986.153809,4175.897461,4122.051270,4185.128418,450.000000,4.000000,,,,0.000000,4.000000,4.000000,4.000000,4.000000,4.000000,,,,,,,,,,,,,,,,,,,,,,,,,
1577421100.107217,118.000000,0.000000,4165.641113,3988.718018,4167.692383,4100.512695,4169.230957,450.000000,4.000000,,,,0.000000,4.000000,4.000000,4.000000,4.000000,4.000000,,,,,,,,,,,,,,,,,,,,,,,,,
1577421100.114913,119.000000,0.000000,4162.051270,3986.153809,4158.461426,4103.077148,4168.717773,16212.000000,4.000000,,,,0.000000,4.000000,4.000000,4.000000,4.000000,4.000000,,,,,,,,,,,,,,,,,,,,,,,,,
1577421100.122710,120.000000,0.000000,4157.948730,3975.897461,4143.077148,4101.025879,4167.179688,450.000000,4.000000,,,,0.000000,4.000000,4.000000,4.000000,4.000000,4.000000,,,,,,,,,,,,,,,,,,,,,,,,,
1577421100.130406,121.000000,0.000000,4160.000000,3982.051270,4135.384766,4080.000000,4169.230957,450.000000,4.000000,,,,0.000000,4.000000,4.000000,4.000000,4.000000,4.000000,135.676514,24.060820,11.866565,5.376433,16.822443,186.424484,33.021168,12.930965,4.367921,12.245598,198.278778,39.596066,14.125100,6.423422,12.876174,37.335640,6.339812,9.725518,5.970747,13.565152,84.759094,16.167423,9.556420,4.060228,12.923669
1577421100.138202,122.000000,0.000000,4172.307617,4001.025635,4142.563965,4093.846191,4176.410156,450.000000,4.000000,,,,0.000000,4.000000,4.000000,4.000000,4.000000,4.000000,,,,,,,,,,,,,,,,,,,,,,,,,
1577421100.145899,123.000000,0.000000,4159.487305,3995.897461,4136.410156,4115.897461,4172.820313,16212.000000,4.000000,,,,0.000000,4.000000,4.000000,4.000000,4.000000,4.000000,,,,,,,,,,,,,,,,,,,,,,,,,
1577421100.153695,124.000000,0.000000,4131.282227,3970.769287,4119.487305,4095.384521,4151.794922,450.000000,4.000000,,,,0.000000,4.000000,4.000000,4.000000,4.000000,4.000000,,,,,,,,,,,,,,,,,,,,,,,,,
1577421100.161391,125.000000,0.000000,4127.692383,3970.256348,4120.512695,4075.384521,4136.410156,450.000000,4.000000,,,,0.000000,4.000000,4.000000,4.000000,4.000000,4.000000,,,,,,,,,,,,,,,,,,,,,,,,,
1577421100.169188,126.000000,0.000000,4147.692383,3997.435791,4138.461426,4098.974121,4151.794922,450.000000,4.000000,,,,0.000000,4.000000,4.000000,4.000000,4.000000,4.000000,,,,,,,,,,,,,,,,,,,,,,,,,
1577421100.176884,127.000000,0.000000,4164.102539,4008.718018,4154.871582,4121.025879,4173.846191,235.000000,4.000000,,,,0.000000,4.000000,4.000000,4.000000,4.000000,4.000000,,,,,,,,,,,,,,,,,,,,,,,,,
1577421100.184680,0.000000,0.000000,4156.410156,4003.076904,4156.410156,4102.563965,4166.153809,450.000000,4.000000,,,,0.000000,4.000000,4.000000,4.000000,4.000000,4.000000,,,,,,,,,,,,,,,,,,,,,,,,,
1577421100.192377,1.000000,0.000000,4151.794922,4015.897461,4158.461426,4085.128174,4154.871582,450.000000,4.000000,,,,0.000000,4.000000,4.000000,4.000000,4.000000,4.000000,,,,,,,,,,,,,,,,,,,,,,,,,
1577421100.200173,2.000000,0.000000,4170.769043,4030.256348,4175.384766,4101.538574,4174.358887,16219.000000,4.000000,,,,0.000000,4.000000,4.000000,4.000000,4.000000,4.000000,,,,,,,,,,,,,,,,,,,,,,,,,
1577421100.207869,3.000000,0.000000,4191.282227,4038.974365,4191.794922,4118.461426,4197.948730,450.000000,4.000000,,,,0.000000,4.000000,4.000000,4.000000,4.000000,4.000000,,,,,,,,,,,,,,,,,,,,,,,,,
1577421100.215566,4.000000,0.000000,4190.256348,4048.205078,4196.410156,4110.769043,4190.769043,16206.000000,4.000000,,,,0.000000,4.000000,4.000000,4.000000,4.000000,4.000000,,,,,,,,,,,,,,,,,,,,,,,,,
1577421100.223362,5.000000,0.000000,4173.333496,4038.461426,4194.871582,4105.641113,4166.153809,450.000000,4.000000,,,,0.000000,4.000000,4.000000,4.000000,4.000000,4.000000,,,,,,,,,,,,,,,,,,,,,,,,,
1577421100.231158,6.000000,0.000000,4166.153809,4029.230713,4201.025879,4115.384766,4162.051270,16163.000000,4.000000,,,,0.000000,4.000000,4.000000,4.000000,4.000000,4.000000,,,,,,,,,,,,,,,,,,,,,,,,,
1577421100.238855,7.000000,0.000000,4164.615234,4024.102539,4206.153809,4114.358887,4164.615234,450.000000,4.000000,,,,0.000000,4.000000,4.000000,4.000000,4.000000,4.000000,,,,,,,,,,,,,,,,,,,,,,,,,
1577421100.246551,8.000000,0.000000,4165.641113,4018.974365,4207.692383,4102.563965,4163.589844,450.000000,4.000000,,,,0.000000,4.000000,4.000000,4.000000,4.000000,4.000000,,,,,,,,,,,,,,,,,,,,,,,,,
1577421100.254347,9.000000,0.000000,4170.769043,4029.230713,4211.282227,4102.563965,4165.641113,16163.000000,4.000000,,,,0.000000,4.000000,4.000000,4.000000,4.000000,4.000000,102.849991,18.060061,10.515711,4.494226,8.588199,208.388046,37.346581,12.734532,3.501156,6.172057,134.463745,28.309227,11.939130,5.686848,6.617738,28.625322,5.687162,8.756855,4.757761,7.145631,63.270565,13.157559,9.807364,3.716034,6.754875
1577421100.262044,10.000000,0.000000,4167.179688,4031.794922,4210.256348,4103.589844,4162.563965,450.000000,4.000000,,,,0.000000,4.000000,4.000000,4.000000,4.000000,4.000000,,,,,,,,,,,,,,,,,,,,,,,,,
1577421100.269840,11.000000,0.000000,4165.641113,4020.512939,4206.153809,4100.512695,4164.102539,16214.000000,4.000000,,,,0.000000,4.000000,4.000000,4.000000,4.000000,4.000000,,,,,,,,,,,,,,,,,,,,,,,,,
1577421100.277536,12.000000,0.000000,4167.179688,4019.487061,4205.641113,4094.871826,4165.641113,450.000000,4.000000,,,,0.000000,4.000000,4.000000,4.000000,4.000000,4.000000,,,,,,,,,,,,,,,,,,,,,,,,,
1577421100.285333,13.000000,0.000000,4175.897461,4032.307617,4220.000000,4093.846191,4170.769043,450.000000,4.000000,,,,0.000000,4.000000,4.000000,4.000000,4.000000,4.000000,,,,,,,,,,,,,,,,,,,,,,,,,
1577421100.293029,14.000000,0.000000,4192.820313,4043.076904,4248.205078,4116.410156,4185.128418,450.000000,4.000000,,,,0.000000,4.000000,4.000000,4.000000,4.000000,4.000000,,,,,,,,,,,,,,,,,,,,,,,,,
1577421100.300726,15.000000,0.000000,4195.384766,4041.538574,4261.025879,4137.436035,4192.307617,16214.000000,4.000000,,,,0.000000,4.000000,4.000000,4.000000,4.000000,4.000000,,,,,,,,,,,,,,,,,,,,,,,,,
1577421100.308522,16.000000,0.000000,4183.589844,4029.230713,4254.871582,4118.461426,4182.051270,0.000000,4.000000,,,,0.000000,4.000000,4.000000,4.000000,4.000000,4.000000,,,,,,,,,,,,,,,,,,,,,,,,,
1577421100.316219,17.000000,0.000000,4170.256348,4022.051270,4249.743652,4089.743652,4162.563965,0.000000,4.000000,,,,0.000000,4.000000,4.000000,4.000000,4.000000,4.000000,,,,,,,,,,,,,,,,,,,,,,,,,
1577421100.324015,18.000000,0.000000,4168.205078,4034.358887,4257.436035,4108.205078,4156.922852,0.000000,4.000000,,,,0.000000,4.000000,4.000000,4.000000,4.000000,4.000000,,,,,,,,,,,,,,,,,,,,,,,,,
1577421100.331712,19.000000,0.000000,4180.512695,4048.205078,4273.846191,4128.205078,4168.717773,0.000000,4.000000,,,,0.000000,4.000000,4.000000,4.000000,4.000000,4.000000,,,,,,,,,,,,,,,,,,,,,,,,,
1577421100.339509,20.000000,0.000000,4184.615234,4038.461426,4280.000000,4115.897461,4171.794922,0.000000,4.000000,,,,0.000000,4.000000,4.000000,4.000000,4.000000,4.000000,,,,,,,,,,,,,,,,,,,,,,,,,
1577421100.347205,21.000000,0.000000,4179.487305,4034.871826,4286.153809,4117.436035,4171.282227,0.000000,4.000000,,,,0.000000,4.000000,4.000000,4.000000,4.000000,4.000000,,,,,,,,,,,,,,,,,,,,,,,,,
1577421100.354902,22.000000,0.000000,4192.307617,4065.641113,4311.282227,4134.358887,4186.666504,0.000000,4.000000,,,,0.000000,4.000000,4.000000,4.000000,4.000000,4.000000,,,,,,,,,,,,,,,,,,,,,,,,,
1577421100.362698,23.000000,0.000000,4220.512695,4093.846191,4341.538574,4153.846191,4214.358887,0.000000,4.000000,,,,0.000000,4.000000,4.000000,4.000000,4.000000,4.000000,,,,,,,,,,,,,,,,,,,,,,,,,
1577421100.370495,24.000000,0.000000,4241.538574,4092.820557,4357.948730,4171.794922,4229.230957,0.000000,4.000000,,,,0.000000,4.000000,4.000000,4.000000,4.000000,4.000000,,,,,,,,,,,,,,,,,,,,,,,,,
1577421100.378191,25.000000,0.000000,4237.436035,4084.615479,4352.820313,4156.922852,4216.922852,0.000000,4.000000,,,,0.000000,4.000000,4.000000,4.000000,4.000000,4.000000,69.858704,12.914371,9.041714,3.616260,3.724676,232.516266,40.965393,12.321767,2.984803,2.664600,91.225273,21.631996,10.679573,4.710093,2.940915,20.514719,5.416797,7.532772,3.475029,3.387356,42.002544,10.056973,9.426027,3.210380,3.084673
1577421100.385888,26.000000,0.000000,4221.538574,4080.000000,4338.461426,4135.897461,4202.563965,0.000000,4.000000,,,,0.000000,4.000000,4.000000,4.000000,4.000000,4.000000,,,,,,,,,,,,,,,,,,,,,,,,,
1577421100.393684,27.000000,0.000000,4215.384766,4071.794922,4333.333496,4142.563965,4195.897461,0.000000,4.000000,,,,0.000000,4.000000,4.000000,4.000000,4.000000,4.000000,,,,,,,,,,,,,,,,,,,,,,,,,
1577421100.401481,28.000000,0.000000,4211.794922,4070.256348,4329.743652,4136.922852,4189.230957,0.000000,4.000000,,,,0.000000,4.000000,4.000000,4.000000,4.000000,4.000000,,,,,,,,,,,,,,,,,,,,,,,,,
1577421100.409177,29.000000,0.000000,4207.692383,4081.538574,4319.487305,4114.871582,4188.717773,0.000000,4.000000,,,,0.000000,4.000000,4.000000,4.000000,4.000000,4.000000,,,,,,,,,,,,,,,,,,,,,,,,,
1577421100.416974,30.000000,0.000000,4209.230957,4086.666748,4315.384766,4117.948730,4192.307617,0.000000,4.000000,,,,0.000000,4.000000,4.000000,4.000000,4.000000,4.000000,,,,,,,,,,,,,,,,,,,,,,,,,
1577421100.424670,31.000000,0.000000,4218.974121,4087.179443,4317.948730,4129.743652,4201.025879,0.000000,4.000000,,,,0.000000,4.000000,4.000000,4.000000,4.000000,4.000000,,,,,,,,,,,,,,,,,,,,,,,,,
1577421100.432466,32.000000,0.000000,4222.563965,4103.077148,4310.256348,4119.487305,4206.153809,0.000000,4.000000,,,,0.000000,4.000000,4.000000,4.000000,4.000000,4.000000,,,,,,,,,,,,,,,,,,,,,,,,,
1577421100.440163,33.000000,0.000000,4223.589844,4127.692383,4306.666504,4115.384766,4205.641113,0.000000,4.000000,,,,0.000000,4.000000,4.000000,4.000000,4.000000,4.000000,,,,,,,,,,,,,,,,,,,,,,,,,
1577421100.447859,34.000000,0.000000,4231.282227,4154.871582,4321.538574,4129.230957,4203.589844,0.000000,4.000000,,,,0.000000,4.000000,4.000000,4.000000,4.000000,4.000000,,,,,,,,,,,,,,,,,,,,,,,,,
1577421100.455656,35.000000,0.000000,4228.717773,4177.948730,4334.871582,4129.743652,4195.384766,0.000000,4.000000,,,,0.000000,4.000000,4.000000,4.000000,4.000000,4.000000,,,,,,,,,,,,,,,,,,,,,,,,,
1577421100.463352,36.000000,0.000000,4223.589844,4191.282227,4343.589844,4128.717773,4196.922852,0.000000,4.000000,,,,0.000000,4.000000,4.000000,4.000000,4.000000,4.000000,,,,,,,,,,,,,,,,,,,,,,,,,
1577421100.471149,37.000000,0.000000,4234.358887,4211.282227,4363.077148,4148.717773,4210.256348,0.000000,4.000000,,,,0.000000,4.000000,4.000000,4.000000,4.000000,4.000000,,,,,,,,,,,,,,,,,,,,,,,,,
1577421100.478846,38.000000,0.000000,4240.000000,4232.307617,4377.436035,4157.948730,4214.358887,0.000000,4.000000,,,,0.000000,4.000000,4.000000,4.000000,4.000000,4.000000,,,,,,,,,,,,,,,,,,,,,,,,,
1577421100.486642,39.000000,0.000000,4236.922852,4231.794922,4374.871582,4154.358887,4210.256348,0.000000,4.000000,,,,0.000000,4.000000,4.000000,4.000000,4.000000,4.000000,,,,,,,,,,,,,,,,,,,,,,,,,
1577421100.494339,40.000000,0.000000,4241.025879,4221.538574,4373.846191,4154.871582,4210.769043,0.000000,4.000000,,,,0.000000,4.000000,4.000000,4.000000,4.000000,4.000000,,,,,,,,,,,,,,,,,,,,,,,,,
1577421100.502135,41.000000,0.000000,4235.384766,4220.512695,4369.230957,4140.000000,4207.692383,0.000000,4.000000,,,,0.000000,4.000000,4.000000,4.000000,4.000000,4.000000,42.446049,8.932375,7.514430,2.853207,1.731206,247.813263,42.679615,11.693952,2.814251,1.321097,64.869492,17.751118,9.776245,3.744618,1.437673,14.147247,5.340404,6.283221,2.399762,1.931688,24.931818,7.266945,8.460842,2.668305,1.572130
1577421100.509832,42.000000,0.000000,4232.820313,4221.025879,4366.666504,4126.666504,4207.692383,0.000000,4.000000,,,,0.000000,4.000000,4.000000,4.000000,4.000000,4.000000,,,,,,,,,,,,,,,,,,,,,,,,,
1577421100.517628,43.000000,0.000000,4237.436035,4206.666504,4363.077148,4133.846191,4210.769043,0.000000,4.000000,,,,0.000000,4.000000,4.000000,4.000000,4.000000,4.000000,,,,,,,,,,,,,,,,,,,,,,,,,
1577421100.525325,44.000000,0.000000,4224.102539,4189.743652,4349.230957,4131.794922,4202.051270,0.000000,4.000000,,,,0.000000,4.000000,4.000000,4.000000,4.000000,4.000000,,,,,,,,,,,,,,,,,,,,,,,,,
1577421100.533122,45.000000,0.000000,4209.743652,4187.692383,4342.563965,4117.948730,4187.692383,0.000000,4.000000,,,,0.000000,4.000000,4.000000,4.000000,4.000000,4.000000,,,,,,,,,,,,,,,,,,,,,,,,,
1577421100.540818,46.000000,0.000000,4203.589844,4173.846191,4335.897461,4117.436035,4177.948730,0.000000,4.000000,,,,0.000000,4.000000,4.000000,4.000000,4.000000,4.000000,,,,,,,,,,,,,,,,,,,,,,,,,
1577421100.548615,47.000000,0.000000,4204.615234,4148.205078,4331.282227,4141.025879,4183.589844,0.000000,4.000000,,,,0.000000,4.000000,4.000000,4.000000,4.000000,4.000000,,,,,,,,,,,,,,,,,,,,,,,,,
1577421100.556311,48.000000,0.000000,4206.666504,4136.410156,4333.846191,4146.153809,4185.641113,0.000000,4.000000,,,,0.000000,4.000000,4.000000,4.000000,4.000000,4.000000,,,,,,,,,,,,,,,,,,,,,,,,,
1577421100.564107,49.000000,0.000000,4201.025879,4139.487305,4326.153809,4124.615234,4178.461426,0.000000,4.000000,,,,0.000000,4.000000,4.000000,4.000000,4.000000,4.000000,,,,,,,,,,,,,,,,,,,,,,,,,
1577421100.571804,50.000000,0.000000,4195.897461,4142.563965,4305.641113,4113.846191,4175.384766,0.000000,4.000000,,,,0.000000,4.000000,4.000000,4.000000,4.000000,4.000000,,,,,,,,,,,,,,,,,,,,,,,,,
1577421100.579600,51.000000,0.000000,4183.589844,4128.717773,4287.179688,4109.230957,4163.589844,0.000000,4.000000,,,,0.000000,4.000000,4.000000,4.000000,4.000000,4.000000,,,,,,,,,,,,,,,,,,,,,,,,,
1577421100.587297,52.000000,0.000000,4175.384766,4126.153809,4286.666504,4091.281982,4155.897461,0.000000,4.000000,,,,0.000000,4.000000,4.000000,4.000000,4.000000,4.000000,,,,,,,,,,,,,,,,,,,,,,,,,
1577421100.595093,53.000000,0.000000,4204.615234,4163.077148,4306.153809,4097.948730,4185.128418,0.000000,4.000000,,,,0.000000,4.000000,4.000000,4.000000,4.000000,4.000000,,,,,,,,,,,,,,,,,,,,,,,,,
1577421100.602789,54.000000,0.000000,4237.436035,4193.846191,4317.948730,4138.461426,4218.974121,0.000000,4.000000,,,,0.000000,4.000000,4.000000,4.000000,4.000000,4.000000,,,,,,,,,,,,,,,,,,,,,,,,,
1577421100.610486,55.000000,0.000000,4224.615234,4191.282227,4307.692383,4145.128418,4204.615234,0.000000,4.000000,,,,0.000000,4.000000,4.000000,4.000000,4.000000,4.000000,,,,,,,,,,,,,,,,,,,,,,,,,
1577421100.618282,56.000000,0.000000,4211.282227,4197.436035,4311.282227,4131.282227,4192.820313,0.000000,4.000000,,,,0.000000,4.000000,4.000000,4.000000,4.000000,4.000000,,,,,,,,,,,,,,,,,,,,,,,,,
1577421100.626079,57.000000,0.000000,4232.820313,4232.820313,4349.743652,4155.384766,4226.153809,0.000000,4.000000,,,,0.000000,4.000000,4.000000,4.000000,4.000000,4.000000,23.818495,5.972156,6.023023,2.264291,1.203692,249.623840,41.987923,10.824486,2.822454,1.063296,45.982967,14.280544,8.615201,2.962977,1.022262,9.905433,5.180830,5.139657,1.665584,1.668053,13.806193,5.035077,7.140288,2.192345,1.178759
1577421100.633775,58.000000,0.000000,4235.384766,4245.641113,4359.487305,4168.205078,4229.743652,0.000000,4.000000,,,,0.000000,4.000000,4.000000,4.000000,4.000000,4.000000,,,,,,,,,,,,,,,,,,,,,,,,,
1577421100.641472,59.000000,0.000000,4204.615234,4229.230957,4326.666504,4131.282227,4194.358887,0.000000,4.000000,,,,0.000000,4.000000,4.000000,4.000000,4.000000,4.000000,,,,,,,,,,,,,,,,,,,,,,,,,
1577421100.649268,60.000000,0.000000,4194.358887,4248.717773,4321.538574,4103.077148,4184.102539,0.000000,4.000000,,,,0.000000,4.000000,4.000000,4.000000,4.000000,4.000000,,,,,,,,,,,,,,,,,,,,,,,,,
1577421100.656965,61.000000,0.000000,4208.717773,4290.769043,4340.000000,4116.410156,4193.333496,0.000000,4.000000,,,,0.000000,4.000000,4.000000,4.000000,4.000000,4.000000,,,,,,,,,,,,,,,,,,,,,,,,,
1577421100.664762,62.000000,0.000000,4215.384766,4286.666504,4342.563965,4144.102539,4195.384766,0.000000,4.000000,,,,0.000000,4.000000,4.000000,4.000000,4.000000,4.000000,,,,,,,,,,,,,,,,,,,,,,,,,
1577421100.672458,63.000000,0.000000,4205.641113,4254.871582,4332.820313,4151.282227,4185.128418,0.000000,4.000000,,,,0.000000,4.000000,4.000000,4.000000,4.000000,4.000000,,,,,,,,,,,,,,,,,,,,,,,,,
1577421100.680255,64.000000,0.000000,4192.307617,4248.717773,4322.563965,4132.307617,4175.897461,450.000000,4.000000,,,,0.000000,4.000000,4.000000,4.000000,4.000000,4.000000,,,,,,,,,,,,,,,,,,,,,,,,,
1577421100.687951,65.000000,0.000000,4198.461426,4255.384766,4328.717773,4133.846191,4186.666504,450.000000,4.000000,,,,0.000000,4.000000,4.000000,4.000000,4.000000,4.000000,,,,,,,,,,,,,,,,,,,,,,,,,
1577421100.695748,66.000000,0.000000,4200.512695,4251.794922,4335.897461,4141.538574,4185.641113,16226.000000,4.000000,,,,0.000000,4.000000,4.000000,4.000000,4.000000,4.000000,,,,,,,,,,,,,,,,,,,,,,,,,
1577421100.703445,67.000000,0.000000,4187.179688,4244.615234,4324.615234,4125.641113,4172.820313,450.000000,4.000000,,,,0.000000,4.000000,4.000000,4.000000,4.000000,4.000000,,,,,,,,,,,,,,,,,,,,,,,,,
1577421100.711241,68.000000,0.000000,4185.641113,4234.358887,4316.922852,4124.102539,4173.846191,16204.000000,4.000000,,,,0.000000,4.000000,4.000000,4.000000,4.000000,4.000000,,,,,,,,,,,,,,,,,,,,,,,,,
1577421100.718938,69.000000,0.000000,4189.230957,4224.102539,4323.077148,4125.641113,4173.846191,450.000000,4.000000,,,,0.000000,4.000000,4.000000,4.000000,4.000000,4.000000,,,,,,,,,,,,,,,,,,,,,,,,,
1577421100.726734,70.000000,0.000000,4196.922852,4227.692383,4328.205078,4119.487305,4176.410156,16157.000000,4.000000,,,,0.000000,4.000000,4.000000,4.000000,4.000000,4.000000,,,,,,,,,,,,,,,,,,,,,,,,,
1577421100.734431,71.000000,0.000000,4194.871582,4229.230957,4311.794922,4123.589844,4171.794922,450.000000,4.000000,,,,0.000000,4.000000,4.000000,4.000000,4.000000,4.000000,,,,,,,,,,,,,,,,,,,,,,,,,
1577421100.742227,72.000000,0.000000,4178.974121,4227.692383,4294.871582,4125.128418,4155.384766,450.000000,4.000000,,,,0.000000,4.000000,4.000000,4.000000,4.000000,4.000000,,,,,,,,,,,,,,,,,,,,,,,,,
1577421100.749924,73.000000,0.000000,4188.717773,4252.307617,4314.358887,4132.820313,4167.179688,16166.000000,4.000000,,,,0.000000,4.000000,4.000000,4.000000,4.000000,4.000000,13.411113,3.983597,4.776155,1.854556,1.028539,233.234390,39.097717,9.710941,2.806320,1.034410,31.086172,10.440964,7.073860,2.402625,0.847314,7.217243,4.818083,4.160286,1.259066,1.665889,7.873516,3.567805,5.787226,1.820170,1.052770
1577421100.757720,74.000000,0.000000,4204.615234,4266.153809,4334.358887,4140.000000,4181.025879,450.000000,4.000000,,,,0.000000,4.000000,4.000000,4.000000,4.000000,4.000000,,,,,,,,,,,,,,,,,,,,,,,,,
1577421100.765416,75.000000,0.000000,4205.128418,4262.051270,4336.410156,4144.615234,4178.461426,16224.000000,4.000000,,,,0.000000,4.000000,4.000000,4.000000,4.000000,4.000000,,,,,,,,,,,,,,,,,,,,,,,,,
1577421100.773113,76.000000,0.000000,4215.897461,4273.333496,4347.179688,4150.769043,4190.256348,450.000000,4.000000,,,,0.000000,4.000000,4.000000,4.000000,4.000000,4.000000,,,,,,,,,,,,,,,,,,,,,,,,,
1577421100.780910,77.000000,0.000000,4216.922852,4274.358887,4336.410156,4141.538574,4192.307617,450.000000,4.000000,,,,0.000000,4.000000,4.000000,4.000000,4.000000,4.000000,,,,,,,,,,,,,,,,,,,,,,,,,
1577421100.788606,78.000000,0.000000,4200.512695,4262.051270,4313.333496,4123.589844,4173.846191,450.000000,4.000000,,,,0.000000,4.000000,4.000000,4.000000,4.000000,4.000000,,,,,,,,,,,,,,,,,,,,,,,,,
1577421100.796503,79.000000,0.000000,4225.128418,4272.307617,4333.846191,4135.384766,4193.333496,16224.000000,4.000000,,,,0.000000,4.000000,4.000000,4.000000,4.000000,4.000000,,,,,,,,,,,,,,,,,,,,,,,,,
1577421100.804299,80.000000,0.000000,4261.538574,4278.461426,4347.179688,4167.179688,4231.794922,450.000000,4.000000,,,,0.000000,4.000000,4.000000,4.000000,4.000000,4.000000,,,,,,,,,,,,,,,,,,,,,,,,,
1577421100.812196,81.000000,0.000000,4231.794922,4252.307617,4308.205078,4163.589844,4207.692383,450.000000,4.000000,,,,0.000000,4.000000,4.000000,4.000000,4.000000,4.000000,,,,,,,,,,,,,,,,,,,,,,,,,
1577421100.819992,82.000000,0.000000,4196.410156,4232.307617,4280.512695,4145.128418,4172.820313,450.000000,4.000000,,,,0.000000,4.000000,4.000000,4.000000,4.000000,4.000000,,,,,,,,,,,,,,,,,,,,,,,,,
1577421100.827889,83.000000,0.000000,4210.256348,4240.512695,4288.717773,4143.077148,4187.692383,16224.000000,4.000000,,,,0.000000,4.000000,4.000000,4.000000,4.000000,4.000000,,,,,,,,,,,,,,,,,,,,,,,,,
1577421100.835685,84.000000,0.000000,4213.333496,4241.538574,4290.256348,4135.384766,4191.794922,450.000000,4.000000,,,,0.000000,4.000000,4.000000,4.000000,4.000000,4.000000,,,,,,,,,,,,,,,,,,,,,,,,,
1577421100.843581,85.000000,0.000000,4194.871582,4241.538574,4282.563965,4120.512695,4179.487305,450.000000,4.000000,,,,0.000000,4.000000,4.000000,4.000000,4.000000,4.000000,,,,,,,,,,,,,,,,,,,,,,,,,
1577421100.851378,86.000000,0.000000,4195.897461,4264.102539,4284.102539,4102.563965,4179.487305,450.000000,4.000000,,,,0.000000,4.000000,4.000000,4.000000,4.000000,4.000000,,,,,,,,,,,,,,,,,,,,,,,,,
1577421100.859175,87.000000,0.000000,4194.871582,4276.922852,4282.563965,4095.897461,4171.282227,16224.000000,4.000000,,,,0.000000,4.000000,4.000000,4.000000,4.000000,4.000000,,,,,,,,,,,,,,,,,,,,,,,,,
1577421100.866871,88.000000,0.000000,4177.436035,4259.487305,4280.000000,4116.922852,4157.948730,450.000000,4.000000,,,,0.000000,4.000000,4.000000,4.000000,4.000000,4.000000,,,,,,,,,,,,,,,,,,,,,,,,,
1577421100.874768,89.000000,0.000000,4177.436035,4254.358887,4293.333496,4141.025879,4163.077148,450.000000,4.000000,,,,0.000000,4.000000,4.000000,4.000000,4.000000,4.000000,9.382979,3.175752,3.960896,1.616300,0.936065,201.926285,34.425568,8.381662,2.643513,1.025667,21.401196,7.585731,5.506641,2.006804,0.728765,5.707544,4.381411,3.451302,1.086047,1.677055,5.604499,3.011624,4.714844,1.571776,0.979964
1577421100.882564,90.000000,0.000000,4197.948730,4272.307617,4317.436035,4135.897461,4181.538574,450.000000,4.000000,,,,0.000000,4.000000,4.000000,4.000000,4.000000,4.000000,,,,,,,,,,,,,,,,,,,,,,,,,
1577421100.890261,91.000000,0.000000,4207.692383,4274.871582,4326.153809,4129.743652,4191.282227,16224.000000,4.000000,,,,0.000000,4.000000,4.000000,4.000000,4.000000,4.000000,,,,,,,,,,,,,,,,,,,,,,,,,
1577421100.898057,92.000000,0.000000,4207.692383,4272.307617,4324.102539,4149.743652,4197.436035,450.000000,4.000000,,,,0.000000,4.000000,4.000000,4.000000,4.000000,4.000000,,,,,,,,,,,,,,,,,,,,,,,,,
1577421100.905754,93.000000,0.000000,4223.589844,4290.256348,4334.871582,4164.615234,4218.461426,450.000000,4.000000,,,,0.000000,4.000000,4.000000,4.000000,4.000000,4.000000,,,,,,,,,,,,,,,,,,,,,,,,,
1577421100.913550,94.000000,0.000000,4232.820313,4294.871582,4333.846191,4147.179688,4221.538574,450.000000,4.000000,,,,0.000000,4.000000,4.000000,4.000000,4.000000,4.000000,,,,,,,,,,,,,,,,,,,,,,,,,
1577421100.921247,95.000000,0.000000,4220.000000,4281.025879,4305.128418,4126.153809,4202.563965,16224.000000,4.000000,,,,0.000000,4.000000,4.000000,4.000000,4.000000,4.000000,,,,,,,,,,,,,,,,,,,,,,,,,
1577421100.929143,96.000000,0.000000,4213.846191,4296.410156,4289.743652,4126.666504,4190.769043,450.000000,4.000000,,,,0.000000,4.000000,4.000000,4.000000,4.000000,4.000000,,,,,,,,,,,,,,,,,,,,,,,,,
1577421100.936940,97.000000,0.000000,4213.333496,4342.051270,4291.794922,4133.333496,4189.743652,450.000000,4.000000,,,,0.000000,4.000000,4.000000,4.000000,4.000000,4.000000,,,,,,,,,,,,,,,,,,,,,,,,,
1577421100.944737,98.000000,0.000000,4211.794922,4370.256348,4292.820313,4141.538574,4195.384766,450.000000,4.000000,,,,0.000000,4.000000,4.000000,4.000000,4.000000,4.000000,,,,,,,,,,,,,,,,,,,,,,,,,
1577421100.952433,99.000000,0.000000,4208.717773,4355.384766,4287.692383,4133.333496,4188.717773,16224.000000,4.000000,,,,0.000000,4.000000,4.000000,4.000000,4.000000,4.000000,,,,,,,,,,,,,,,,,,,,,,,,,
1577421100.960230,100.000000,0.000000,4203.077148,4339.487305,4280.512695,4108.717773,4178.461426,450.000000,4.000000,,,,0.000000,4.000000,4.000000,4.000000,4.000000,4.000000,,,,,,,,,,,,,,,,,,,,,,,,,
1577421100.967926,101.000000,0.000000,4225.128418,4363.589844,4297.436035,4131.794922,4198.974121,450.000000,4.000000,,,,0.000000,4.000000,4.000000,4.000000,4.000000,4.000000,,,,,,,,,,,,,,,,,,,,,,,,,
1577421100.975723,102.000000,0.000000,4240.000000,4354.358887,4305.641113,4153.333496,4211.794922,450.000000,4.000000,,,,0.000000,4.000000,4.000000,4.000000,4.000000,4.000000,,,,,,,,,,,,,,,,,,,,,,,,,
1577421100.983419,103.000000,0.000000,4222.563965,4304.102539,4289.743652,4123.589844,4196.410156,16224.000000,4.000000,,,,0.000000,4.000000,4.000000,4.000000,4.000000,4.000000,,,,,,,,,,,,,,,,,,,,,,,,,
1577421100.991216,104.000000,0.000000,4240.000000,4301.025879,4312.307617,4142.051270,4215.897461,450.000000,4.000000,,,,0.000000,4.000000,4.000000,4.000000,4.000000,4.000000,,,,,,,,,,,,,,,,,,,,,,,,,
1577421100.998913,105.000000,0.000000,4286.153809,4320.512695,4346.666504,4199.487305,4255.897461,450.000000,4.000000,,,,0.000000,4.000000,4.000000,4.000000,4.000000,4.000000,8.254753,3.009547,3.508943,1.491828,0.900785,163.070114,28.527445,6.935653,2.304758,1.027539,17.344595,5.940772,4.220664,1.691810,0.671418,4.976854,3.916295,3.143339,1.003157,1.680990,5.009529,2.988966,4.021851,1.412080,0.944864
1577421101.006709,106.000000,0.000000,4278.974121,4300.000000,4324.615234,4174.358887,4243.589844,450.000000,4.000000,,,,0.000000,4.000000,4.000000,4.000000,4.000000,4.000000,,,,,,,,,,,,,,,,,,,,,,,,,
1577421101.014406,107.000000,0.000000,4230.769043,4265.128418,4287.692383,4115.384766,4204.102539,16224.000000,4.000000,,,,0.000000,4.000000,4.000000,4.000000,4.000000,4.000000,,,,,,,,,,,,,,,,,,,,,,,,,
1577421101.022202,108.000000,0.000000,4219.487305,4264.102539,4290.256348,4131.282227,4201.538574,450.000000,4.000000,,,,0.000000,4.000000,4.000000,4.000000,4.000000,4.000000,,,,,,,,,,,,,,,,,,,,,,,,,
1577421101.029899,109.000000,0.000000,4230.769043,4274.358887,4295.384766,4153.333496,4208.205078,450.000000,4.000000,,,,0.000000,4.000000,4.000000,4.000000,4.000000,4.000000,,,,,,,,,,,,,,,,,,,,,,,,,
1577421101.037695,110.000000,0.000000,4222.051270,4265.641113,4281.025879,4129.230957,4194.358887,450.000000,4.000000,,,,0.000000,4.000000,4.000000,4.000000,4.000000,4.000000,,,,,,,,,,,,,,,,,,,,,,,,,
1577421101.045392,111.000000,0.000000,4220.000000,4268.717773,4278.461426,4123.589844,4194.358887,16224.000000,4.000000,,,,0.000000,4.000000,4.000000,4.000000,4.000000,4.000000,,,,,,,,,,,,,,,,,,,,,,,,,
1577421101.053189,112.000000,0.000000,4231.282227,4284.102539,4288.205078,4142.563965,4209.230957,450.000000,4.000000,,,,0.000000,4.000000,4.000000,4.000000,4.000000,4.000000,,,,,,,,,,,,,,,,,,,,,,,,,
1577421101.060885,113.000000,0.000000,4239.487305,4290.256348,4297.436035,4156.922852,4216.922852,450.000000,4.000000,,,,0.000000,4.000000,4.000000,4.000000,4.000000,4.000000,,,,,,,,,,,,,,,,,,,,,,,,,
1577421101.068782,114.000000,0.000000,4235.897461,4289.230957,4294.871582,4158.974121,4212.820313,450.000000,4.000000,,,,0.000000,4.000000,4.000000,4.000000,4.000000,4.000000,,,,,,,,,,,,,,,,,,,,,,,,,
1577421101.076578,115.000000,0.000000,4220.000000,4282.563965,4280.000000,4138.974121,4199.487305,16224.000000,4.000000,,,,0.000000,4.000000,4.000000,4.000000,4.000000,4.000000,,,,,,,,,,,,,,,,,,,,,,,,,
1577421101.084475,116.000000,0.000000,4209.743652,4290.256348,4272.307617,4127.692383,4195.897461,450.000000,4.000000,,,,0.000000,4.000000,4.000000,4.000000,4.000000,4.000000,,,,,,,,,,,,,,,,,,,,,,,,,
1577421101.092271,117.000000,0.000000,4224.615234,4335.897461,4282.051270,4158.461426,4211.282227,450.000000,4.000000,,,,0.000000,4.000000,4.000000,4.000000,4.000000,4.000000,,,,,,,,,,,,,,,,,,,,,,,,,
1577421101.099968,118.000000,0.000000,4245.641113,4372.820313,4298.974121,4173.846191,4230.256348,450.000000,4.000000,,,,0.000000,4.000000,4.000000,4.000000,4.000000,4.000000,,,,,,,,,,,,,,,,,,,,,,,,,
1577421101.107764,119.000000,0.000000,4261.025879,4372.820313,4315.897461,4162.563965,4240.512695,16224.000000,4.000000,,,,0.000000,4.000000,4.000000,4.000000,4.000000,4.000000,,,,,,,,,,,,,,,,,,,,,,,,,
1577421101.115461,120.000000,0.000000,4267.179688,4368.717773,4320.512695,4171.282227,4241.538574,450.000000,4.000000,,,,0.000000,4.000000,4.000000,4.000000,4.000000,4.000000,,,,,,,,,,,,,,,,,,,,,,,,,
1577421101.123257,121.000000,0.000000,4256.410156,4371.282227,4313.333496,4172.307617,4232.307617,450.000000,4.000000,,,,0.000000,4.000000,4.000000,4.000000,4.000000,4.000000,7.961165,3.057825,3.211694,1.422064,0.900864,128.587494,22.110889,5.530055,1.865782,1.035734,16.108377,5.266381,3.326212,1.412394,0.671135,4.795748,3.509649,3.282399,0.936430,1.663889,5.031312,3.183733,3.591301,1.305105,0.936697
1577421101.130954,122.000000,0.000000,4245.641113,4370.769043,4313.333496,4153.846191,4225.128418,450.000000,4.000000,,,,0.000000,4.000000,4.000000,4.000000,4.000000,4.000000,,,,,,,,,,,,,,,,,,,,,,,,,
1577421101.138751,123.000000,0.000000,4250.256348,4374.871582,4319.487305,4161.025879,4238.974121,16224.000000,4.000000,,,,0.000000,4.000000,4.000000,4.000000,4.000000,4.000000,,,,,,,,,,,,,,,,,,,,,,,,,
1577421101.146447,124.000000,0.000000,4259.487305,4374.871582,4323.589844,4187.692383,4255.384766,450.000000,4.000000,,,,0.000000,4.000000,4.000000,4.000000,4.000000,4.000000,,,,,,,,,,,,,,,,,,,,,,,,,
1577421101.154244,125.000000,0.000000,4247.179688,4357.436035,4311.794922,4170.769043,4240.512695,450.000000,4.000000,,,,0.000000,4.000000,4.000000,4.000000,4.000000,4.000000,,,,,,,,,,,,,,,,,,,,,,,,,
1577421101.161940,126.000000,0.000000,4232.307617,4347.179688,4293.846191,4144.102539,4227.692383,450.000000,4.000000,,,,0.000000,4.000000,4.000000,4.000000,4.000000,4.000000,,,,,,,,,,,,,,,,,,,,,,,,,
1577421101.169737,127.000000,0.000000,4226.153809,4346.666504,4286.153809,4156.410156,4223.077148,235.000000,4.000000,,,,0.000000,4.000000,4.000000,4.000000,4.000000,4.000000,,,,,,,,,,,,,,,,,,,,,,,,,
1577421101.177434,0.000000,0.000000,4211.282227,4340.512695,4271.282227,4154.871582,4208.205078,450.000000,4.000000,,,,0.000000,4.000000,4.000000,4.000000,4.000000,4.000000,,,,,,,,,,,,,,,,,,,,,,,,,
1577421101.185330,1.000000,0.000000,4227.179688,4346.666504,4272.307617,4152.307617,4224.102539,450.000000,4.000000,,,,0.000000,4.000000,4.000000,4.000000,4.000000,4.000000,,,,,,,,,,,,,,,,,,,,,,,,,
1577421101.193126,2.000000,0.000000,4263.077148,4352.307617,4294.358887,4171.794922,4256.922852,16233.000000,4.000000,,,,0.000000,4.000000,4.000000,4.000000,4.000000,4.000000,,,,,,,,,,,,,,,,,,,,,,,,,
1577421101.201023,3.000000,0.000000,4257.948730,4336.922852,4288.205078,4157.948730,4248.205078,450.000000,4.000000,,,,0.000000,4.000000,4.000000,4.000000,4.000000,4.000000,,,,,,,,,,,,,,,,,,,,,,,,,
1577421101.208819,4.000000,0.000000,4235.897461,4328.205078,4260.000000,4133.333496,4221.025879,16206.000000,4.000000,,,,0.000000,4.000000,4.000000,4.000000,4.000000,4.000000,,,,,,,,,,,,,,,,,,,,,,,,,
1577421101.216716,5.000000,0.000000,4245.128418,4337.948730,4258.974121,4157.948730,4223.589844,450.000000,4.000000,,,,0.000000,4.000000,4.000000,4.000000,4.000000,4.000000,,,,,,,,,,,,,,,,,,,,,,,,,
1577421101.224512,6.000000,0.000000,4258.974121,4344.615234,4279.487305,4184.102539,4241.538574,16157.000000,4.000000,,,,0.000000,4.000000,4.000000,4.000000,4.000000,4.000000,,,,,,,,,,,,,,,,,,,,,,,,,
1577421101.232409,7.000000,0.000000,4250.769043,4333.333496,4278.974121,4169.743652,4236.922852,450.000000,4.000000,,,,0.000000,4.000000,4.000000,4.000000,4.000000,4.000000,,,,,,,,,,,,,,,,,,,,,,,,,
1577421101.240205,8.000000,0.000000,4236.410156,4316.922852,4264.615234,4157.436035,4222.563965,450.000000,4.000000,,,,0.000000,4.000000,4.000000,4.000000,4.000000,4.000000,,,,,,,,,,,,,,,,,,,,,,,,,
1577421101.248102,9.000000,0.000000,4228.205078,4316.410156,4262.563965,4150.769043,4217.948730,16181.000000,4.000000,,,,0.000000,4.000000,4.000000,4.000000,4.000000,4.000000,7.934935,3.199596,2.912807,1.379790,0.930481,103.463188,16.222120,4.315252,1.455019,1.054783,17.278393,5.301061,2.752554,1.175433,0.721788,4.957422,3.270660,3.757025,0.893106,1.634118,5.400508,3.482070,3.248550,1.237697,0.955713
1577421101.255898,10.000000,0.000000,4226.153809,4318.461426,4260.512695,4134.871582,4218.461426,450.000000,4.000000,,,,0.000000,4.000000,4.000000,4.000000,4.000000,4.000000,,,,,,,,,,,,,,,,,,,,,,,,,
1577421101.263795,11.000000,0.000000,4235.897461,4313.846191,4261.538574,4144.615234,4225.128418,16225.000000,4.000000,,,,0.000000,4.000000,4.000000,4.000000,4.000000,4.000000,,,,,,,,,,,,,,,,,,,,,,,,,
1577421101.271591,12.000000,0.000000,4241.025879,4310.256348,4260.512695,4163.077148,4219.487305,450.000000,4.000000,,,,0.000000,4.000000,4.000000,4.000000,4.000000,4.000000,,,,,,,,,,,,,,,,,,,,,,,,,
1577421101.279488,13.000000,0.000000,4217.948730,4295.897461,4231.794922,4139.487305,4188.205078,450.000000,4.000000,,,,0.000000,4.000000,4.000000,4.000000,4.000000,4.000000,,,,,,,,,,,,,,,,,,,,,,,,,
1577421101.287284,14.000000,0.000000,4197.436035,4278.461426,4208.205078,4100.000000,4166.153809,450.000000,4.000000,,,,0.000000,4.000000,4.000000,4.000000,4.000000,4.000000,,,,,,,,,,,,,,,,,,,,,,,,,
1577421101.295181,15.000000,0.000000,4208.717773,4280.512695,4215.897461,4108.205078,4178.461426,16225.000000,4.000000,,,,0.000000,4.000000,4.000000,4.000000,4.000000,4.000000,,,,,,,,,,,,,,,,,,,,,,,,,
1577421101.302977,16.000000,0.000000,4233.846191,4288.205078,4230.769043,4156.410156,4207.179688,0.000000,4.000000,,,,0.000000,4.000000,4.000000,4.000000,4.000000,4.000000,,,,,,,,,,,,,,,,,,,,,,,,,
1577421101.310674,17.000000,0.000000,4245.128418,4297.948730,4235.897461,4175.384766,4216.922852,0.000000,4.000000,,,,0.000000,4.000000,4.000000,4.000000,4.000000,4.000000,,,,,,,,,,,,,,,,,,,,,,,,,
1577421101.318470,18.000000,0.000000,4232.820313,4309.743652,4226.153809,4143.589844,4200.512695,0.000000,4.000000,,,,0.000000,4.000000,4.000000,4.000000,4.000000,4.000000,,,,,,,,,,,,,,,,,,,,,,,,,
1577421101.326167,19.000000,0.000000,4224.102539,4316.410156,4221.025879,4122.563965,4193.333496,0.000000,4.000000,,,,0.000000,4.000000,4.000000,4.000000,4.000000,4.000000,,,,,,,,,,,,,,,,,,,,,,,,,
1577421101.333963,20.000000,0.000000,4252.307617,4333.846191,4245.128418,4156.410156,4221.538574,0.000000,4.000000,,,,0.000000,4.000000,4.000000,4.000000,4.000000,4.000000,,,,,,,,,,,,,,,,,,,,,,,,,
1577421101.341660,21.000000,0.000000,4293.333496,4358.461426,4272.307617,4197.436035,4265.128418,0.000000,4.000000,,,,0.000000,4.000000,4.000000,4.000000,4.000000,4.000000,,,,,,,,,,,,,,,,,,,,,,,,,
1577421101.349457,22.000000,0.000000,4291.794922,4349.743652,4265.128418,4186.153809,4271.794922,0.000000,4.000000,,,,0.000000,4.000000,4.000000,4.000000,4.000000,4.000000,,,,,,,,,,,,,,,,,,,,,,,,,
1577421101.357253,23.000000,0.000000,4267.179688,4325.128418,4247.692383,4150.256348,4248.717773,0.000000,4.000000,,,,0.000000,4.000000,4.000000,4.000000,4.000000,4.000000,,,,,,,,,,,,,,,,,,,,,,,,,
1577421101.364950,24.000000,0.000000,4266.153809,4331.282227,4242.563965,4151.282227,4242.051270,0.000000,4.000000,,,,0.000000,4.000000,4.000000,4.000000,4.000000,4.000000,,,,,,,,,,,,,,,,,,,,,,,,,
1577421101.372846,25.000000,0.000000,4251.794922,4333.846191,4222.563965,4150.256348,4219.487305,0.000000,4.000000,,,,0.000000,4.000000,4.000000,4.000000,4.000000,4.000000,8.030839,3.483809,2.616212,1.349441,0.999332,88.678253,11.677097,3.360116,1.192226,1.095216,18.573805,5.879604,2.413559,1.008789,0.819042,5.138914,3.316178,4.361583,0.902668,1.628774,5.962999,3.888582,2.914807,1.200561,1.010327
1577421101.380643,26.000000,0.000000,4235.384766,4322.051270,4217.436035,4144.615234,4204.615234,0.000000,4.000000,,,,0.000000,4.000000,4.000000,4.000000,4.000000,4.000000,,,,,,,,,,,,,,,,,,,,,,,,,
1577421101.388440,27.000000,0.000000,4262.051270,4330.769043,4244.102539,4170.256348,4235.897461,0.000000,4.000000,,,,0.000000,4.000000,4.000000,4.000000,4.000000,4.000000,,,,,,,,,,,,,,,,,,,,,,,,,
1577421101.396237,28.000000,0.000000,4270.256348,4318.461426,4235.897461,4162.563965,4238.461426,0.000000,4.000000,,,,0.000000,4.000000,4.000000,4.000000,4.000000,4.000000,,,,,,,,,,,,,,,,,,,,,,,,,
1577421101.403934,29.000000,0.000000,4242.051270,4293.333496,4205.641113,4132.307617,4210.256348,0.000000,4.000000,,,,0.000000,4.000000,4.000000,4.000000,4.000000,4.000000,,,,,,,,,,,,,,,,,,,,,,,,,
1577421101.411730,30.000000,0.000000,4247.179688,4301.025879,4218.461426,4149.230957,4216.922852,0.000000,4.000000,,,,0.000000,4.000000,4.000000,4.000000,4.000000,4.000000,,,,,,,,,,,,,,,,,,,,,,,,,
1577421101.419527,31.000000,0.000000,4267.179688,4296.410156,4234.358887,4157.948730,4232.307617,0.000000,4.000000,,,,0.000000,4.000000,4.000000,4.000000,4.000000,4.000000,,,,,,,,,,,,,,,,,,,,,,,,,
1577421101.427424,32.000000,0.000000,4263.077148,4276.922852,4224.102539,4136.410156,4225.128418,0.000000,4.000000,,,,0.000000,4.000000,4.000000,4.000000,4.000000,4.000000,,,,,,,,,,,,,,,,,,,,,,,,,
1577421101.435320,33.000000,0.000000,4256.410156,4287.692383,4215.897461,4137.948730,4215.384766,0.000000,4.000000,,,,0.000000,4.000000,4.000000,4.000000,4.000000,4.000000,,,,,,,,,,,,,,,,,,,,,,,,,
1577421101.443117,34.000000,0.000000,4259.487305,4296.922852,4219.487305,4149.230957,4217.436035,0.000000,4.000000,,,,0.000000,4.000000,4.000000,4.000000,4.000000,4.000000,,,,,,,,,,,,,,,,,,,,,,,,,
1577421101.451014,35.000000,0.000000,4271.282227,4290.256348,4234.358887,4147.692383,4227.179688,0.000000,4.000000,,,,0.000000,4.000000,4.000000,4.000000,4.000000,4.000000,,,,,,,,,,,,,,,,,,,,,,,,,
1577421101.458810,36.000000,0.000000,4293.846191,4308.717773,4248.717773,4165.128418,4246.666504,0.000000,4.000000,,,,0.000000,4.000000,4.000000,4.000000,4.000000,4.000000,,,,,,,,,,,,,,,,,,,,,,,,,
1577421101.466707,37.000000,0.000000,4280.000000,4313.333496,4224.102539,4170.256348,4238.974121,0.000000,4.000000,,,,0.000000,4.000000,4.000000,4.000000,4.000000,4.000000,,,,,,,,,,,,,,,,,,,,,,,,,
1577421101.474503,38.000000,0.000000,4236.922852,4278.974121,4193.333496,4145.128418,4202.051270,0.000000,4.000000,,,,0.000000,4.000000,4.000000,4.000000,4.000000,4.000000,,,,,,,,,,,,,,,,,,,,,,,,,
1577421101.482400,39.000000,0.000000,4254.871582,4277.948730,4218.974121,4160.512695,4217.436035,0.000000,4.000000,,,,0.000000,4.000000,4.000000,4.000000,4.000000,4.000000,,,,,,,,,,,,,,,,,,,,,,,,,
1577421101.490196,40.000000,0.000000,4286.666504,4291.282227,4238.461426,4177.948730,4247.179688,0.000000,4.000000,,,,0.000000,4.000000,4.000000,4.000000,4.000000,4.000000,,,,,,,,,,,,,,,,,,,,,,,,,
1577421101.498093,41.000000,0.000000,4255.897461,4258.461426,4205.641113,4138.974121,4224.615234,0.000000,4.000000,,,,0.000000,4.000000,4.000000,4.000000,4.000000,4.000000,8.206669,4.004514,2.373779,1.328528,1.109948,81.616104,8.893806,2.675134,1.125946,1.159925,18.955122,6.967011,2.200121,0.935290,0.951905,5.123746,3.655914,4.821286,0.995380,1.695426,6.531609,4.459210,2.581671,1.196396,1.101199
1577421101.505889,42.000000,0.000000,4245.641113,4225.641113,4196.410156,4125.128418,4216.922852,0.000000,4.000000,,,,0.000000,4.000000,4.000000,4.000000,4.000000,4.000000,,,,,,,,,,,,,,,,,,,,,,,,,
1577421101.513786,43.000000,0.000000,4254.871582,4205.128418,4196.922852,4134.871582,4217.948730,0.000000,4.000000,,,,0.000000,4.000000,4.000000,4.000000,4.000000,4.000000,,,,,,,,,,,,,,,,,,,,,,,,,
1577421101.521582,44.000000,0.000000,4215.384766,4164.615234,4157.436035,4107.179688,4183.589844,0.000000,4.000000,,,,0.000000,4.000000,4.000000,4.000000,4.000000,4.000000,,,,,,,,,,,,,,,,,,,,,,,,,
1577421101.529479,45.000000,0.000000,4212.307617,4153.846191,4148.205078,4112.307617,4184.615234,0.000000,4.000000,,,,0.000000,4.000000,4.000000,4.000000,4.000000,4.000000,,,,,,,,,,,,,,,,,,,,,,,,,
1577421101.537275,46.000000,0.000000,4264.615234,4180.512695,4177.948730,4151.794922,4230.256348,0.000000,4.000000,,,,0.000000,4.000000,4.000000,4.000000,4.000000,4.000000,,,,,,,,,,,,,,,,,,,,,,,,,
1577421101.545172,47.000000,0.000000,4248.717773,4163.077148,4160.512695,4123.077148,4213.333496,0.000000,4.000000,,,,0.000000,4.000000,4.000000,4.000000,4.000000,4.000000,,,,,,,,,,,,,,,,,,,,,,,,,
1577421101.552968,48.000000,0.000000,4192.307617,4109.743652,4123.077148,4082.564209,4153.333496,0.000000,4.000000,,,,0.000000,4.000000,4.000000,4.000000,4.000000,4.000000,,,,,,,,,,,,,,,,,,,,,,,,,
1577421101.560864,49.000000,0.000000,4211.282227,4104.615234,4132.307617,4117.436035,4167.179688,0.000000,4.000000,,,,0.000000,4.000000,4.000000,4.000000,4.000000,4.000000,,,,,,,,,,,,,,,,,,,,,,,,,
1577421101.568661,50.000000,0.000000,4270.769043,4143.589844,4168.717773,4162.563965,4226.153809,0.000000,4.000000,,,,0.000000,4.000000,4.000000,4.000000,4.000000,4.000000,,,,,,,,,,,,,,,,,,,,,,,,,
1577421101.576557,51.000000,0.000000,4258.974121,4132.307617,4169.230957,4138.461426,4213.333496,0.000000,4.000000,,,,0.000000,4.000000,4.000000,4.000000,4.000000,4.000000,,,,,,,,,,,,,,,,,,,,,,,,,
1577421101.584354,52.000000,0.000000,4201.025879,4088.205078,4142.051270,4083.076904,4159.487305,0.000000,4.000000,,,,0.000000,4.000000,4.000000,4.000000,4.000000,4.000000,,,,,,,,,,,,,,,,,,,,,,,,,
1577421101.592250,53.000000,0.000000,4197.948730,4097.948730,4147.692383,4089.230713,4164.102539,0.000000,4.000000,,,,0.000000,4.000000,4.000000,4.000000,4.000000,4.000000,,,,,,,,,,,,,,,,,,,,,,,,,
1577421101.600047,54.000000,0.000000,4226.153809,4123.077148,4162.563965,4127.692383,4189.230957,0.000000,4.000000,,,,0.000000,4.000000,4.000000,4.000000,4.000000,4.000000,,,,,,,,,,,,,,,,,,,,,,,,,
1577421101.607943,55.000000,0.000000,4229.743652,4123.589844,4163.589844,4132.307617,4187.692383,0.000000,4.000000,,,,0.000000,4.000000,4.000000,4.000000,4.000000,4.000000,,,,,,,,,,,,,,,,,,,,,,,,,
1577421101.615840,56.000000,0.000000,4216.922852,4117.436035,4161.025879,4126.666504,4182.051270,0.000000,4.000000,,,,0.000000,4.000000,4.000000,4.000000,4.000000,4.000000,,,,,,,,,,,,,,,,,,,,,,,,,
1577421101.623637,57.000000,0.000000,4212.820313,4112.307617,4160.000000,4129.743652,4188.205078,0.000000,4.000000,,,,0.000000,4.000000,4.000000,4.000000,4.000000,4.000000,8.194479,4.838506,2.228270,1.340051,1.255035,78.273338,7.614264,2.219153,1.222741,1.236108,17.854937,8.391810,2.012852,0.947036,1.100394,4.798844,4.236445,4.906948,1.188379,1.872978,6.906384,5.266978,2.258969,1.255570,1.220794
1577421101.631533,58.000000,0.000000,4223.077148,4116.922852,4169.743652,4118.974121,4197.436035,0.000000,4.000000,,,,0.000000,4.000000,4.000000,4.000000,4.000000,4.000000,,,,,,,,,,,,,,,,,,,,,,,,,
1577421101.639330,59.000000,0.000000,4217.948730,4125.641113,4172.820313,4106.666504,4189.230957,0.000000,4.000000,,,,0.000000,4.000000,4.000000,4.000000,4.000000,4.000000,,,,,,,,,,,,,,,,,,,,,,,,,
1577421101.647227,60.000000,0.000000,4196.922852,4121.538574,4158.974121,4112.307617,4164.102539,0.000000,4.000000,,,,0.000000,4.000000,4.000000,4.000000,4.000000,4.000000,,,,,,,,,,,,,,,,,,,,,,,,,
1577421101.655024,61.000000,0.000000,4188.205078,4125.641113,4157.436035,4114.871582,4155.897461,0.000000,4.000000,,,,0.000000,4.000000,4.000000,4.000000,4.000000,4.000000,,,,,,,,,,,,,,,,,,,,,,,,,
1577421101.662920,62.000000,0.000000,4204.102539,4163.589844,4188.205078,4119.487305,4180.000000,0.000000,4.000000,,,,0.000000,4.000000,4.000000,4.000000,4.000000,4.000000,,,,,,,,,,,,,,,,,,,,,,,,,
1577421101.670717,63.000000,0.000000,4210.256348,4191.794922,4201.538574,4123.077148,4182.051270,0.000000,4.000000,,,,0.000000,4.000000,4.000000,4.000000,4.000000,4.000000,,,,,,,,,,,,,,,,,,,,,,,,,
1577421101.678613,64.000000,0.000000,4185.128418,4180.512695,4176.922852,4107.179688,4148.717773,450.000000,4.000000,,,,0.000000,4.000000,4.000000,4.000000,4.000000,4.000000,,,,,,,,,,,,,,,,,,,,,,,,,
1577421101.686410,65.000000,0.000000,4192.307617,4192.307617,4188.717773,4120.000000,4161.025879,450.000000,4.000000,,,,0.000000,4.000000,4.000000,4.000000,4.000000,4.000000,,,,,,,,,,,,,,,,,,,,,,,,,
1577421101.694306,66.000000,0.000000,4231.282227,4241.538574,4232.307617,4144.102539,4207.692383,16220.000000,4.000000,,,,0.000000,4.000000,4.000000,4.000000,4.000000,4.000000,,,,,,,,,,,,,,,,,,,,,,,,,
1577421101.702102,67.000000,0.000000,4238.461426,4263.077148,4244.615234,4134.871582,4214.871582,450.000000,4.000000,,,,0.000000,4.000000,4.000000,4.000000,4.000000,4.000000,,,,,,,,,,,,,,,,,,,,,,,,,
1577421101.709999,68.000000,0.000000,4221.025879,4249.743652,4239.487305,4131.282227,4193.846191,16201.000000,4.000000,,,,0.000000,4.000000,4.000000,4.000000,4.000000,4.000000,,,,,,,,,,,,,,,,,,,,,,,,,
1577421101.717896,69.000000,0.000000,4210.769043,4245.128418,4248.717773,4133.333496,4184.615234,450.000000,4.000000,,,,0.000000,4.000000,4.000000,4.000000,4.000000,4.000000,,,,,,,,,,,,,,,,,,,,,,,,,
1577421101.725692,70.000000,0.000000,4210.256348,4254.871582,4269.743652,4122.563965,4183.077148,16155.000000,4.000000,,,,0.000000,4.000000,4.000000,4.000000,4.000000,4.000000,,,,,,,,,,,,,,,,,,,,,,,,,
1577421101.733489,71.000000,0.000000,4217.948730,4263.589844,4290.256348,4130.769043,4183.589844,450.000000,4.000000,,,,0.000000,4.000000,4.000000,4.000000,4.000000,4.000000,,,,,,,,,,,,,,,,,,,,,,,,,
1577421101.741386,72.000000,0.000000,4222.563965,4267.179688,4297.436035,4157.436035,4188.717773,450.000000,4.000000,,,,0.000000,4.000000,4.000000,4.000000,4.000000,4.000000,,,,,,,,,,,,,,,,,,,,,,,,,
1577421101.749282,73.000000,0.000000,4216.410156,4270.256348,4294.871582,4163.077148,4185.128418,16166.000000,4.000000,,,,0.000000,4.000000,4.000000,4.000000,4.000000,4.000000,7.903870,5.904511,2.189291,1.398554,1.434272,75.507500,7.295898,1.950691,1.397289,1.306648,15.598913,9.896687,1.812136,1.006738,1.249426,4.234502,4.910578,4.555105,1.455012,2.169364,7.018591,6.241678,1.985677,1.398649,1.370541
1577421101.757079,74.000000,0.000000,4211.282227,4277.436035,4296.922852,4139.487305,4178.461426,450.000000,4.000000,,,,0.000000,4.000000,4.000000,4.000000,4.000000,4.000000,,,,,,,,,,,,,,,,,,,,,,,,,
1577421101.764976,75.000000,0.000000,4212.820313,4285.641113,4295.897461,4122.051270,4181.538574,16224.000000,4.000000,,,,0.000000,4.000000,4.000000,4.000000,4.000000,4.000000,,,,,,,,,,,,,,,,,,,,,,,,,
1577421101.772772,76.000000,0.000000,4203.589844,4274.358887,4273.846191,4117.436035,4172.307617,450.000000,4.000000,,,,0.000000,4.000000,4.000000,4.000000,4.000000,4.000000,,,,,,,,,,,,,,,,,,,,,,,,,
1577421101.780669,77.000000,0.000000,4202.563965,4260.000000,4264.615234,4124.102539,4168.717773,450.000000,4.000000,,,,0.000000,4.000000,4.000000,4.000000,4.000000,4.000000,,,,,,,,,,,,,,,,,,,,,,,,,
1577421101.788466,78.000000,0.000000,4236.922852,4270.769043,4292.820313,4141.025879,4192.820313,450.000000,4.000000,,,,0.000000,4.000000,4.000000,4.000000,4.000000,4.000000,,,,,,,,,,,,,,,,,,,,,,,,,
1577421101.796362,79.000000,0.000000,4249.743652,4270.256348,4302.051270,4135.384766,4191.794922,16224.000000,4.000000,,,,0.000000,4.000000,4.000000,4.000000,4.000000,4.000000,,,,,,,,,,,,,,,,,,,,,,,,,
1577421101.804159,80.000000,0.000000,4222.051270,4244.615234,4283.077148,4114.358887,4169.230957,450.000000,4.000000,,,,0.000000,4.000000,4.000000,4.000000,4.000000,4.000000,,,,,,,,,,,,,,,,,,,,,,,,,
1577421101.812056,81.000000,0.000000,4225.128418,4237.948730,4294.358887,4126.666504,4181.025879,450.000000,4.000000,,,,0.000000,4.000000,4.000000,4.000000,4.000000,4.000000,,,,,,,,,,,,,,,,,,,,,,,,,
1577421101.819853,82.000000,0.000000,4262.051270,4257.948730,4326.666504,4162.563965,4213.333496,450.000000,4.000000,,,,0.000000,4.000000,4.000000,4.000000,4.000000,4.000000,,,,,,,,,,,,,,,,,,,,,,,,,
1577421101.827749,83.000000,0.000000,4277.436035,4263.589844,4336.922852,4178.461426,4228.717773,16224.000000,4.000000,,,,0.000000,4.000000,4.000000,4.000000,4.000000,4.000000,,,,,,,,,,,,,,,,,,,,,,,,,
1577421101.835546,84.000000,0.000000,4267.692383,4231.794922,4332.307617,4159.487305,4226.153809,450.000000,4.000000,,,,0.000000,4.000000,4.000000,4.000000,4.000000,4.000000,,,,,,,,,,,,,,,,,,,,,,,,,
1577421101.843442,85.000000,0.000000,4263.077148,4201.025879,4332.307617,4145.128418,4225.641113,450.000000,4.000000,,,,0.000000,4.000000,4.000000,4.000000,4.000000,4.000000,,,,,,,,,,,,,,,,,,,,,,,,,
1577421101.851239,86.000000,0.000000,4259.487305,4194.871582,4324.615234,4164.102539,4219.487305,450.000000,4.000000,,,,0.000000,4.000000,4.000000,4.000000,4.000000,4.000000,,,,,,,,,,,,,,,,,,,,,,,,,
1577421101.859136,87.000000,0.000000,4237.436035,4170.769043,4299.487305,4168.205078,4196.410156,16224.000000,4.000000,,,,0.000000,4.000000,4.000000,4.000000,4.000000,4.000000,,,,,,,,,,,,,,,,,,,,,,,,,
1577421101.866932,88.000000,0.000000,4217.948730,4132.820313,4274.871582,4130.769043,4187.692383,450.000000,4.000000,,,,0.000000,4.000000,4.000000,4.000000,4.000000,4.000000,,,,,,,,,,,,,,,,,,,,,,,,,
1577421101.874829,89.000000,0.000000,4226.666504,4126.153809,4262.051270,4114.358887,4197.436035,450.000000,4.000000,,,,0.000000,4.000000,4.000000,4.000000,4.000000,4.000000,7.278068,6.973453,2.227747,1.494185,1.671608,70.882553,7.693542,1.841205,1.555297,1.367953,12.893597,11.093047,1.649797,1.079497,1.401181,3.601861,5.469074,3.880294,1.742994,2.559048,6.867735,7.155740,1.810593,1.617172,1.577750
1577421101.882625,90.000000,0.000000,4240.000000,4138.974121,4254.358887,4137.948730,4200.000000,450.000000,4.000000,,,,0.000000,4.000000,4.000000,4.000000,4.000000,4.000000,,,,,,,,,,,,,,,,,,,,,,,,,
1577421101.890522,91.000000,0.000000,4238.461426,4135.897461,4246.153809,4146.666504,4196.410156,16224.000000,4.000000,,,,0.000000,4.000000,4.000000,4.000000,4.000000,4.000000,,,,,,,,,,,,,,,,,,,,,,,,,
1577421101.898318,92.000000,0.000000,4231.282227,4121.538574,4229.743652,4124.615234,4195.384766,450.000000,4.000000,,,,0.000000,4.000000,4.000000,4.000000,4.000000,4.000000,,,,,,,,,,,,,,,,,,,,,,,,,
1577421101.906215,93.000000,0.000000,4228.717773,4126.153809,4220.512695,4109.743652,4196.410156,450.000000,4.000000,,,,0.000000,4.000000,4.000000,4.000000,4.000000,4.000000,,,,,,,,,,,,,,,,,,,,,,,,,
1577421101.914011,94.000000,0.000000,4224.102539,4129.743652,4226.666504,4112.307617,4188.717773,450.000000,4.000000,,,,0.000000,4.000000,4.000000,4.000000,4.000000,4.000000,,,,,,,,,,,,,,,,,,,,,,,,,
1577421101.921908,95.000000,0.000000,4222.051270,4115.384766,4227.179688,4128.205078,4183.077148,16224.000000,4.000000,,,,0.000000,4.000000,4.000000,4.000000,4.000000,4.000000,,,,,,,,,,,,,,,,,,,,,,,,,
1577421101.929704,96.000000,0.000000,4228.205078,4121.025879,4229.230957,4137.436035,4190.256348,450.000000,4.000000,,,,0.000000,4.000000,4.000000,4.000000,4.000000,4.000000,,,,,,,,,,,,,,,,,,,,,,,,,
1577421101.937601,97.000000,0.000000,4206.666504,4130.769043,4221.538574,4106.153809,4168.717773,450.000000,4.000000,,,,0.000000,4.000000,4.000000,4.000000,4.000000,4.000000,,,,,,,,,,,,,,,,,,,,,,,,,
1577421101.945397,98.000000,0.000000,4184.102539,4134.871582,4216.410156,4097.948730,4147.179688,450.000000,4.000000,,,,0.000000,4.000000,4.000000,4.000000,4.000000,4.000000,,,,,,,,,,,,,,,,,,,,,,,,,
1577421101.953294,99.000000,0.000000,4218.461426,4160.000000,4244.102539,4148.205078,4178.461426,16224.000000,4.000000,,,,0.000000,4.000000,4.000000,4.000000,4.000000,4.000000,,,,,,,,,,,,,,,,,,,,,,,,,
1577421101.961090,100.000000,0.000000,4250.769043,4181.025879,4255.384766,4158.974121,4206.153809,450.000000,4.000000,,,,0.000000,4.000000,4.000000,4.000000,4.000000,4.000000,,,,,,,,,,,,,,,,,,,,,,,,,
1577421101.968987,101.000000,0.000000,4237.948730,4196.410156,4241.025879,4143.589844,4201.025879,450.000000,4.000000,,,,0.000000,4.000000,4.000000,4.000000,4.000000,4.000000,,,,,,,,,,,,,,,,,,,,,,,,,
1577421101.976783,102.000000,0.000000,4242.051270,4230.769043,4253.333496,4166.153809,4208.717773,450.000000,4.000000,,,,0.000000,4.000000,4.000000,4.000000,4.000000,4.000000,,,,,,,,,,,,,,,,,,,,,,,,,
1577421101.984680,103.000000,0.000000,4263.077148,4246.153809,4267.692383,4160.000000,4222.051270,16224.000000,4.000000,,,,0.000000,4.000000,4.000000,4.000000,4.000000,4.000000,,,,,,,,,,,,,,,,,,,,,,,,,
1577421101.992476,104.000000,0.000000,4255.384766,4250.769043,4265.641113,4132.820313,4214.358887,450.000000,4.000000,,,,0.000000,4.000000,4.000000,4.000000,4.000000,4.000000,,,,,,,,,,,,,,,,,,,,,,,,,
1577421102.000372,105.000000,0.000000,4246.153809,4272.307617,4280.512695,4153.846191,4210.769043,450.000000,4.000000,,,,0.000000,4.000000,4.000000,4.000000,4.000000,4.000000,6.361220,7.771295,2.265771,1.600423,1.992380,63.626617,8.406903,1.809864,1.632020,1.438566,10.076677,11.579428,1.527468,1.137880,1.566111,3.091218,5.744356,3.100902,2.001154,2.979216,6.586338,7.767146,1.742399,1.870399,1.871057
1577421102.008269,106.000000,0.000000,4248.717773,4269.743652,4291.794922,4171.282227,4214.358887,450.000000,4.000000,,,,0.000000,4.000000,4.000000,4.000000,4.000000,4.000000,,,,,,,,,,,,,,,,,,,,,,,,,
1577421102.016066,107.000000,0.000000,4237.436035,4251.282227,4283.589844,4147.692383,4203.589844,16224.000000,4.000000,,,,0.000000,4.000000,4.000000,4.000000,4.000000,4.000000,,,,,,,,,,,,,,,,,,,,,,,,,
1577421102.023863,108.000000,0.000000,4215.384766,4254.358887,4282.051270,4128.717773,4190.769043,450.000000,4.000000,,,,0.000000,4.000000,4.000000,4.000000,4.000000,4.000000,,,,,,,,,,,,,,,,,,,,,,,,,
1577421102.031559,109.000000,0.000000,4216.922852,4257.948730,4292.820313,4147.179688,4197.948730,450.000000,4.000000,,,,0.000000,4.000000,4.000000,4.000000,4.000000,4.000000,,,,,,,,,,,,,,,,,,,,,,,,,
1577421102.039456,110.000000,0.000000,4240.000000,4255.384766,4298.461426,4174.358887,4212.307617,450.000000,4.000000,,,,0.000000,4.000000,4.000000,4.000000,4.000000,4.000000,,,,,,,,,,,,,,,,,,,,,,,,,
1577421102.047253,111.000000,0.000000,4246.153809,4260.512695,4291.794922,4162.563965,4211.794922,16224.000000,4.000000,,,,0.000000,4.000000,4.000000,4.000000,4.000000,4.000000,,,,,,,,,,,,,,,,,,,,,,,,,
1577421102.055149,112.000000,0.000000,4229.230957,4245.128418,4281.025879,4131.794922,4196.410156,450.000000,4.000000,,,,0.000000,4.000000,4.000000,4.000000,4.000000,4.000000,,,,,,,,,,,,,,,,,,,,,,,,,
1577421102.062946,113.000000,0.000000,4222.563965,4210.769043,4272.307617,4135.897461,4190.256348,450.000000,4.000000,,,,0.000000,4.000000,4.000000,4.000000,4.000000,4.000000,,,,,,,,,,,,,,,,,,,,,,,,,
1577421102.070843,114.000000,0.000000,4232.307617,4205.128418,4263.589844,4146.666504,4194.358887,450.000000,4.000000,,,,0.000000,4.000000,4.000000,4.000000,4.000000,4.000000,,,,,,,,,,,,,,,,,,,,,,,,,
1577421102.078639,115.000000,0.000000,4225.128418,4206.153809,4244.102539,4120.512695,4187.692383,16224.000000,4.000000,,,,0.000000,4.000000,4.000000,4.000000,4.000000,4.000000,,,,,,,,,,,,,,,,,,,,,,,,,
1577421102.086536,116.000000,0.000000,4217.948730,4192.820313,4240.000000,4116.410156,4190.769043,450.000000,4.000000,,,,0.000000,4.000000,4.000000,4.000000,4.000000,4.000000,,,,,,,,,,,,,,,,,,,,,,,,,
1577421102.094332,117.000000,0.000000,4219.487305,4188.717773,4242.563965,4134.358887,4187.692383,450.000000,4.000000,,,,0.000000,4.000000,4.000000,4.000000,4.000000,4.000000,,,,,,,,,,,,,,,,,,,,,,,,,
1577421102.102228,118.000000,0.000000,4194.358887,4183.077148,4209.743652,4100.000000,4152.307617,450.000000,4.000000,,,,0.000000,4.000000,4.000000,4.000000,4.000000,4.000000,,,,,,,,,,,,,,,,,,,,,,,,,
1577421102.110025,119.000000,0.000000,4198.461426,4177.436035,4203.589844,4086.666748,4158.974121,16224.000000,4.000000,,,,0.000000,4.000000,4.000000,4.000000,4.000000,4.000000,,,,,,,,,,,,,,,,,,,,,,,,,
1577421102.117921,120.000000,0.000000,4248.205078,4193.333496,4250.769043,4148.205078,4215.897461,450.000000,4.000000,,,,0.000000,4.000000,4.000000,4.000000,4.000000,4.000000,,,,,,,,,,,,,,,,,,,,,,,,,
1577421102.125718,121.000000,0.000000,4265.128418,4209.743652,4262.563965,4165.641113,4239.487305,450.000000,4.000000,,,,0.000000,4.000000,4.000000,4.000000,4.000000,4.000000,5.391457,8.139827,2.262592,1.694489,2.384550,54.309509,9.141932,1.823287,1.611524,1.539240,7.651060,11.401234,1.453980,1.163930,1.743263,2.817314,5.724661,2.443727,2.185745,3.344169,6.283055,7.944484,1.791198,2.097804,2.238871
1577421102.133614,122.000000,0.000000,4239.487305,4201.025879,4229.230957,4115.384766,4207.179688,450.000000,4.000000,,,,0.000000,4.000000,4.000000,4.000000,4.000000,4.000000,,,,,,,,,,,,,,,,,,,,,,,,,
1577421102.141411,123.000000,0.000000,4237.436035,4192.820313,4235.384766,4116.922852,4192.820313,16224.000000,4.000000,,,,0.000000,4.000000,4.000000,4.000000,4.000000,4.000000,,,,,,,,,,,,,,,,,,,,,,,,,
1577421102.149307,124.000000,0.000000,4266.666504,4206.153809,4267.692383,4166.666504,4224.102539,450.000000,4.000000,,,,0.000000,4.000000,4.000000,4.000000,4.000000,4.000000,,,,,,,,,,,,,,,,,,,,,,,,,
1577421102.157104,125.000000,0.000000,4268.717773,4217.436035,4261.025879,4168.205078,4230.769043,450.000000,4.000000,,,,0.000000,4.000000,4.000000,4.000000,4.000000,4.000000,,,,,,,,,,,,,,,,,,,,,,,,,
1577421102.165000,126.000000,0.000000,4247.692383,4212.820313,4234.871582,4145.641113,4206.153809,450.000000,4.000000,,,,0.000000,4.000000,4.000000,4.000000,4.000000,4.000000,,,,,,,,,,,,,,,,,,,,,,,,,
1577421102.172797,127.000000,0.000000,4243.589844,4202.563965,4230.256348,4148.205078,4195.897461,235.000000,4.000000,,,,0.000000,4.000000,4.000000,4.000000,4.000000,4.000000,,,,,,,,,,,,,,,,,,,,,,,,,
1577421102.180693,0.000000,0.000000,4226.666504,4184.615234,4217.436035,4111.794922,4178.974121,450.000000,4.000000,,,,0.000000,4.000000,4.000000,4.000000,4.000000,4.000000,,,,,,,,,,,,,,,,,,,,,,,,,
1577421102.188590,1.000000,0.000000,4208.205078,4177.436035,4201.538574,4080.512939,4164.615234,450.000000,4.000000,,,,0.000000,4.000000,4.000000,4.000000,4.000000,4.000000,,,,,,,,,,,,,,,,,,,,,,,,,
1577421102.196387,2.000000,0.000000,4246.666504,4197.436035,4228.205078,4134.358887,4198.974121,16216.000000,4.000000,,,,0.000000,4.000000,4.000000,4.000000,4.000000,4.000000,,,,,,,,,,,,,,,,,,,,,,,,,
1577421102.204283,3.000000,0.000000,4292.307617,4217.436035,4258.461426,4182.563965,4243.077148,450.000000,4.000000,,,,0.000000,4.000000,4.000000,4.000000,4.000000,4.000000,,,,,,,,,,,,,,,,,,,,,,,,,
1577421102.212080,4.000000,0.000000,4279.487305,4216.410156,4247.179688,4163.077148,4235.897461,16204.000000,4.000000,,,,0.000000,4.000000,4.000000,4.000000,4.000000,4.000000,,,,,,,,,,,,,,,,,,,,,,,,,
1577421102.219977,5.000000,0.000000,4250.769043,4198.974121,4221.025879,4141.538574,4206.153809,450.000000,4.000000,,,,0.000000,4.000000,4.000000,4.000000,4.000000,4.000000,,,,,,,,,,,,,,,,,,,,,,,,,
1577421102.227773,6.000000,0.000000,4248.717773,4193.846191,4208.717773,4144.102539,4200.512695,16162.000000,4.000000,,,,0.000000,4.000000,4.000000,4.000000,4.000000,4.000000,,,,,,,,,,,,,,,,,,,,,,,,,
1577421102.235670,7.000000,0.000000,4246.153809,4208.205078,4209.230957,4136.410156,4203.077148,450.000000,4.000000,,,,0.000000,4.000000,4.000000,4.000000,4.000000,4.000000,,,,,,,,,,,,,,,,,,,,,,,,,
1577421102.243467,8.000000,0.000000,4237.436035,4203.589844,4211.282227,4121.025879,4195.897461,450.000000,4.000000,,,,0.000000,4.000000,4.000000,4.000000,4.000000,4.000000,,,,,,,,,,,,,,,,,,,,,,,,,
1577421102.251364,9.000000,0.000000,4231.794922,4190.769043,4208.205078,4113.333496,4182.051270,16166.000000,4.000000,,,,0.000000,4.000000,4.000000,4.000000,4.000000,4.000000,4.737471,8.025824,2.224977,1.765522,2.781762,44.158836,9.645854,1.922860,1.500176,1.664549,6.338846,10.876574,1.419055,1.154333,1.906517,2.879022,5.472675,2.048574,2.270148,3.581112,6.122694,7.649415,1.945029,2.242419,2.611464
1577421102.259160,10.000000,0.000000,4231.794922,4207.692383,4210.256348,4138.461426,4185.128418,450.000000,4.000000,,,,0.000000,4.000000,4.000000,4.000000,4.000000,4.000000,,,,,,,,,,,,,,,,,,,,,,,,,
1577421102.266957,11.000000,0.000000,4246.153809,4225.641113,4227.179688,4171.282227,4216.922852,16219.000000,4.000000,,,,0.000000,4.000000,4.000000,4.000000,4.000000,4.000000,,,,,,,,,,,,,,,,,,,,,,,,,
1577421102.274654,12.000000,0.000000,4240.000000,4211.282227,4219.487305,4130.769043,4210.769043,450.000000,4.000000,,,,0.000000,4.000000,4.000000,4.000000,4.000000,4.000000,,,,,,,,,,,,,,,,,,,,,,,,,
1577421102.282450,13.000000,0.000000,4221.025879,4207.692383,4198.461426,4101.538574,4181.538574,450.000000,4.000000,,,,0.000000,4.000000,4.000000,4.000000,4.000000,4.000000,,,,,,,,,,,,,,,,,,,,,,,,,
1577421102.290147,14.000000,0.000000,4243.077148,4234.871582,4221.538574,4157.436035,4206.153809,450.000000,4.000000,,,,0.000000,4.000000,4.000000,4.000000,4.000000,4.000000,,,,,,,,,,,,,,,,,,,,,,,,,
1577421102.298043,15.000000,0.000000,4279.487305,4248.205078,4261.025879,4194.358887,4251.282227,16219.000000,4.000000,,,,0.000000,4.000000,4.000000,4.000000,4.000000,4.000000,,,,,,,,,,,,,,,,,,,,,,,,,
1577421102.305840,16.000000,0.000000,4272.820313,4239.487305,4245.641113,4162.051270,4249.743652,0.000000,4.000000,,,,0.000000,4.000000,4.000000,4.000000,4.000000,4.000000,,,,,,,,,,,,,,,,,,,,,,,,,
1577421102.313736,17.000000,0.000000,4245.641113,4240.512695,4198.974121,4138.461426,4217.948730,0.000000,4.000000,,,,0.000000,4.000000,4.000000,4.000000,4.000000,4.000000,,,,,,,,,,,,,,,,,,,,,,,,,
1577421102.321533,18.000000,0.000000,4233.333496,4249.743652,4182.563965,4143.589844,4202.051270,0.000000,4.000000,,,,0.000000,4.000000,4.000000,4.000000,4.000000,4.000000,,,,,,,,,,,,,,,,,,,,,,,,,
1577421102.329429,19.000000,0.000000,4243.077148,4265.641113,4203.077148,4145.128418,4215.897461,0.000000,4.000000,,,,0.000000,4.000000,4.000000,4.000000,4.000000,4.000000,,,,,,,,,,,,,,,,,,,,,,,,,
1577421102.337326,20.000000,0.000000,4257.948730,4286.666504,4226.153809,4153.846191,4228.717773,0.000000,4.000000,,,,0.000000,4.000000,4.000000,4.000000,4.000000,4.000000,,,,,,,,,,,,,,,,,,,,,,,,,
1577421102.345123,21.000000,0.000000,4247.179688,4290.769043,4226.153809,4140.000000,4211.794922,0.000000,4.000000,,,,0.000000,4.000000,4.000000,4.000000,4.000000,4.000000,,,,,,,,,,,,,,,,,,,,,,,,,
1577421102.352919,22.000000,0.000000,4224.102539,4295.897461,4221.025879,4104.615234,4188.717773,0.000000,4.000000,,,,0.000000,4.000000,4.000000,4.000000,4.000000,4.000000,,,,,,,,,,,,,,,,,,,,,,,,,
1577421102.360616,23.000000,0.000000,4221.025879,4336.410156,4234.871582,4114.871582,4188.205078,0.000000,4.000000,,,,0.000000,4.000000,4.000000,4.000000,4.000000,4.000000,,,,,,,,,,,,,,,,,,,,,,,,,
1577421102.368513,24.000000,0.000000,4237.948730,4383.077148,4260.000000,4156.922852,4205.641113,0.000000,4.000000,,,,0.000000,4.000000,4.000000,4.000000,4.000000,4.000000,,,,,,,,,,,,,,,,,,,,,,,,,
1577421102.376309,25.000000,0.000000,4244.615234,4395.897461,4267.692383,4165.128418,4209.743652,0.000000,4.000000,,,,0.000000,4.000000,4.000000,4.000000,4.000000,4.000000,4.668733,7.448739,2.262422,1.806558,3.083843,37.037594,9.631544,2.142415,1.327149,1.779814,6.845990,10.262707,1.395216,1.113345,2.013221,3.367478,5.062016,1.925613,2.257177,3.668901,6.233386,6.924047,2.233654,2.274482,2.887890
1577421102.384106,26.000000,0.000000,4233.846191,4391.282227,4255.384766,4149.230957,4198.461426,0.000000,4.000000,,,,0.000000,4.000000,4.000000,4.000000,4.000000,4.000000,,,,,,,,,,,,,,,,,,,,,,,,,
1577421102.391803,27.000000,0.000000,4245.128418,4387.179688,4266.153809,4164.615234,4210.769043,0.000000,4.000000,,,,0.000000,4.000000,4.000000,4.000000,4.000000,4.000000,,,,,,,,,,,,,,,,,,,,,,,,,
1577421102.399699,28.000000,0.000000,4259.487305,4366.153809,4280.000000,4172.307617,4226.666504,0.000000,4.000000,,,,0.000000,4.000000,4.000000,4.000000,4.000000,4.000000,,,,,,,,,,,,,,,,,,,,,,,,,
1577421102.407496,29.000000,0.000000,4249.230957,4349.743652,4265.641113,4151.282227,4216.410156,0.000000,4.000000,,,,0.000000,4.000000,4.000000,4.000000,4.000000,4.000000,,,,,,,,,,,,,,,,,,,,,,,,,
1577421102.415293,30.000000,0.000000,4247.692383,4357.948730,4256.922852,4149.230957,4212.307617,0.000000,4.000000,,,,0.000000,4.000000,4.000000,4.000000,4.000000,4.000000,,,,,,,,,,,,,,,,,,,,,,,,,
1577421102.422990,31.000000,0.000000,4247.179688,4345.128418,4255.897461,4141.025879,4212.820313,0.000000,4.000000,,,,0.000000,4.000000,4.000000,4.000000,4.000000,4.000000,,,,,,,,,,,,,,,,,,,,,,,,,
1577421102.430886,32.000000,0.000000,4230.256348,4325.128418,4243.589844,4112.820313,4195.897461,0.000000,4.000000,,,,0.000000,4.000000,4.000000,4.000000,4.000000,4.000000,,,,,,,,,,,,,,,,,,,,,,,,,
1577421102.438683,33.000000,0.000000,4235.384766,4338.461426,4243.589844,4121.538574,4192.307617,0.000000,4.000000,,,,0.000000,4.000000,4.000000,4.000000,4.000000,4.000000,,,,,,,,,,,,,,,,,,,,,,,,,
1577421102.446480,34.000000,0.000000,4254.871582,4346.666504,4254.358887,4168.205078,4214.358887,0.000000,4.000000,,,,0.000000,4.000000,4.000000,4.000000,4.000000,4.000000,,,,,,,,,,,,,,,,,,,,,,,,,
1577421102.454176,35.000000,0.000000,4239.487305,4322.563965,4238.461426,4169.230957,4209.743652,0.000000,4.000000,,,,0.000000,4.000000,4.000000,4.000000,4.000000,4.000000,,,,,,,,,,,,,,,,,,,,,,,,,
1577421102.462073,36.000000,0.000000,4216.922852,4305.641113,4218.461426,4134.871582,4184.102539,0.000000,4.000000,,,,0.000000,4.000000,4.000000,4.000000,4.000000,4.000000,,,,,,,,,,,,,,,,,,,,,,,,,
1577421102.469869,37.000000,0.000000,4232.307617,4314.358887,4225.128418,4150.256348,4197.436035,0.000000,4.000000,,,,0.000000,4.000000,4.000000,4.000000,4.000000,4.000000,,,,,,,,,,,,,,,,,,,,,,,,,
1577421102.477766,38.000000,0.000000,4223.077148,4306.153809,4209.743652,4145.641113,4193.846191,0.000000,4.000000,,,,0.000000,4.000000,4.000000,4.000000,4.000000,4.000000,,,,,,,,,,,,,,,,,,,,,,,,,
1577421102.485562,39.000000,0.000000,4194.871582,4297.948730,4191.282227,4108.205078,4166.153809,0.000000,4.000000,,,,0.000000,4.000000,4.000000,4.000000,4.000000,4.000000,,,,,,,,,,,,,,,,,,,,,,,,,
1577421102.493459,40.000000,0.000000,4228.717773,4327.179688,4229.743652,4142.563965,4193.333496,0.000000,4.000000,,,,0.000000,4.000000,4.000000,4.000000,4.000000,4.000000,,,,,,,,,,,,,,,,,,,,,,,,,
1577421102.501255,41.000000,0.000000,4260.512695,4329.743652,4255.897461,4182.051270,4225.128418,0.000000,4.000000,,,,0.000000,4.000000,4.000000,4.000000,4.000000,4.000000,5.175752,6.545779,2.564641,1.838360,3.204035,35.060898,8.981545,2.488383,1.149971,1.837824,9.474767,9.661584,1.398226,1.072769,2.032185,4.198705,4.580569,2.046208,2.224618,3.654548,6.496718,5.919592,2.751430,2.227536,2.992397
1577421102.509152,42.000000,0.000000,4255.384766,4311.282227,4246.153809,4169.230957,4223.077148,0.000000,4.000000,,,,0.000000,4.000000,4.000000,4.000000,4.000000,4.000000,,,,,,,,,,,,,,,,,,,,,,,,,
1577421102.516948,43.000000,0.000000,4267.692383,4322.051270,4254.358887,4174.871582,4231.794922,0.000000,4.000000,,,,0.000000,4.000000,4.000000,4.000000,4.000000,4.000000,,,,,,,,,,,,,,,,,,,,,,,,,
1577421102.524845,44.000000,0.000000,4266.153809,4315.384766,4249.743652,4171.282227,4233.333496,0.000000,4.000000,,,,0.000000,4.000000,4.000000,4.000000,4.000000,4.000000,,,,,,,,,,,,,,,,,,,,,,,,,
1577421102.532641,45.000000,0.000000,4234.871582,4284.615234,4223.077148,4134.871582,4207.179688,0.000000,4.000000,,,,0.000000,4.000000,4.000000,4.000000,4.000000,4.000000,,,,,,,,,,,,,,,,,,,,,,,,,
1577421102.540338,46.000000,0.000000,4229.743652,4286.666504,4221.538574,4141.025879,4200.512695,0.000000,4.000000,,,,0.000000,4.000000,4.000000,4.000000,4.000000,4.000000,,,,,,,,,,,,,,,,,,,,,,,,,
1577421102.548134,47.000000,0.000000,4239.487305,4297.436035,4233.333496,4168.717773,4215.384766,0.000000,4.000000,,,,0.000000,4.000000,4.000000,4.000000,4.000000,4.000000,,,,,,,,,,,,,,,,,,,,,,,,,
1577421102.555831,48.000000,0.000000,4230.769043,4281.538574,4228.717773,4150.769043,4207.692383,0.000000,4.000000,,,,0.000000,4.000000,4.000000,4.000000,4.000000,4.000000,,,,,,,,,,,,,,,,,,,,,,,,,
1577421102.563628,49.000000,0.000000,4225.128418,4279.487305,4225.128418,4137.436035,4200.000000,0.000000,4.000000,,,,0.000000,4.000000,4.000000,4.000000,4.000000,4.000000,,,,,,,,,,,,,,,,,,,,,,,,,
1577421102.571324,50.000000,0.000000,4229.230957,4298.974121,4228.717773,4153.333496,4209.230957,0.000000,4.000000,,,,0.000000,4.000000,4.000000,4.000000,4.000000,4.000000,,,,,,,,,,,,,,,,,,,,,,,,,
1577421102.579121,51.000000,0.000000,4228.205078,4301.025879,4221.025879,4148.717773,4205.641113,0.000000,4.000000,,,,0.000000,4.000000,4.000000,4.000000,4.000000,4.000000,,,,,,,,,,,,,,,,,,,,,,,,,
1577421102.586817,52.000000,0.000000,4226.666504,4298.461426,4209.743652,4139.487305,4196.922852,0.000000,4.000000,,,,0.000000,4.000000,4.000000,4.000000,4.000000,4.000000,,,,,,,,,,,,,,,,,,,,,,,,,
1577421102.594614,53.000000,0.000000,4227.179688,4309.743652,4207.179688,4145.641113,4200.000000,0.000000,4.000000,,,,0.000000,4.000000,4.000000,4.000000,4.000000,4.000000,,,,,,,,,,,,,,,,,,,,,,,,,
1577421102.602310,54.000000,0.000000,4220.512695,4310.256348,4197.948730,4132.307617,4196.410156,0.000000,4.000000,,,,0.000000,4.000000,4.000000,4.000000,4.000000,4.000000,,,,,,,,,,,,,,,,,,,,,,,,,
1577421102.610207,55.000000,0.000000,4217.436035,4296.922852,4192.307617,4123.589844,4193.333496,0.000000,4.000000,,,,0.000000,4.000000,4.000000,4.000000,4.000000,4.000000,,,,,,,,,,,,,,,,,,,,,,,,,
1577421102.618004,56.000000,0.000000,4224.102539,4293.846191,4205.641113,4136.922852,4204.615234,0.000000,4.000000,,,,0.000000,4.000000,4.000000,4.000000,4.000000,4.000000,,,,,,,,,,,,,,,,,,,,,,,,,
1577421102.625901,57.000000,0.000000,4223.589844,4293.333496,4206.153809,4132.307617,4205.128418,0.000000,4.000000,,,,0.000000,4.000000,4.000000,4.000000,4.000000,4.000000,5.966242,5.501959,3.225547,1.897873,3.111211,37.911671,7.696434,2.911157,1.026616,1.800502,13.488536,8.994160,1.508474,1.086373,1.965795,5.174596,4.110283,2.358428,2.286290,3.627083,6.756282,4.856480,3.531971,2.175943,2.914080
1577421102.633697,58.000000,0.000000,4227.692383,4291.794922,4196.922852,4133.333496,4200.512695,0.000000,4.000000,,,,0.000000,4.000000,4.000000,4.000000,4.000000,4.000000,,,,,,,,,,,,,,,,,,,,,,,,,
1577421102.641594,59.000000,0.000000,4228.205078,4282.563965,4190.769043,4142.563965,4195.897461,0.000000,4.000000,,,,0.000000,4.000000,4.000000,4.000000,4.000000,4.000000,,,,,,,,,,,,,,,,,,,,,,,,,
1577421102.649391,60.000000,0.000000,4204.615234,4264.615234,4172.307617,4127.692383,4177.948730,0.000000,4.000000,,,,0.000000,4.000000,4.000000,4.000000,4.000000,4.000000,,,,,,,,,,,,,,,,,,,,,,,,,
1577421102.657287,61.000000,0.000000,4208.205078,4274.358887,4171.794922,4133.333496,4180.000000,0.000000,4.000000,,,,0.000000,4.000000,4.000000,4.000000,4.000000,4.000000,,,,,,,,,,,,,,,,,,,,,,,,,
1577421102.665084,62.000000,0.000000,4243.077148,4294.358887,4195.384766,4162.051270,4210.769043,0.000000,4.000000,,,,0.000000,4.000000,4.000000,4.000000,4.000000,4.000000,,,,,,,,,,,,,,,,,,,,,,,,,
1577421102.672980,63.000000,0.000000,4255.897461,4288.205078,4198.461426,4161.025879,4227.179688,0.000000,4.000000,,,,0.000000,4.000000,4.000000,4.000000,4.000000,4.000000,,,,,,,,,,,,,,,,,,,,,,,,,
1577421102.680777,64.000000,0.000000,4254.358887,4278.974121,4185.641113,4155.897461,4232.307617,450.000000,4.000000,,,,0.000000,4.000000,4.000000,4.000000,4.000000,4.000000,,,,,,,,,,,,,,,,,,,,,,,,,
1577421102.688673,65.000000,0.000000,4264.615234,4284.102539,4188.205078,4175.897461,4246.666504,450.000000,4.000000,,,,0.000000,4.000000,4.000000,4.000000,4.000000,4.000000,,,,,,,,,,,,,,,,,,,,,,,,,
1577421102.696470,66.000000,0.000000,4267.179688,4291.794922,4188.205078,4172.307617,4243.589844,16213.000000,4.000000,,,,0.000000,4.000000,4.000000,4.000000,4.000000,4.000000,,,,,,,,,,,,,,,,,,,,,,,,,
1577421102.704366,67.000000,0.000000,4252.307617,4286.153809,4162.563965,4149.230957,4222.563965,450.000000,4.000000,,,,0.000000,4.000000,4.000000,4.000000,4.000000,4.000000,,,,,,,,,,,,,,,,,,,,,,,,,
1577421102.712163,68.000000,0.000000,4238.974121,4263.077148,4142.051270,4133.846191,4208.717773,16195.000000,4.000000,,,,0.000000,4.000000,4.000000,4.000000,4.000000,4.000000,,,,,,,,,,,,,,,,,,,,,,,,,
1577421102.719959,69.000000,0.000000,4233.846191,4243.077148,4142.051270,4127.692383,4204.615234,450.000000,4.000000,,,,0.000000,4.000000,4.000000,4.000000,4.000000,4.000000,,,,,,,,,,,,,,,,,,,,,,,,,
1577421102.727756,70.000000,0.000000,4240.000000,4245.128418,4147.179688,4149.743652,4212.820313,16153.000000,4.000000,,,,0.000000,4.000000,4.000000,4.000000,4.000000,4.000000,,,,,,,,,,,,,,,,,,,,,,,,,
1577421102.735652,71.000000,0.000000,4232.307617,4240.512695,4140.512695,4165.128418,4204.615234,450.000000,4.000000,,,,0.000000,4.000000,4.000000,4.000000,4.000000,4.000000,,,,,,,,,,,,,,,,,,,,,,,,,
1577421102.743449,72.000000,0.000000,4206.153809,4213.333496,4123.589844,4140.512695,4180.000000,450.000000,4.000000,,,,0.000000,4.000000,4.000000,4.000000,4.000000,4.000000,,,,,,,,,,,,,,,,,,,,,,,,,
1577421102.751145,73.000000,0.000000,4223.589844,4212.307617,4137.948730,4143.077148,4202.563965,16159.000000,4.000000,,,,0.000000,4.000000,4.000000,4.000000,4.000000,4.000000,6.656612,4.526136,4.135361,2.016870,2.847007,43.787369,6.126199,3.339446,0.991209,1.665112,17.532969,8.140261,1.797265,1.203645,1.850533,6.036790,3.720413,2.815514,2.543151,3.663797,6.879698,3.963048,4.446795,2.194171,2.712072
1577421102.758942,74.000000,0.000000,4249.743652,4225.641113,4150.256348,4161.538574,4223.589844,450.000000,4.000000,,,,0.000000,4.000000,4.000000,4.000000,4.000000,4.000000,,,,,,,,,,,,,,,,,,,,,,,,,
1577421102.766638,75.000000,0.000000,4229.743652,4218.974121,4122.563965,4142.563965,4195.897461,16211.000000,4.000000,,,,0.000000,4.000000,4.000000,4.000000,4.000000,4.000000,,,,,,,,,,,,,,,,,,,,,,,,,
1577421102.774535,76.000000,0.000000,4228.717773,4218.974121,4119.487305,4141.025879,4198.461426,450.000000,4.000000,,,,0.000000,4.000000,4.000000,4.000000,4.000000,4.000000,,,,,,,,,,,,,,,,,,,,,,,,,
1577421102.782332,77.000000,0.000000,4269.743652,4242.563965,4159.487305,4173.846191,4241.538574,450.000000,4.000000,,,,0.000000,4.000000,4.000000,4.000000,4.000000,4.000000,,,,,,,,,,,,,,,,,,,,,,,,,
1577421102.790228,78.000000,0.000000,4275.897461,4252.820313,4162.563965,4179.487305,4249.743652,450.000000,4.000000,,,,0.000000,4.000000,4.000000,4.000000,4.000000,4.000000,,,,,,,,,,,,,,,,,,,,,,,,,
1577421102.798025,79.000000,0.000000,4237.436035,4225.128418,4117.436035,4146.666504,4214.871582,16211.000000,4.000000,,,,0.000000,4.000000,4.000000,4.000000,4.000000,4.000000,,,,,,,,,,,,,,,,,,,,,,,,,
1577421102.805922,80.000000,0.000000,4228.205078,4211.282227,4107.179688,4120.512695,4208.205078,450.000000,4.000000,,,,0.000000,4.000000,4.000000,4.000000,4.000000,4.000000,,,,,,,,,,,,,,,,,,,,,,,,,
1577421102.813719,81.000000,0.000000,4240.512695,4231.794922,4124.102539,4126.153809,4219.487305,450.000000,4.000000,,,,0.000000,4.000000,4.000000,4.000000,4.000000,4.000000,,,,,,,,,,,,,,,,,,,,,,,,,
1577421102.821515,82.000000,0.000000,4220.000000,4231.794922,4105.641113,4131.282227,4194.358887,450.000000,4.000000,,,,0.000000,4.000000,4.000000,4.000000,4.000000,4.000000,,,,,,,,,,,,,,,,,,,,,,,,,
1577421102.829212,83.000000,0.000000,4213.846191,4227.692383,4093.333252,4130.256348,4188.717773,16211.000000,4.000000,,,,0.000000,4.000000,4.000000,4.000000,4.000000,4.000000,,,,,,,,,,,,,,,,,,,,,,,,,
1577421102.837109,84.000000,0.000000,4244.615234,4251.282227,4116.922852,4138.461426,4221.538574,450.000000,4.000000,,,,0.000000,4.000000,4.000000,4.000000,4.000000,4.000000,,,,,,,,,,,,,,,,,,,,,,,,,
1577421102.844905,85.000000,0.000000,4254.358887,4258.461426,4123.589844,4148.717773,4232.820313,450.000000,4.000000,,,,0.000000,4.000000,4.000000,4.000000,4.000000,4.000000,,,,,,,,,,,,,,,,,,,,,,,,,
1577421102.852702,86.000000,0.000000,4237.436035,4238.974121,4104.615234,4145.128418,4215.384766,450.000000,4.000000,,,,0.000000,4.000000,4.000000,4.000000,4.000000,4.000000,,,,,,,,,,,,,,,,,,,,,,,,,
1577421102.860399,87.000000,0.000000,4230.256348,4230.769043,4098.461426,4129.743652,4204.102539,16211.000000,4.000000,,,,0.000000,4.000000,4.000000,4.000000,4.000000,4.000000,,,,,,,,,,,,,,,,,,,,,,,,,
1577421102.868295,88.000000,0.000000,4236.410156,4234.871582,4109.230957,4129.743652,4211.282227,450.000000,4.000000,,,,0.000000,4.000000,4.000000,4.000000,4.000000,4.000000,,,,,,,,,,,,,,,,,,,,,,,,,
1577421102.876092,89.000000,0.000000,4254.871582,4243.589844,4125.641113,4163.589844,4227.692383,450.000000,4.000000,,,,0.000000,4.000000,4.000000,4.000000,4.000000,4.000000,6.992126,3.806450,4.997983,2.190539,2.502618,48.800705,4.826208,3.708665,1.037613,1.467235,20.551781,7.098349,2.254787,1.438988,1.734677,6.590528,3.470520,3.331385,3.012466,3.776197,6.856562,3.409659,5.217773,2.305218,2.476598
1577421102.883988,90.000000,0.000000,4262.051270,4245.641113,4118.974121,4169.230957,4226.666504,450.000000,4.000000,,,,0.000000,4.000000,4.000000,4.000000,4.000000,4.000000,,,,,,,,,,,,,,,,,,,,,,,,,
1577421102.891785,91.000000,0.000000,4236.922852,4231.794922,4094.871826,4132.307617,4205.641113,16211.000000,4.000000,,,,0.000000,4.000000,4.000000,4.000000,4.000000,4.000000,,,,,,,,,,,,,,,,,,,,,,,,,
1577421102.899681,92.000000,0.000000,4223.077148,4230.769043,4097.436035,4135.384766,4203.077148,450.000000,4.000000,,,,0.000000,4.000000,4.000000,4.000000,4.000000,4.000000,,,,,,,,,,,,,,,,,,,,,,,,,
1577421102.907478,93.000000,0.000000,4245.641113,4246.153809,4118.974121,4161.025879,4222.051270,450.000000,4.000000,,,,0.000000,4.000000,4.000000,4.000000,4.000000,4.000000,,,,,,,,,,,,,,,,,,,,,,,,,
1577421102.915174,94.000000,0.000000,4246.666504,4237.436035,4114.871582,4140.512695,4218.974121,450.000000,4.000000,,,,0.000000,4.000000,4.000000,4.000000,4.000000,4.000000,,,,,,,,,,,,,,,,,,,,,,,,,
1577421102.923071,95.000000,0.000000,4221.538574,4214.871582,4100.512695,4123.589844,4205.641113,16211.000000,4.000000,,,,0.000000,4.000000,4.000000,4.000000,4.000000,4.000000,,,,,,,,,,,,,,,,,,,,,,,,,
1577421102.930868,96.000000,0.000000,4223.077148,4213.846191,4111.794922,4144.615234,4217.948730,450.000000,4.000000,,,,0.000000,4.000000,4.000000,4.000000,4.000000,4.000000,,,,,,,,,,,,,,,,,,,,,,,,,
1577421102.938664,97.000000,0.000000,4235.897461,4212.820313,4125.128418,4146.666504,4225.128418,450.000000,4.000000,,,,0.000000,4.000000,4.000000,4.000000,4.000000,4.000000,,,,,,,,,,,,,,,,,,,,,,,,,
1577421102.946361,98.000000,0.000000,4231.282227,4213.846191,4123.589844,4126.153809,4213.846191,450.000000,4.000000,,,,0.000000,4.000000,4.000000,4.000000,4.000000,4.000000,,,,,,,,,,,,,,,,,,,,,,,,,
