title:sc4, start timestamp:2019-12-27T07:32:21.061929+03:00, stop timestamp:2019-12-27T07:32:52.663052+03:00, headset type:INSIGHT, headset serial:A2D200FB, headset firmware:930, subject name:Qasim, channels:44, sampling rate:eeg_128;pow_8, samples:4053      , version:2.0
Timestamp,EEG.Counter,EEG.Interpolated,EEG.AF3,EEG.T7,EEG.Pz,EEG.T8,EEG.AF4,EEG.RawCq,EEG.Battery,MarkerIndex,MarkerType,MarkerValueInt,EEG.MarkerHardware,CQ.AF3,CQ.T7,CQ.Pz,CQ.T8,CQ.AF4,POW.AF3.Theta,POW.AF3.Alpha,POW.AF3.BetaL,POW.AF3.BetaH,POW.AF3.Gamma,POW.T7.Theta,POW.T7.Alpha,POW.T7.BetaL,POW.T7.BetaH,POW.T7.Gamma,POW.Pz.Theta,POW.Pz.Alpha,POW.Pz.BetaL,POW.Pz.BetaH,POW.Pz.Gamma,POW.T8.Theta,POW.T8.Alpha,POW.T8.BetaL,POW.T8.BetaH,POW.T8.Gamma,POW.AF4.Theta,POW.AF4.Alpha,POW.AF4.BetaL,POW.AF4.BetaH,POW.AF4.Gamma
1577421141.061929,122.000000,0.000000,4275.897461,4296.410156,4191.282227,4145.128418,4256.410156,450.000000,4.000000,,,,0.000000,4.000000,4.000000,4.000000,4.000000,4.000000,,,,,,,,,,,,,,,,,,,,,,,,,
1577421141.069625,123.000000,0.000000,4281.538574,4306.666504,4198.974121,4151.282227,4252.820313,16173.000000,4.000000,,,,0.000000,4.000000,4.000000,4.000000,4.000000,4.000000,,,,,,,,,,,,,,,,,,,,,,,,,
1577421141.077421,124.000000,0.000000,4296.922852,4318.461426,4220.512695,4145.641113,4263.077148,450.000000,4.000000,,,,0.000000,4.000000,4.000000,4.000000,4.000000,4.000000,,,,,,,,,,,,,,,,,,,,,,,,,
1577421141.085118,125.000000,0.000000,4263.589844,4296.410156,4206.153809,4124.102539,4240.000000,450.000000,4.000000,,,,0.000000,4.000000,4.000000,4.000000,4.000000,4.000000,,,,,,,,,,,,,,,,,,,,,,,,,
1577421141.092914,126.000000,0.000000,4259.487305,4308.717773,4210.256348,4149.230957,4243.077148,450.000000,4.000000,,,,0.000000,4.000000,4.000000,4.000000,4.000000,4.000000,,,,,,,,,,,,,,,,,,,,,,,,,
1577421141.100610,127.000000,0.000000,4282.051270,4326.666504,4222.051270,4164.615234,4248.717773,235.000000,4.000000,,,,0.000000,4.000000,4.000000,4.000000,4.000000,4.000000,,,,,,,,,,,,,,,,,,,,,,,,,
1577421141.108407,0.000000,0.000000,4271.282227,4305.128418,4206.153809,4143.077148,4228.717773,450.000000,4.000000,,,,0.000000,4.000000,4.000000,4.000000,4.000000,4.000000,,,,,,,,,,,,,,,,,,,,,,,,,
1577421141.116203,1.000000,0.000000,4271.282227,4296.922852,4200.000000,4136.922852,4231.794922,450.000000,4.000000,,,,0.000000,4.000000,4.000000,4.000000,4.000000,4.000000,,,,,,,,,,,,,,,,,,,,,,,,,
1577421141.123899,2.000000,0.000000,4249.230957,4287.692383,4189.743652,4123.589844,4211.282227,16224.000000,4.000000,,,,0.000000,4.000000,4.000000,4.000000,4.000000,4.000000,,,,,,,,,,,,,,,,,,,,,,,,,
1577421141.131696,3.000000,0.000000,4222.563965,4286.153809,4196.410156,4107.692383,4190.256348,450.000000,4.000000,,,,0.000000,4.000000,4.000000,4.000000,4.000000,4.000000,,,,,,,,,,,,,,,,,,,,,,,,,
1577421141.139392,4.000000,0.000000,4237.436035,4315.897461,4227.692383,4105.641113,4209.230957,16213.000000,4.000000,,,,0.000000,4.000000,4.000000,4.000000,4.000000,4.000000,,,,,,,,,,,,,,,,,,,,,,,,,
1577421141.147088,5.000000,0.000000,4262.051270,4345.128418,4248.205078,4142.051270,4241.025879,450.000000,4.000000,,,,0.000000,4.000000,4.000000,4.000000,4.000000,4.000000,,,,,,,,,,,,,,,,,,,,,,,,,
1577421141.154885,6.000000,0.000000,4274.871582,4343.589844,4252.307617,4185.641113,4253.333496,16166.000000,4.000000,,,,0.000000,4.000000,4.000000,4.000000,4.000000,4.000000,,,,,,,,,,,,,,,,,,,,,,,,,
1577421141.162581,7.000000,0.000000,4253.846191,4306.666504,4234.871582,4153.846191,4216.410156,450.000000,4.000000,,,,0.000000,4.000000,4.000000,4.000000,4.000000,4.000000,,,,,,,,,,,,,,,,,,,,,,,,,
1577421141.170278,8.000000,0.000000,4245.128418,4312.307617,4238.461426,4130.769043,4200.512695,450.000000,4.000000,,,,0.000000,4.000000,4.000000,4.000000,4.000000,4.000000,,,,,,,,,,,,,,,,,,,,,,,,,
1577421141.178074,9.000000,0.000000,4266.153809,4356.922852,4274.358887,4173.846191,4226.153809,16148.000000,4.000000,,,,0.000000,4.000000,4.000000,4.000000,4.000000,4.000000,7.292003,6.430058,6.082106,3.499255,1.781545,3.989839,2.524622,1.366811,2.440904,1.191704,7.506495,6.058372,3.878289,3.018845,1.348674,1.660418,7.094539,5.799539,5.735479,2.000465,2.961736,8.029346,4.337751,2.957486,1.764893
1577421141.185871,10.000000,0.000000,4262.563965,4352.820313,4282.051270,4196.410156,4232.820313,450.000000,4.000000,,,,0.000000,4.000000,4.000000,4.000000,4.000000,4.000000,,,,,,,,,,,,,,,,,,,,,,,,,
1577421141.193567,11.000000,0.000000,4248.717773,4330.256348,4253.333496,4170.256348,4222.051270,16165.000000,4.000000,,,,0.000000,4.000000,4.000000,4.000000,4.000000,4.000000,,,,,,,,,,,,,,,,,,,,,,,,,
1577421141.201363,12.000000,0.000000,4244.102539,4327.179688,4234.358887,4144.615234,4209.743652,450.000000,4.000000,,,,0.000000,4.000000,4.000000,4.000000,4.000000,4.000000,,,,,,,,,,,,,,,,,,,,,,,,,
1577421141.209060,13.000000,0.000000,4262.051270,4342.563965,4262.563965,4161.538574,4235.384766,450.000000,4.000000,,,,0.000000,4.000000,4.000000,4.000000,4.000000,4.000000,,,,,,,,,,,,,,,,,,,,,,,,,
1577421141.216756,14.000000,0.000000,4269.230957,4350.256348,4281.538574,4179.487305,4254.358887,450.000000,4.000000,,,,0.000000,4.000000,4.000000,4.000000,4.000000,4.000000,,,,,,,,,,,,,,,,,,,,,,,,,
1577421141.224552,15.000000,0.000000,4240.000000,4332.820313,4250.256348,4175.897461,4218.974121,16165.000000,4.000000,,,,0.000000,4.000000,4.000000,4.000000,4.000000,4.000000,,,,,,,,,,,,,,,,,,,,,,,,,
1577421141.232349,16.000000,0.000000,4247.179688,4331.794922,4244.615234,4171.282227,4204.102539,0.000000,4.000000,,,,0.000000,4.000000,4.000000,4.000000,4.000000,4.000000,,,,,,,,,,,,,,,,,,,,,,,,,
1577421141.240045,17.000000,0.000000,4265.641113,4340.512695,4253.333496,4156.922852,4212.820313,0.000000,4.000000,,,,0.000000,4.000000,4.000000,4.000000,4.000000,4.000000,,,,,,,,,,,,,,,,,,,,,,,,,
1577421141.247841,18.000000,0.000000,4260.000000,4342.563965,4238.461426,4173.333496,4219.487305,0.000000,4.000000,,,,0.000000,4.000000,4.000000,4.000000,4.000000,4.000000,,,,,,,,,,,,,,,,,,,,,,,,,
1577421141.255538,19.000000,0.000000,4260.000000,4343.077148,4234.871582,4192.307617,4225.641113,0.000000,4.000000,,,,0.000000,4.000000,4.000000,4.000000,4.000000,4.000000,,,,,,,,,,,,,,,,,,,,,,,,,
1577421141.263334,20.000000,0.000000,4250.769043,4331.794922,4239.487305,4175.384766,4216.922852,0.000000,4.000000,,,,0.000000,4.000000,4.000000,4.000000,4.000000,4.000000,,,,,,,,,,,,,,,,,,,,,,,,,
1577421141.271030,21.000000,0.000000,4253.333496,4330.769043,4244.615234,4179.487305,4220.000000,0.000000,4.000000,,,,0.000000,4.000000,4.000000,4.000000,4.000000,4.000000,,,,,,,,,,,,,,,,,,,,,,,,,
1577421141.278827,22.000000,0.000000,4226.666504,4309.743652,4212.820313,4168.717773,4194.358887,0.000000,4.000000,,,,0.000000,4.000000,4.000000,4.000000,4.000000,4.000000,,,,,,,,,,,,,,,,,,,,,,,,,
1577421141.286523,23.000000,0.000000,4186.153809,4289.230957,4181.025879,4149.230957,4165.641113,0.000000,4.000000,,,,0.000000,4.000000,4.000000,4.000000,4.000000,4.000000,,,,,,,,,,,,,,,,,,,,,,,,,
1577421141.294319,24.000000,0.000000,4238.461426,4334.358887,4233.846191,4186.666504,4219.487305,0.000000,4.000000,,,,0.000000,4.000000,4.000000,4.000000,4.000000,4.000000,,,,,,,,,,,,,,,,,,,,,,,,,
1577421141.302016,25.000000,0.000000,4288.205078,4353.333496,4267.692383,4214.871582,4251.794922,0.000000,4.000000,,,,0.000000,4.000000,4.000000,4.000000,4.000000,4.000000,5.477701,5.351193,5.583467,3.346146,1.860246,3.730427,1.958049,1.275946,2.560369,1.117699,7.032263,3.983133,3.482687,3.098866,1.403239,1.350223,4.779161,5.545375,5.212945,1.850778,2.922688,6.471375,4.079918,2.660613,1.848707
1577421141.309812,26.000000,0.000000,4260.000000,4328.205078,4238.461426,4195.897461,4221.538574,0.000000,4.000000,,,,0.000000,4.000000,4.000000,4.000000,4.000000,4.000000,,,,,,,,,,,,,,,,,,,,,,,,,
1577421141.317509,27.000000,0.000000,4223.589844,4318.461426,4224.615234,4168.205078,4202.051270,0.000000,4.000000,,,,0.000000,4.000000,4.000000,4.000000,4.000000,4.000000,,,,,,,,,,,,,,,,,,,,,,,,,
1577421141.325305,28.000000,0.000000,4207.692383,4307.692383,4222.563965,4164.615234,4197.436035,0.000000,4.000000,,,,0.000000,4.000000,4.000000,4.000000,4.000000,4.000000,,,,,,,,,,,,,,,,,,,,,,,,,
1577421141.333001,29.000000,0.000000,4219.487305,4316.922852,4232.820313,4181.538574,4209.230957,0.000000,4.000000,,,,0.000000,4.000000,4.000000,4.000000,4.000000,4.000000,,,,,,,,,,,,,,,,,,,,,,,,,
1577421141.340797,30.000000,0.000000,4210.769043,4313.333496,4225.641113,4167.692383,4197.436035,0.000000,4.000000,,,,0.000000,4.000000,4.000000,4.000000,4.000000,4.000000,,,,,,,,,,,,,,,,,,,,,,,,,
1577421141.348494,31.000000,0.000000,4185.128418,4295.897461,4201.538574,4145.128418,4173.846191,0.000000,4.000000,,,,0.000000,4.000000,4.000000,4.000000,4.000000,4.000000,,,,,,,,,,,,,,,,,,,,,,,,,
1577421141.356190,32.000000,0.000000,4208.717773,4320.512695,4217.948730,4162.051270,4195.384766,0.000000,4.000000,,,,0.000000,4.000000,4.000000,4.000000,4.000000,4.000000,,,,,,,,,,,,,,,,,,,,,,,,,
1577421141.363987,33.000000,0.000000,4253.333496,4345.128418,4253.846191,4207.692383,4244.615234,0.000000,4.000000,,,,0.000000,4.000000,4.000000,4.000000,4.000000,4.000000,,,,,,,,,,,,,,,,,,,,,,,,,
1577421141.371683,34.000000,0.000000,4291.282227,4351.794922,4285.128418,4237.436035,4289.230957,0.000000,4.000000,,,,0.000000,4.000000,4.000000,4.000000,4.000000,4.000000,,,,,,,,,,,,,,,,,,,,,,,,,
1577421141.379479,35.000000,0.000000,4268.717773,4334.358887,4266.666504,4203.077148,4266.666504,0.000000,4.000000,,,,0.000000,4.000000,4.000000,4.000000,4.000000,4.000000,,,,,,,,,,,,,,,,,,,,,,,,,
1577421141.387176,36.000000,0.000000,4252.307617,4340.000000,4254.358887,4207.179688,4254.871582,0.000000,4.000000,,,,0.000000,4.000000,4.000000,4.000000,4.000000,4.000000,,,,,,,,,,,,,,,,,,,,,,,,,
1577421141.394972,37.000000,0.000000,4310.256348,4376.410156,4299.487305,4242.563965,4298.974121,0.000000,4.000000,,,,0.000000,4.000000,4.000000,4.000000,4.000000,4.000000,,,,,,,,,,,,,,,,,,,,,,,,,
1577421141.402668,38.000000,0.000000,4241.025879,4293.846191,4220.000000,4169.230957,4243.077148,0.000000,4.000000,,,,0.000000,4.000000,4.000000,4.000000,4.000000,4.000000,,,,,,,,,,,,,,,,,,,,,,,,,
1577421141.410465,39.000000,0.000000,4275.384766,4332.307617,4259.487305,4249.743652,4299.487305,0.000000,4.000000,,,,0.000000,4.000000,4.000000,4.000000,4.000000,4.000000,,,,,,,,,,,,,,,,,,,,,,,,,
1577421141.418161,40.000000,0.000000,4351.794922,4396.922852,4344.615234,4248.205078,4313.846191,0.000000,4.000000,,,,0.000000,4.000000,4.000000,4.000000,4.000000,4.000000,,,,,,,,,,,,,,,,,,,,,,,,,
1577421141.425957,41.000000,0.000000,3998.974365,4095.897461,4002.564209,3971.281982,4040.000000,0.000000,4.000000,,,,0.000000,4.000000,4.000000,4.000000,4.000000,4.000000,4.350657,5.575263,5.431754,3.366015,1.985782,3.334153,1.728579,1.280939,2.667623,1.163036,6.372242,2.949676,3.399213,3.126303,1.492935,1.217906,3.628857,5.439029,4.557642,1.754926,3.142955,6.137464,4.389771,2.480199,1.971455
1577421141.433654,42.000000,0.000000,4262.563965,4344.102539,4225.128418,4274.358887,4349.743652,0.000000,4.000000,,,,0.000000,4.000000,4.000000,4.000000,4.000000,4.000000,,,,,,,,,,,,,,,,,,,,,,,,,
1577421141.441450,43.000000,0.000000,4610.769043,4611.282227,4536.922852,4304.102539,4464.102539,0.000000,4.000000,,,,0.000000,4.000000,4.000000,4.000000,4.000000,4.000000,,,,,,,,,,,,,,,,,,,,,,,,,
1577421141.449146,44.000000,0.000000,4158.974121,4222.563965,4125.128418,3944.615479,4068.205078,0.000000,4.000000,,,,0.000000,4.000000,4.000000,4.000000,4.000000,4.000000,,,,,,,,,,,,,,,,,,,,,,,,,
1577421141.456943,45.000000,0.000000,4301.025879,4372.307617,4257.948730,4290.769043,4372.307617,0.000000,4.000000,,,,0.000000,4.000000,4.000000,4.000000,4.000000,4.000000,,,,,,,,,,,,,,,,,,,,,,,,,
1577421141.464639,46.000000,0.000000,4461.025879,4488.717773,4394.871582,4309.230957,4429.230957,0.000000,4.000000,,,,0.000000,4.000000,4.000000,4.000000,4.000000,4.000000,,,,,,,,,,,,,,,,,,,,,,,,,
1577421141.472335,47.000000,0.000000,4218.461426,4293.846191,4176.922852,4123.077148,4208.717773,0.000000,4.000000,,,,0.000000,4.000000,4.000000,4.000000,4.000000,4.000000,,,,,,,,,,,,,,,,,,,,,,,,,
1577421141.480132,48.000000,0.000000,4298.461426,4386.153809,4258.974121,4236.410156,4321.025879,0.000000,4.000000,,,,0.000000,4.000000,4.000000,4.000000,4.000000,4.000000,,,,,,,,,,,,,,,,,,,,,,,,,
1577421141.487828,49.000000,0.000000,4263.589844,4373.333496,4235.384766,4151.794922,4245.128418,0.000000,4.000000,,,,0.000000,4.000000,4.000000,4.000000,4.000000,4.000000,,,,,,,,,,,,,,,,,,,,,,,,,
1577421141.495624,50.000000,0.000000,4255.897461,4382.563965,4229.743652,4191.282227,4252.820313,0.000000,4.000000,,,,0.000000,4.000000,4.000000,4.000000,4.000000,4.000000,,,,,,,,,,,,,,,,,,,,,,,,,
1577421141.503321,51.000000,0.000000,4298.974121,4400.000000,4261.538574,4218.974121,4294.358887,0.000000,4.000000,,,,0.000000,4.000000,4.000000,4.000000,4.000000,4.000000,,,,,,,,,,,,,,,,,,,,,,,,,
1577421141.511117,52.000000,0.000000,4260.512695,4358.974121,4236.410156,4154.871582,4252.307617,0.000000,4.000000,,,,0.000000,4.000000,4.000000,4.000000,4.000000,4.000000,,,,,,,,,,,,,,,,,,,,,,,,,
1577421141.518813,53.000000,0.000000,4267.692383,4378.461426,4262.051270,4175.897461,4259.487305,0.000000,4.000000,,,,0.000000,4.000000,4.000000,4.000000,4.000000,4.000000,,,,,,,,,,,,,,,,,,,,,,,,,
1577421141.526610,54.000000,0.000000,4276.410156,4389.743652,4271.794922,4197.948730,4264.102539,0.000000,4.000000,,,,0.000000,4.000000,4.000000,4.000000,4.000000,4.000000,,,,,,,,,,,,,,,,,,,,,,,,,
1577421141.534306,55.000000,0.000000,4272.307617,4370.256348,4262.563965,4177.436035,4257.948730,0.000000,4.000000,,,,0.000000,4.000000,4.000000,4.000000,4.000000,4.000000,,,,,,,,,,,,,,,,,,,,,,,,,
1577421141.542102,56.000000,0.000000,4246.666504,4343.589844,4247.692383,4139.487305,4228.717773,0.000000,4.000000,,,,0.000000,4.000000,4.000000,4.000000,4.000000,4.000000,,,,,,,,,,,,,,,,,,,,,,,,,
1577421141.549799,57.000000,0.000000,4232.820313,4353.846191,4241.025879,4156.410156,4216.410156,0.000000,4.000000,,,,0.000000,4.000000,4.000000,4.000000,4.000000,4.000000,3.816395,6.944465,5.585027,3.474853,2.170129,2.974696,1.906341,1.376972,2.708740,1.332349,5.934967,3.070929,3.574118,3.012772,1.637364,1.250948,3.728898,5.321701,3.873812,1.803771,3.495065,7.002643,5.067770,2.437510,2.145716
1577421141.557595,58.000000,0.000000,4247.692383,4359.487305,4243.589844,4182.051270,4228.717773,0.000000,4.000000,,,,0.000000,4.000000,4.000000,4.000000,4.000000,4.000000,,,,,,,,,,,,,,,,,,,,,,,,,
1577421141.565391,59.000000,0.000000,4249.743652,4329.230957,4236.922852,4161.025879,4225.128418,0.000000,4.000000,,,,0.000000,4.000000,4.000000,4.000000,4.000000,4.000000,,,,,,,,,,,,,,,,,,,,,,,,,
1577421141.573088,60.000000,0.000000,4242.051270,4328.717773,4226.153809,4165.641113,4220.000000,0.000000,4.000000,,,,0.000000,4.000000,4.000000,4.000000,4.000000,4.000000,,,,,,,,,,,,,,,,,,,,,,,,,
1577421141.580784,61.000000,0.000000,4231.282227,4342.051270,4211.282227,4175.897461,4213.333496,0.000000,4.000000,,,,0.000000,4.000000,4.000000,4.000000,4.000000,4.000000,,,,,,,,,,,,,,,,,,,,,,,,,
1577421141.588580,62.000000,0.000000,4216.410156,4321.025879,4193.333496,4149.743652,4205.128418,0.000000,4.000000,,,,0.000000,4.000000,4.000000,4.000000,4.000000,4.000000,,,,,,,,,,,,,,,,,,,,,,,,,
1577421141.596277,63.000000,0.000000,4205.128418,4292.820313,4173.333496,4135.384766,4198.461426,0.000000,4.000000,,,,0.000000,4.000000,4.000000,4.000000,4.000000,4.000000,,,,,,,,,,,,,,,,,,,,,,,,,
1577421141.604073,64.000000,0.000000,4175.384766,4269.743652,4133.846191,4128.205078,4160.512695,450.000000,4.000000,,,,0.000000,4.000000,4.000000,4.000000,4.000000,4.000000,,,,,,,,,,,,,,,,,,,,,,,,,
1577421141.611769,65.000000,0.000000,4163.589844,4266.666504,4120.000000,4123.077148,4149.743652,450.000000,4.000000,,,,0.000000,4.000000,4.000000,4.000000,4.000000,4.000000,,,,,,,,,,,,,,,,,,,,,,,,,
1577421141.619566,66.000000,0.000000,4198.461426,4288.717773,4153.333496,4148.205078,4194.871582,16194.000000,4.000000,,,,0.000000,4.000000,4.000000,4.000000,4.000000,4.000000,,,,,,,,,,,,,,,,,,,,,,,,,
1577421141.627262,67.000000,0.000000,4199.487305,4282.563965,4150.256348,4151.282227,4193.333496,450.000000,4.000000,,,,0.000000,4.000000,4.000000,4.000000,4.000000,4.000000,,,,,,,,,,,,,,,,,,,,,,,,,
1577421141.635058,68.000000,0.000000,4176.922852,4266.153809,4123.589844,4137.948730,4164.102539,16168.000000,4.000000,,,,0.000000,4.000000,4.000000,4.000000,4.000000,4.000000,,,,,,,,,,,,,,,,,,,,,,,,,
1577421141.642755,69.000000,0.000000,4195.384766,4276.922852,4136.922852,4154.358887,4183.589844,450.000000,4.000000,,,,0.000000,4.000000,4.000000,4.000000,4.000000,4.000000,,,,,,,,,,,,,,,,,,,,,,,,,
1577421141.650451,70.000000,0.000000,4197.948730,4273.846191,4140.512695,4149.743652,4192.820313,16173.000000,4.000000,,,,0.000000,4.000000,4.000000,4.000000,4.000000,4.000000,,,,,,,,,,,,,,,,,,,,,,,,,
1577421141.658248,71.000000,0.000000,4175.897461,4256.922852,4119.487305,4116.410156,4169.230957,450.000000,4.000000,,,,0.000000,4.000000,4.000000,4.000000,4.000000,4.000000,,,,,,,,,,,,,,,,,,,,,,,,,
1577421141.666044,72.000000,0.000000,4198.974121,4278.461426,4138.974121,4137.948730,4191.282227,450.000000,4.000000,,,,0.000000,4.000000,4.000000,4.000000,4.000000,4.000000,,,,,,,,,,,,,,,,,,,,,,,,,
1577421141.673740,73.000000,0.000000,4228.717773,4304.102539,4171.282227,4171.794922,4228.205078,16164.000000,4.000000,,,,0.000000,4.000000,4.000000,4.000000,4.000000,4.000000,3.925992,8.784894,6.270068,3.582190,2.888180,2.823230,2.396343,1.692224,2.685899,1.932272,6.138015,4.037905,4.077701,2.752036,2.240860,1.425229,4.738785,5.199080,3.260403,2.360433,3.998618,8.529623,6.056304,2.485784,2.716816
1577421141.681536,74.000000,0.000000,4213.846191,4301.025879,4163.077148,4149.743652,4212.307617,450.000000,4.000000,,,,0.000000,4.000000,4.000000,4.000000,4.000000,4.000000,,,,,,,,,,,,,,,,,,,,,,,,,
1577421141.689233,75.000000,0.000000,4209.743652,4297.436035,4160.000000,4142.051270,4198.461426,16217.000000,4.000000,,,,0.000000,4.000000,4.000000,4.000000,4.000000,4.000000,,,,,,,,,,,,,,,,,,,,,,,,,
1577421141.697029,76.000000,0.000000,4222.563965,4304.615234,4176.922852,4154.871582,4206.666504,450.000000,4.000000,,,,0.000000,4.000000,4.000000,4.000000,4.000000,4.000000,,,,,,,,,,,,,,,,,,,,,,,,,
1577421141.704726,77.000000,0.000000,4221.025879,4308.205078,4181.025879,4149.743652,4208.205078,450.000000,4.000000,,,,0.000000,4.000000,4.000000,4.000000,4.000000,4.000000,,,,,,,,,,,,,,,,,,,,,,,,,
1577421141.712522,78.000000,0.000000,4220.000000,4304.615234,4174.358887,4154.871582,4208.205078,450.000000,4.000000,,,,0.000000,4.000000,4.000000,4.000000,4.000000,4.000000,,,,,,,,,,,,,,,,,,,,,,,,,
1577421141.720218,79.000000,0.000000,4211.794922,4302.563965,4166.153809,4162.051270,4192.307617,16217.000000,4.000000,,,,0.000000,4.000000,4.000000,4.000000,4.000000,4.000000,,,,,,,,,,,,,,,,,,,,,,,,,
1577421141.728015,80.000000,0.000000,4202.563965,4305.128418,4166.666504,4147.179688,4182.563965,450.000000,4.000000,,,,0.000000,4.000000,4.000000,4.000000,4.000000,4.000000,,,,,,,,,,,,,,,,,,,,,,,,,
1577421141.735711,81.000000,0.000000,4225.641113,4313.333496,4185.128418,4153.333496,4215.897461,450.000000,4.000000,,,,0.000000,4.000000,4.000000,4.000000,4.000000,4.000000,,,,,,,,,,,,,,,,,,,,,,,,,
1577421141.743507,82.000000,0.000000,4249.743652,4317.436035,4197.948730,4188.717773,4247.179688,450.000000,4.000000,,,,0.000000,4.000000,4.000000,4.000000,4.000000,4.000000,,,,,,,,,,,,,,,,,,,,,,,,,
1577421141.751204,83.000000,0.000000,4248.717773,4315.384766,4191.794922,4184.102539,4244.615234,16217.000000,4.000000,,,,0.000000,4.000000,4.000000,4.000000,4.000000,4.000000,,,,,,,,,,,,,,,,,,,,,,,,,
1577421141.759000,84.000000,0.000000,4238.974121,4302.051270,4178.974121,4155.384766,4226.153809,450.000000,4.000000,,,,0.000000,4.000000,4.000000,4.000000,4.000000,4.000000,,,,,,,,,,,,,,,,,,,,,,,,,
1577421141.766696,85.000000,0.000000,4235.897461,4298.461426,4173.333496,4154.871582,4220.512695,450.000000,4.000000,,,,0.000000,4.000000,4.000000,4.000000,4.000000,4.000000,,,,,,,,,,,,,,,,,,,,,,,,,
1577421141.774393,86.000000,0.000000,4247.179688,4326.666504,4187.692383,4178.461426,4236.922852,450.000000,4.000000,,,,0.000000,4.000000,4.000000,4.000000,4.000000,4.000000,,,,,,,,,,,,,,,,,,,,,,,,,
1577421141.782189,87.000000,0.000000,4253.846191,4332.820313,4201.538574,4187.179688,4241.025879,16217.000000,4.000000,,,,0.000000,4.000000,4.000000,4.000000,4.000000,4.000000,,,,,,,,,,,,,,,,,,,,,,,,,
1577421141.789885,88.000000,0.000000,4233.846191,4303.077148,4183.077148,4157.436035,4215.384766,450.000000,4.000000,,,,0.000000,4.000000,4.000000,4.000000,4.000000,4.000000,,,,,,,,,,,,,,,,,,,,,,,,,
1577421141.797682,89.000000,0.000000,4216.922852,4296.410156,4163.077148,4136.410156,4199.487305,450.000000,4.000000,,,,0.000000,4.000000,4.000000,4.000000,4.000000,4.000000,4.561420,10.310019,7.871779,3.673656,5.181676,2.976730,3.022089,2.412336,2.685058,3.664349,6.892145,5.338455,5.098429,2.445940,4.169271,1.684521,6.125739,5.167375,2.738547,4.113155,4.604865,9.951514,7.376959,2.539448,4.448975
1577421141.805378,90.000000,0.000000,4230.769043,4320.512695,4176.922852,4150.769043,4218.974121,450.000000,4.000000,,,,0.000000,4.000000,4.000000,4.000000,4.000000,4.000000,,,,,,,,,,,,,,,,,,,,,,,,,
1577421141.813174,91.000000,0.000000,4238.974121,4330.256348,4188.717773,4162.563965,4226.153809,16217.000000,4.000000,,,,0.000000,4.000000,4.000000,4.000000,4.000000,4.000000,,,,,,,,,,,,,,,,,,,,,,,,,
1577421141.820871,92.000000,0.000000,4217.948730,4321.538574,4175.384766,4133.333496,4201.538574,450.000000,4.000000,,,,0.000000,4.000000,4.000000,4.000000,4.000000,4.000000,,,,,,,,,,,,,,,,,,,,,,,,,
1577421141.828667,93.000000,0.000000,4223.077148,4328.717773,4186.666504,4132.307617,4210.256348,450.000000,4.000000,,,,0.000000,4.000000,4.000000,4.000000,4.000000,4.000000,,,,,,,,,,,,,,,,,,,,,,,,,
1577421141.836363,94.000000,0.000000,4257.948730,4342.563965,4217.948730,4182.563965,4243.077148,450.000000,4.000000,,,,0.000000,4.000000,4.000000,4.000000,4.000000,4.000000,,,,,,,,,,,,,,,,,,,,,,,,,
1577421141.844160,95.000000,0.000000,4260.000000,4332.820313,4212.307617,4190.256348,4239.487305,16217.000000,4.000000,,,,0.000000,4.000000,4.000000,4.000000,4.000000,4.000000,,,,,,,,,,,,,,,,,,,,,,,,,
1577421141.851856,96.000000,0.000000,4250.256348,4323.589844,4200.000000,4161.025879,4233.846191,450.000000,4.000000,,,,0.000000,4.000000,4.000000,4.000000,4.000000,4.000000,,,,,,,,,,,,,,,,,,,,,,,,,
1577421141.859652,97.000000,0.000000,4259.487305,4329.743652,4204.102539,4161.538574,4240.000000,450.000000,4.000000,,,,0.000000,4.000000,4.000000,4.000000,4.000000,4.000000,,,,,,,,,,,,,,,,,,,,,,,,,
1577421141.867349,98.000000,0.000000,4273.846191,4332.820313,4208.717773,4197.948730,4249.743652,450.000000,4.000000,,,,0.000000,4.000000,4.000000,4.000000,4.000000,4.000000,,,,,,,,,,,,,,,,,,,,,,,,,
1577421141.875145,99.000000,0.000000,4302.563965,4341.025879,4227.179688,4221.538574,4281.538574,16217.000000,4.000000,,,,0.000000,4.000000,4.000000,4.000000,4.000000,4.000000,,,,,,,,,,,,,,,,,,,,,,,,,
1577421141.882841,100.000000,0.000000,4311.794922,4345.128418,4234.871582,4197.948730,4293.333496,450.000000,4.000000,,,,0.000000,4.000000,4.000000,4.000000,4.000000,4.000000,,,,,,,,,,,,,,,,,,,,,,,,,
1577421141.890538,101.000000,0.000000,4283.589844,4333.846191,4211.282227,4180.000000,4269.230957,450.000000,4.000000,,,,0.000000,4.000000,4.000000,4.000000,4.000000,4.000000,,,,,,,,,,,,,,,,,,,,,,,,,
1577421141.898334,102.000000,0.000000,4258.974121,4319.487305,4187.179688,4189.743652,4242.563965,450.000000,4.000000,,,,0.000000,4.000000,4.000000,4.000000,4.000000,4.000000,,,,,,,,,,,,,,,,,,,,,,,,,
1577421141.906130,103.000000,0.000000,4250.769043,4304.615234,4169.743652,4171.794922,4225.641113,16217.000000,4.000000,,,,0.000000,4.000000,4.000000,4.000000,4.000000,4.000000,,,,,,,,,,,,,,,,,,,,,,,,,
1577421141.913827,104.000000,0.000000,4246.666504,4302.563965,4160.000000,4140.000000,4221.538574,450.000000,4.000000,,,,0.000000,4.000000,4.000000,4.000000,4.000000,4.000000,,,,,,,,,,,,,,,,,,,,,,,,,
1577421141.921523,105.000000,0.000000,4232.307617,4299.487305,4149.230957,4129.743652,4212.307617,450.000000,4.000000,,,,0.000000,4.000000,4.000000,4.000000,4.000000,4.000000,5.595041,10.970034,10.440811,3.816548,9.885654,3.588494,3.587257,3.610523,2.816818,7.089062,8.033257,6.423063,6.682663,2.257343,8.104302,1.979486,7.366984,5.263305,2.337115,7.566131,5.277895,10.623474,8.882147,2.556122,7.962282
1577421141.929319,106.000000,0.000000,4223.589844,4292.307617,4140.512695,4134.358887,4198.974121,450.000000,4.000000,,,,0.000000,4.000000,4.000000,4.000000,4.000000,4.000000,,,,,,,,,,,,,,,,,,,,,,,,,
1577421141.937016,107.000000,0.000000,4237.948730,4304.102539,4152.820313,4150.769043,4204.615234,16217.000000,4.000000,,,,0.000000,4.000000,4.000000,4.000000,4.000000,4.000000,,,,,,,,,,,,,,,,,,,,,,,,,
1577421141.944812,108.000000,0.000000,4242.051270,4314.871582,4163.589844,4166.666504,4212.307617,450.000000,4.000000,,,,0.000000,4.000000,4.000000,4.000000,4.000000,4.000000,,,,,,,,,,,,,,,,,,,,,,,,,
1577421141.952508,109.000000,0.000000,4239.487305,4312.820313,4165.128418,4149.743652,4212.820313,450.000000,4.000000,,,,0.000000,4.000000,4.000000,4.000000,4.000000,4.000000,,,,,,,,,,,,,,,,,,,,,,,,,
1577421141.960305,110.000000,0.000000,4256.410156,4323.077148,4176.410156,4131.282227,4219.487305,450.000000,4.000000,,,,0.000000,4.000000,4.000000,4.000000,4.000000,4.000000,,,,,,,,,,,,,,,,,,,,,,,,,
1577421141.968001,111.000000,0.000000,4276.410156,4328.205078,4195.897461,4174.871582,4234.358887,16217.000000,4.000000,,,,0.000000,4.000000,4.000000,4.000000,4.000000,4.000000,,,,,,,,,,,,,,,,,,,,,,,,,
1577421141.975797,112.000000,0.000000,4281.025879,4311.794922,4206.666504,4211.282227,4244.102539,450.000000,4.000000,,,,0.000000,4.000000,4.000000,4.000000,4.000000,4.000000,,,,,,,,,,,,,,,,,,,,,,,,,
1577421141.983494,113.000000,0.000000,4277.436035,4308.205078,4206.153809,4177.948730,4243.077148,450.000000,4.000000,,,,0.000000,4.000000,4.000000,4.000000,4.000000,4.000000,,,,,,,,,,,,,,,,,,,,,,,,,
1577421141.991290,114.000000,0.000000,4274.358887,4319.487305,4202.051270,4157.436035,4244.615234,450.000000,4.000000,,,,0.000000,4.000000,4.000000,4.000000,4.000000,4.000000,,,,,,,,,,,,,,,,,,,,,,,,,
1577421141.998987,115.000000,0.000000,4269.743652,4309.230957,4198.461426,4182.051270,4246.666504,16217.000000,4.000000,,,,0.000000,4.000000,4.000000,4.000000,4.000000,4.000000,,,,,,,,,,,,,,,,,,,,,,,,,
1577421142.006783,116.000000,0.000000,4261.538574,4297.436035,4194.871582,4178.461426,4240.000000,450.000000,4.000000,,,,0.000000,4.000000,4.000000,4.000000,4.000000,4.000000,,,,,,,,,,,,,,,,,,,,,,,,,
1577421142.014479,117.000000,0.000000,4255.384766,4301.025879,4187.692383,4142.051270,4229.230957,450.000000,4.000000,,,,0.000000,4.000000,4.000000,4.000000,4.000000,4.000000,,,,,,,,,,,,,,,,,,,,,,,,,
1577421142.022275,118.000000,0.000000,4248.717773,4294.358887,4172.307617,4143.077148,4223.077148,450.000000,4.000000,,,,0.000000,4.000000,4.000000,4.000000,4.000000,4.000000,,,,,,,,,,,,,,,,,,,,,,,,,
1577421142.029972,119.000000,0.000000,4244.102539,4289.743652,4162.563965,4166.153809,4224.102539,16217.000000,4.000000,,,,0.000000,4.000000,4.000000,4.000000,4.000000,4.000000,,,,,,,,,,,,,,,,,,,,,,,,,
1577421142.037768,120.000000,0.000000,4236.922852,4283.589844,4156.410156,4153.333496,4218.461426,450.000000,4.000000,,,,0.000000,4.000000,4.000000,4.000000,4.000000,4.000000,,,,,,,,,,,,,,,,,,,,,,,,,
1577421142.045465,121.000000,0.000000,4214.871582,4254.871582,4136.922852,4119.487305,4201.538574,450.000000,4.000000,,,,0.000000,4.000000,4.000000,4.000000,4.000000,4.000000,6.927649,10.777046,13.603590,4.069240,16.805809,4.727917,3.962405,5.149315,3.112183,12.053453,9.259790,6.985476,8.606582,2.289881,13.867293,2.265001,8.203812,5.414728,2.074612,12.516028,6.016768,10.426470,10.318565,2.533617,13.125273
1577421142.053261,122.000000,0.000000,4209.230957,4254.871582,4131.794922,4131.794922,4198.974121,450.000000,4.000000,,,,0.000000,4.000000,4.000000,4.000000,4.000000,4.000000,,,,,,,,,,,,,,,,,,,,,,,,,
1577421142.060957,123.000000,0.000000,4235.384766,4285.641113,4153.333496,4157.948730,4215.897461,16217.000000,4.000000,,,,0.000000,4.000000,4.000000,4.000000,4.000000,4.000000,,,,,,,,,,,,,,,,,,,,,,,,,
1577421142.068654,124.000000,0.000000,4238.461426,4280.512695,4151.282227,4128.717773,4218.974121,450.000000,4.000000,,,,0.000000,4.000000,4.000000,4.000000,4.000000,4.000000,,,,,,,,,,,,,,,,,,,,,,,,,
1577421142.076450,125.000000,0.000000,4206.666504,4247.179688,4125.641113,4107.692383,4196.410156,450.000000,4.000000,,,,0.000000,4.000000,4.000000,4.000000,4.000000,4.000000,,,,,,,,,,,,,,,,,,,,,,,,,
1577421142.084146,126.000000,0.000000,4205.128418,4247.692383,4129.743652,4145.128418,4194.358887,450.000000,4.000000,,,,0.000000,4.000000,4.000000,4.000000,4.000000,4.000000,,,,,,,,,,,,,,,,,,,,,,,,,
1577421142.091843,127.000000,0.000000,4235.897461,4278.974121,4149.743652,4161.025879,4217.948730,235.000000,4.000000,,,,0.000000,4.000000,4.000000,4.000000,4.000000,4.000000,,,,,,,,,,,,,,,,,,,,,,,,,
1577421142.099639,0.000000,0.000000,4235.897461,4278.974121,4138.974121,4128.205078,4211.282227,450.000000,4.000000,,,,0.000000,4.000000,4.000000,4.000000,4.000000,4.000000,,,,,,,,,,,,,,,,,,,,,,,,,
1577421142.107336,1.000000,0.000000,4217.948730,4250.256348,4127.179688,4130.769043,4193.846191,450.000000,4.000000,,,,0.000000,4.000000,4.000000,4.000000,4.000000,4.000000,,,,,,,,,,,,,,,,,,,,,,,,,
1577421142.115133,2.000000,0.000000,4226.153809,4250.769043,4140.512695,4161.025879,4199.487305,16213.000000,4.000000,,,,0.000000,4.000000,4.000000,4.000000,4.000000,4.000000,,,,,,,,,,,,,,,,,,,,,,,,,
1577421142.122929,3.000000,0.000000,4229.230957,4269.743652,4135.384766,4137.436035,4192.820313,450.000000,4.000000,,,,0.000000,4.000000,4.000000,4.000000,4.000000,4.000000,,,,,,,,,,,,,,,,,,,,,,,,,
1577421142.130626,4.000000,0.000000,4208.717773,4271.282227,4114.358887,4108.205078,4176.922852,16194.000000,4.000000,,,,0.000000,4.000000,4.000000,4.000000,4.000000,4.000000,,,,,,,,,,,,,,,,,,,,,,,,,
1577421142.138422,5.000000,0.000000,4202.563965,4265.641113,4118.974121,4123.077148,4181.025879,450.000000,4.000000,,,,0.000000,4.000000,4.000000,4.000000,4.000000,4.000000,,,,,,,,,,,,,,,,,,,,,,,,,
1577421142.146118,6.000000,0.000000,4216.922852,4269.230957,4135.384766,4144.615234,4190.256348,16164.000000,4.000000,,,,0.000000,4.000000,4.000000,4.000000,4.000000,4.000000,,,,,,,,,,,,,,,,,,,,,,,,,
1577421142.153815,7.000000,0.000000,4229.743652,4281.025879,4140.512695,4153.333496,4194.358887,450.000000,4.000000,,,,0.000000,4.000000,4.000000,4.000000,4.000000,4.000000,,,,,,,,,,,,,,,,,,,,,,,,,
1577421142.161611,8.000000,0.000000,4221.025879,4284.615234,4133.846191,4154.358887,4186.666504,450.000000,4.000000,,,,0.000000,4.000000,4.000000,4.000000,4.000000,4.000000,,,,,,,,,,,,,,,,,,,,,,,,,
1577421142.169308,9.000000,0.000000,4202.051270,4268.717773,4123.077148,4145.128418,4168.205078,16178.000000,4.000000,,,,0.000000,4.000000,4.000000,4.000000,4.000000,4.000000,8.397635,10.160677,16.515333,4.417573,24.444479,6.449846,4.113966,6.664367,3.491529,17.499805,10.721296,7.053218,10.371326,2.533350,20.202248,2.615739,8.652349,5.494535,1.965195,17.913225,6.843750,9.708700,11.329412,2.502273,18.840574
1577421142.177105,10.000000,0.000000,4190.769043,4255.384766,4115.384766,4122.563965,4156.922852,450.000000,4.000000,,,,0.000000,4.000000,4.000000,4.000000,4.000000,4.000000,,,,,,,,,,,,,,,,,,,,,,,,,
1577421142.184801,11.000000,0.000000,4183.589844,4255.897461,4106.153809,4102.051270,4154.871582,16220.000000,4.000000,,,,0.000000,4.000000,4.000000,4.000000,4.000000,4.000000,,,,,,,,,,,,,,,,,,,,,,,,,
1577421142.192498,12.000000,0.000000,4188.205078,4260.000000,4108.205078,4113.846191,4161.538574,450.000000,4.000000,,,,0.000000,4.000000,4.000000,4.000000,4.000000,4.000000,,,,,,,,,,,,,,,,,,,,,,,,,
1577421142.200294,13.000000,0.000000,4194.358887,4259.487305,4115.897461,4141.025879,4166.666504,450.000000,4.000000,,,,0.000000,4.000000,4.000000,4.000000,4.000000,4.000000,,,,,,,,,,,,,,,,,,,,,,,,,
1577421142.208091,14.000000,0.000000,4178.461426,4248.717773,4105.641113,4129.743652,4154.871582,450.000000,4.000000,,,,0.000000,4.000000,4.000000,4.000000,4.000000,4.000000,,,,,,,,,,,,,,,,,,,,,,,,,
1577421142.215787,15.000000,0.000000,4173.846191,4250.256348,4104.102539,4109.743652,4152.820313,16220.000000,4.000000,,,,0.000000,4.000000,4.000000,4.000000,4.000000,4.000000,,,,,,,,,,,,,,,,,,,,,,,,,
1577421142.223583,16.000000,0.000000,4204.102539,4277.948730,4134.358887,4131.282227,4178.974121,0.000000,4.000000,,,,0.000000,4.000000,4.000000,4.000000,4.000000,4.000000,,,,,,,,,,,,,,,,,,,,,,,,,
1577421142.231280,17.000000,0.000000,4224.615234,4294.871582,4156.922852,4146.153809,4201.538574,0.000000,4.000000,,,,0.000000,4.000000,4.000000,4.000000,4.000000,4.000000,,,,,,,,,,,,,,,,,,,,,,,,,
1577421142.239076,18.000000,0.000000,4222.563965,4282.563965,4156.922852,4141.025879,4205.128418,0.000000,4.000000,,,,0.000000,4.000000,4.000000,4.000000,4.000000,4.000000,,,,,,,,,,,,,,,,,,,,,,,,,
1577421142.246772,19.000000,0.000000,4237.948730,4278.461426,4162.563965,4168.717773,4222.051270,0.000000,4.000000,,,,0.000000,4.000000,4.000000,4.000000,4.000000,4.000000,,,,,,,,,,,,,,,,,,,,,,,,,
1577421142.254569,20.000000,0.000000,4257.948730,4294.871582,4170.256348,4200.512695,4232.820313,0.000000,4.000000,,,,0.000000,4.000000,4.000000,4.000000,4.000000,4.000000,,,,,,,,,,,,,,,,,,,,,,,,,
1577421142.262265,21.000000,0.000000,4240.512695,4289.230957,4151.794922,4167.179688,4206.153809,0.000000,4.000000,,,,0.000000,4.000000,4.000000,4.000000,4.000000,4.000000,,,,,,,,,,,,,,,,,,,,,,,,,
1577421142.270061,22.000000,0.000000,4216.922852,4270.769043,4127.179688,4123.589844,4186.153809,0.000000,4.000000,,,,0.000000,4.000000,4.000000,4.000000,4.000000,4.000000,,,,,,,,,,,,,,,,,,,,,,,,,
1577421142.277758,23.000000,0.000000,4213.846191,4269.743652,4117.436035,4125.128418,4186.666504,0.000000,4.000000,,,,0.000000,4.000000,4.000000,4.000000,4.000000,4.000000,,,,,,,,,,,,,,,,,,,,,,,,,
1577421142.285554,24.000000,0.000000,4205.128418,4265.641113,4110.256348,4135.897461,4177.436035,0.000000,4.000000,,,,0.000000,4.000000,4.000000,4.000000,4.000000,4.000000,,,,,,,,,,,,,,,,,,,,,,,,,
1577421142.293250,25.000000,0.000000,4206.666504,4260.512695,4112.307617,4136.410156,4181.538574,0.000000,4.000000,,,,0.000000,4.000000,4.000000,4.000000,4.000000,4.000000,9.813622,9.642076,18.124838,4.724366,30.487053,8.481551,4.042496,7.689806,3.790387,21.800392,12.445395,6.859768,11.348780,2.854097,25.185347,3.078079,8.849699,5.322145,1.957017,22.202662,7.648206,8.986303,11.514237,2.472091,23.387867
1577421142.301047,26.000000,0.000000,4211.282227,4253.333496,4108.717773,4115.897461,4186.153809,0.000000,4.000000,,,,0.000000,4.000000,4.000000,4.000000,4.000000,4.000000,,,,,,,,,,,,,,,,,,,,,,,,,
1577421142.308743,27.000000,0.000000,4189.743652,4240.512695,4091.794922,4105.128418,4166.666504,0.000000,4.000000,,,,0.000000,4.000000,4.000000,4.000000,4.000000,4.000000,,,,,,,,,,,,,,,,,,,,,,,,,
1577421142.316539,28.000000,0.000000,4186.153809,4248.717773,4096.922852,4139.487305,4165.128418,0.000000,4.000000,,,,0.000000,4.000000,4.000000,4.000000,4.000000,4.000000,,,,,,,,,,,,,,,,,,,,,,,,,
1577421142.324236,29.000000,0.000000,4201.025879,4262.563965,4103.589844,4143.589844,4180.512695,0.000000,4.000000,,,,0.000000,4.000000,4.000000,4.000000,4.000000,4.000000,,,,,,,,,,,,,,,,,,,,,,,,,
1577421142.331932,30.000000,0.000000,4171.282227,4242.051270,4076.923096,4084.615479,4157.948730,0.000000,4.000000,,,,0.000000,4.000000,4.000000,4.000000,4.000000,4.000000,,,,,,,,,,,,,,,,,,,,,,,,,
1577421142.339729,31.000000,0.000000,4152.307617,4228.717773,4070.769287,4074.871826,4143.077148,0.000000,4.000000,,,,0.000000,4.000000,4.000000,4.000000,4.000000,4.000000,,,,,,,,,,,,,,,,,,,,,,,,,
1577421142.347426,32.000000,0.000000,4221.538574,4265.641113,4125.641113,4146.666504,4208.205078,0.000000,4.000000,,,,0.000000,4.000000,4.000000,4.000000,4.000000,4.000000,,,,,,,,,,,,,,,,,,,,,,,,,
1577421142.355222,33.000000,0.000000,4301.025879,4296.922852,4161.538574,4173.333496,4265.128418,0.000000,4.000000,,,,0.000000,4.000000,4.000000,4.000000,4.000000,4.000000,,,,,,,,,,,,,,,,,,,,,,,,,
1577421142.362919,34.000000,0.000000,4338.974121,4291.282227,4151.282227,4146.666504,4268.717773,0.000000,4.000000,,,,0.000000,4.000000,4.000000,4.000000,4.000000,4.000000,,,,,,,,,,,,,,,,,,,,,,,,,
1577421142.370715,35.000000,0.000000,4421.538574,4296.922852,4170.256348,4172.307617,4322.051270,0.000000,4.000000,,,,0.000000,4.000000,4.000000,4.000000,4.000000,4.000000,,,,,,,,,,,,,,,,,,,,,,,,,
1577421142.378412,36.000000,0.000000,4533.333496,4316.922852,4198.461426,4206.153809,4398.461426,0.000000,4.000000,,,,0.000000,4.000000,4.000000,4.000000,4.000000,4.000000,,,,,,,,,,,,,,,,,,,,,,,,,
1577421142.386208,37.000000,0.000000,4581.025879,4302.563965,4168.205078,4151.282227,4412.820313,0.000000,4.000000,,,,0.000000,4.000000,4.000000,4.000000,4.000000,4.000000,,,,,,,,,,,,,,,,,,,,,,,,,
1577421142.393905,38.000000,0.000000,4579.487305,4271.794922,4129.743652,4090.769287,4401.538574,0.000000,4.000000,,,,0.000000,4.000000,4.000000,4.000000,4.000000,4.000000,,,,,,,,,,,,,,,,,,,,,,,,,
1577421142.401701,39.000000,0.000000,4587.692383,4280.000000,4144.102539,4124.102539,4412.820313,0.000000,4.000000,,,,0.000000,4.000000,4.000000,4.000000,4.000000,4.000000,,,,,,,,,,,,,,,,,,,,,,,,,
1577421142.409397,40.000000,0.000000,4596.410156,4307.692383,4177.436035,4175.384766,4431.794922,0.000000,4.000000,,,,0.000000,4.000000,4.000000,4.000000,4.000000,4.000000,,,,,,,,,,,,,,,,,,,,,,,,,
1577421142.417194,41.000000,0.000000,4594.358887,4319.487305,4195.897461,4172.820313,4436.410156,0.000000,4.000000,,,,0.000000,4.000000,4.000000,4.000000,4.000000,4.000000,10.868337,9.566876,17.738241,4.806969,32.832558,10.400990,3.763469,7.863699,3.835046,23.480007,14.591372,6.688508,11.102281,3.072741,27.081608,3.811158,8.975874,4.781984,1.983429,23.995420,8.413851,8.714944,10.669865,2.432182,25.184872
1577421142.424890,42.000000,0.000000,4581.025879,4324.102539,4207.692383,4169.743652,4429.743652,0.000000,4.000000,,,,0.000000,4.000000,4.000000,4.000000,4.000000,4.000000,,,,,,,,,,,,,,,,,,,,,,,,,
1577421142.432686,43.000000,0.000000,4554.871582,4336.922852,4222.563965,4189.743652,4419.487305,0.000000,4.000000,,,,0.000000,4.000000,4.000000,4.000000,4.000000,4.000000,,,,,,,,,,,,,,,,,,,,,,,,,
1577421142.440383,44.000000,0.000000,4518.461426,4340.512695,4233.846191,4187.692383,4397.436035,0.000000,4.000000,,,,0.000000,4.000000,4.000000,4.000000,4.000000,4.000000,,,,,,,,,,,,,,,,,,,,,,,,,
1577421142.448079,45.000000,0.000000,4465.641113,4316.410156,4216.410156,4154.358887,4354.358887,0.000000,4.000000,,,,0.000000,4.000000,4.000000,4.000000,4.000000,4.000000,,,,,,,,,,,,,,,,,,,,,,,,,
1577421142.455876,46.000000,0.000000,4407.692383,4300.000000,4192.820313,4138.974121,4312.820313,0.000000,4.000000,,,,0.000000,4.000000,4.000000,4.000000,4.000000,4.000000,,,,,,,,,,,,,,,,,,,,,,,,,
1577421142.463672,47.000000,0.000000,4367.179688,4314.358887,4188.717773,4150.769043,4286.666504,0.000000,4.000000,,,,0.000000,4.000000,4.000000,4.000000,4.000000,4.000000,,,,,,,,,,,,,,,,,,,,,,,,,
1577421142.471369,48.000000,0.000000,4346.666504,4334.871582,4198.974121,4163.589844,4273.846191,0.000000,4.000000,,,,0.000000,4.000000,4.000000,4.000000,4.000000,4.000000,,,,,,,,,,,,,,,,,,,,,,,,,
1577421142.479065,49.000000,0.000000,4330.769043,4344.615234,4203.589844,4164.615234,4264.102539,0.000000,4.000000,,,,0.000000,4.000000,4.000000,4.000000,4.000000,4.000000,,,,,,,,,,,,,,,,,,,,,,,,,
1577421142.486862,50.000000,0.000000,4313.333496,4351.282227,4198.461426,4148.205078,4254.871582,0.000000,4.000000,,,,0.000000,4.000000,4.000000,4.000000,4.000000,4.000000,,,,,,,,,,,,,,,,,,,,,,,,,
1577421142.494559,51.000000,0.000000,4296.410156,4353.846191,4195.384766,4140.512695,4243.589844,0.000000,4.000000,,,,0.000000,4.000000,4.000000,4.000000,4.000000,4.000000,,,,,,,,,,,,,,,,,,,,,,,,,
1577421142.502355,52.000000,0.000000,4269.230957,4346.153809,4190.256348,4145.128418,4225.128418,0.000000,4.000000,,,,0.000000,4.000000,4.000000,4.000000,4.000000,4.000000,,,,,,,,,,,,,,,,,,,,,,,,,
1577421142.510052,53.000000,0.000000,4247.692383,4343.077148,4183.589844,4138.461426,4214.358887,0.000000,4.000000,,,,0.000000,4.000000,4.000000,4.000000,4.000000,4.000000,,,,,,,,,,,,,,,,,,,,,,,,,
1577421142.517848,54.000000,0.000000,4239.487305,4347.692383,4181.538574,4129.743652,4207.692383,0.000000,4.000000,,,,0.000000,4.000000,4.000000,4.000000,4.000000,4.000000,,,,,,,,,,,,,,,,,,,,,,,,,
1577421142.525545,55.000000,0.000000,4228.205078,4351.282227,4175.897461,4121.025879,4191.282227,0.000000,4.000000,,,,0.000000,4.000000,4.000000,4.000000,4.000000,4.000000,,,,,,,,,,,,,,,,,,,,,,,,,
1577421142.533341,56.000000,0.000000,4222.051270,4355.897461,4172.820313,4133.846191,4183.589844,0.000000,4.000000,,,,0.000000,4.000000,4.000000,4.000000,4.000000,4.000000,,,,,,,,,,,,,,,,,,,,,,,,,
1577421142.541038,57.000000,0.000000,4248.205078,4365.128418,4197.436035,4163.077148,4210.256348,0.000000,4.000000,,,,0.000000,4.000000,4.000000,4.000000,4.000000,4.000000,12.467263,9.972337,15.451224,4.551168,30.600328,11.720255,3.357452,7.126283,3.541504,21.922567,17.028553,6.787968,9.662472,3.066605,25.177683,4.854299,9.156895,3.928033,2.015255,22.724030,9.497966,9.025898,8.981703,2.355846,23.543966
1577421142.548835,58.000000,0.000000,4285.641113,4380.000000,4222.563965,4183.589844,4252.307617,0.000000,4.000000,,,,0.000000,4.000000,4.000000,4.000000,4.000000,4.000000,,,,,,,,,,,,,,,,,,,,,,,,,
1577421142.556531,59.000000,0.000000,4286.153809,4376.410156,4207.179688,4184.102539,4253.846191,0.000000,4.000000,,,,0.000000,4.000000,4.000000,4.000000,4.000000,4.000000,,,,,,,,,,,,,,,,,,,,,,,,,
1577421142.564328,60.000000,0.000000,4266.153809,4356.922852,4183.589844,4183.077148,4234.358887,0.000000,4.000000,,,,0.000000,4.000000,4.000000,4.000000,4.000000,4.000000,,,,,,,,,,,,,,,,,,,,,,,,,
1577421142.572024,61.000000,0.000000,4271.794922,4358.461426,4182.563965,4173.333496,4245.641113,0.000000,4.000000,,,,0.000000,4.000000,4.000000,4.000000,4.000000,4.000000,,,,,,,,,,,,,,,,,,,,,,,,,
1577421142.579820,62.000000,0.000000,4269.743652,4354.871582,4170.769043,4135.897461,4240.512695,0.000000,4.000000,,,,0.000000,4.000000,4.000000,4.000000,4.000000,4.000000,,,,,,,,,,,,,,,,,,,,,,,,,
1577421142.587517,63.000000,0.000000,4247.692383,4332.307617,4151.282227,4139.487305,4220.512695,0.000000,4.000000,,,,0.000000,4.000000,4.000000,4.000000,4.000000,4.000000,,,,,,,,,,,,,,,,,,,,,,,,,
1577421142.595213,64.000000,0.000000,4245.128418,4338.974121,4156.922852,4173.846191,4229.230957,450.000000,4.000000,,,,0.000000,4.000000,4.000000,4.000000,4.000000,4.000000,,,,,,,,,,,,,,,,,,,,,,,,,
1577421142.603010,65.000000,0.000000,4243.077148,4352.820313,4156.410156,4152.820313,4229.743652,450.000000,4.000000,,,,0.000000,4.000000,4.000000,4.000000,4.000000,4.000000,,,,,,,,,,,,,,,,,,,,,,,,,
1577421142.610707,66.000000,0.000000,4240.000000,4349.743652,4155.897461,4140.512695,4225.641113,16209.000000,4.000000,,,,0.000000,4.000000,4.000000,4.000000,4.000000,4.000000,,,,,,,,,,,,,,,,,,,,,,,,,
1577421142.618503,67.000000,0.000000,4217.436035,4332.820313,4148.205078,4146.666504,4202.563965,450.000000,4.000000,,,,0.000000,4.000000,4.000000,4.000000,4.000000,4.000000,,,,,,,,,,,,,,,,,,,,,,,,,
1577421142.626200,68.000000,0.000000,4178.974121,4311.794922,4121.538574,4113.333496,4165.128418,16190.000000,4.000000,,,,0.000000,4.000000,4.000000,4.000000,4.000000,4.000000,,,,,,,,,,,,,,,,,,,,,,,,,
1577421142.633996,69.000000,0.000000,4218.974121,4344.615234,4162.563965,4145.641113,4206.666504,450.000000,4.000000,,,,0.000000,4.000000,4.000000,4.000000,4.000000,4.000000,,,,,,,,,,,,,,,,,,,,,,,,,
1577421142.641693,70.000000,0.000000,4277.948730,4387.179688,4221.538574,4219.487305,4268.717773,16156.000000,4.000000,,,,0.000000,4.000000,4.000000,4.000000,4.000000,4.000000,,,,,,,,,,,,,,,,,,,,,,,,,
1577421142.649489,71.000000,0.000000,4245.641113,4357.436035,4183.589844,4194.871582,4240.512695,450.000000,4.000000,,,,0.000000,4.000000,4.000000,4.000000,4.000000,4.000000,,,,,,,,,,,,,,,,,,,,,,,,,
1577421142.657286,72.000000,0.000000,4211.282227,4339.487305,4141.538574,4143.589844,4203.589844,450.000000,4.000000,,,,0.000000,4.000000,4.000000,4.000000,4.000000,4.000000,,,,,,,,,,,,,,,,,,,,,,,,,
1577421142.664982,73.000000,0.000000,4231.282227,4371.794922,4161.538574,4145.641113,4222.563965,16176.000000,4.000000,,,,0.000000,4.000000,4.000000,4.000000,4.000000,4.000000,21.127092,10.826905,12.096787,3.998061,24.572155,12.319888,2.950836,5.748791,2.958843,17.680695,19.706678,7.274466,7.558285,2.836710,20.142889,6.146770,9.382888,3.032954,2.095175,18.925888,13.550980,9.584521,6.954968,2.238740,19.022062
1577421142.672779,74.000000,0.000000,4228.717773,4365.128418,4158.974121,4158.461426,4223.077148,450.000000,4.000000,,,,0.000000,4.000000,4.000000,4.000000,4.000000,4.000000,,,,,,,,,,,,,,,,,,,,,,,,,
1577421142.680475,75.000000,0.000000,4205.128418,4335.384766,4131.794922,4148.717773,4196.922852,16211.000000,4.000000,,,,0.000000,4.000000,4.000000,4.000000,4.000000,4.000000,,,,,,,,,,,,,,,,,,,,,,,,,
1577421142.688271,76.000000,0.000000,4218.461426,4349.743652,4142.051270,4137.948730,4209.230957,450.000000,4.000000,,,,0.000000,4.000000,4.000000,4.000000,4.000000,4.000000,,,,,,,,,,,,,,,,,,,,,,,,,
1577421142.695968,77.000000,0.000000,4234.871582,4360.512695,4154.358887,4144.615234,4223.077148,450.000000,4.000000,,,,0.000000,4.000000,4.000000,4.000000,4.000000,4.000000,,,,,,,,,,,,,,,,,,,,,,,,,
1577421142.703764,78.000000,0.000000,4231.282227,4345.128418,4148.717773,4169.230957,4213.846191,450.000000,4.000000,,,,0.000000,4.000000,4.000000,4.000000,4.000000,4.000000,,,,,,,,,,,,,,,,,,,,,,,,,
1577421142.711460,79.000000,0.000000,4237.436035,4347.692383,4154.358887,4177.436035,4216.922852,16211.000000,4.000000,,,,0.000000,4.000000,4.000000,4.000000,4.000000,4.000000,,,,,,,,,,,,,,,,,,,,,,,,,
1577421142.719157,80.000000,0.000000,4236.410156,4345.641113,4149.230957,4148.205078,4209.743652,450.000000,4.000000,,,,0.000000,4.000000,4.000000,4.000000,4.000000,4.000000,,,,,,,,,,,,,,,,,,,,,,,,,
1577421142.726954,81.000000,0.000000,4231.282227,4335.897461,4137.436035,4140.512695,4203.589844,450.000000,4.000000,,,,0.000000,4.000000,4.000000,4.000000,4.000000,4.000000,,,,,,,,,,,,,,,,,,,,,,,,,
1577421142.734650,82.000000,0.000000,4250.769043,4347.692383,4152.307617,4158.461426,4231.282227,450.000000,4.000000,,,,0.000000,4.000000,4.000000,4.000000,4.000000,4.000000,,,,,,,,,,,,,,,,,,,,,,,,,
1577421142.742447,83.000000,0.000000,4258.461426,4344.615234,4163.077148,4166.153809,4238.461426,16211.000000,4.000000,,,,0.000000,4.000000,4.000000,4.000000,4.000000,4.000000,,,,,,,,,,,,,,,,,,,,,,,,,
1577421142.750143,84.000000,0.000000,4245.641113,4326.153809,4151.794922,4170.769043,4215.897461,450.000000,4.000000,,,,0.000000,4.000000,4.000000,4.000000,4.000000,4.000000,,,,,,,,,,,,,,,,,,,,,,,,,
1577421142.757940,85.000000,0.000000,4245.128418,4327.179688,4151.794922,4178.461426,4211.794922,450.000000,4.000000,,,,0.000000,4.000000,4.000000,4.000000,4.000000,4.000000,,,,,,,,,,,,,,,,,,,,,,,,,
1577421142.765636,86.000000,0.000000,4247.179688,4331.282227,4156.922852,4176.922852,4218.974121,450.000000,4.000000,,,,0.000000,4.000000,4.000000,4.000000,4.000000,4.000000,,,,,,,,,,,,,,,,,,,,,,,,,
1577421142.773433,87.000000,0.000000,4247.179688,4330.256348,4156.922852,4165.641113,4220.512695,16211.000000,4.000000,,,,0.000000,4.000000,4.000000,4.000000,4.000000,4.000000,,,,,,,,,,,,,,,,,,,,,,,,,
1577421142.781129,88.000000,0.000000,4237.948730,4324.615234,4154.871582,4150.256348,4215.384766,450.000000,4.000000,,,,0.000000,4.000000,4.000000,4.000000,4.000000,4.000000,,,,,,,,,,,,,,,,,,,,,,,,,
1577421142.788926,89.000000,0.000000,4215.897461,4318.461426,4152.307617,4147.179688,4204.102539,450.000000,4.000000,,,,0.000000,4.000000,4.000000,4.000000,4.000000,4.000000,47.103004,12.290916,8.850904,3.332371,16.808201,12.013943,2.633421,4.215901,2.264760,12.201951,22.216921,8.022581,5.552215,2.490900,13.699589,7.481668,9.536666,2.452165,2.317319,13.968209,24.410505,9.979713,5.187279,2.104218,13.148556
1577421142.796622,90.000000,0.000000,4216.410156,4336.922852,4164.102539,4165.128418,4201.538574,450.000000,4.000000,,,,0.000000,4.000000,4.000000,4.000000,4.000000,4.000000,,,,,,,,,,,,,,,,,,,,,,,,,
1577421142.804418,91.000000,0.000000,4215.384766,4336.410156,4172.307617,4165.641113,4189.743652,16211.000000,4.000000,,,,0.000000,4.000000,4.000000,4.000000,4.000000,4.000000,,,,,,,,,,,,,,,,,,,,,,,,,
1577421142.812115,92.000000,0.000000,4199.487305,4317.948730,4174.358887,4150.256348,4177.436035,450.000000,4.000000,,,,0.000000,4.000000,4.000000,4.000000,4.000000,4.000000,,,,,,,,,,,,,,,,,,,,,,,,,
1577421142.819911,93.000000,0.000000,4195.897461,4334.358887,4181.538574,4141.025879,4177.948730,450.000000,4.000000,,,,0.000000,4.000000,4.000000,4.000000,4.000000,4.000000,,,,,,,,,,,,,,,,,,,,,,,,,
1577421142.827607,94.000000,0.000000,4186.153809,4340.000000,4174.358887,4131.282227,4164.615234,450.000000,4.000000,,,,0.000000,4.000000,4.000000,4.000000,4.000000,4.000000,,,,,,,,,,,,,,,,,,,,,,,,,
1577421142.835404,95.000000,0.000000,4201.538574,4336.410156,4194.871582,4147.179688,4181.538574,16211.000000,4.000000,,,,0.000000,4.000000,4.000000,4.000000,4.000000,4.000000,,,,,,,,,,,,,,,,,,,,,,,,,
1577421142.843100,96.000000,0.000000,4213.333496,4333.333496,4204.615234,4150.769043,4195.897461,450.000000,4.000000,,,,0.000000,4.000000,4.000000,4.000000,4.000000,4.000000,,,,,,,,,,,,,,,,,,,,,,,,,
1577421142.850896,97.000000,0.000000,4263.077148,4383.077148,4244.615234,4205.128418,4247.179688,450.000000,4.000000,,,,0.000000,4.000000,4.000000,4.000000,4.000000,4.000000,,,,,,,,,,,,,,,,,,,,,,,,,
1577421142.858593,98.000000,0.000000,4316.410156,4414.358887,4287.692383,4229.230957,4272.820313,450.000000,4.000000,,,,0.000000,4.000000,4.000000,4.000000,4.000000,4.000000,,,,,,,,,,,,,,,,,,,,,,,,,
1577421142.866389,99.000000,0.000000,4115.897461,4231.282227,4094.871826,4095.897461,4121.538574,16211.000000,4.000000,,,,0.000000,4.000000,4.000000,4.000000,4.000000,4.000000,,,,,,,,,,,,,,,,,,,,,,,,,
1577421142.874085,100.000000,0.000000,4248.717773,4358.974121,4205.128418,4233.846191,4270.256348,450.000000,4.000000,,,,0.000000,4.000000,4.000000,4.000000,4.000000,4.000000,,,,,,,,,,,,,,,,,,,,,,,,,
1577421142.881782,101.000000,0.000000,4341.538574,4428.717773,4282.051270,4163.589844,4242.051270,450.000000,4.000000,,,,0.000000,4.000000,4.000000,4.000000,4.000000,4.000000,,,,,,,,,,,,,,,,,,,,,,,,,
1577421142.889579,102.000000,0.000000,4047.692383,4198.461426,4035.384521,4015.897461,4032.307617,450.000000,4.000000,,,,0.000000,4.000000,4.000000,4.000000,4.000000,4.000000,,,,,,,,,,,,,,,,,,,,,,,,,
1577421142.897275,103.000000,0.000000,4230.769043,4367.692383,4209.230957,4289.743652,4279.487305,16211.000000,4.000000,,,,0.000000,4.000000,4.000000,4.000000,4.000000,4.000000,,,,,,,,,,,,,,,,,,,,,,,,,
1577421142.905072,104.000000,0.000000,4271.794922,4366.153809,4225.128418,4167.692383,4231.282227,450.000000,4.000000,,,,0.000000,4.000000,4.000000,4.000000,4.000000,4.000000,,,,,,,,,,,,,,,,,,,,,,,,,
1577421142.912768,105.000000,0.000000,4123.077148,4257.436035,4105.128418,4068.205078,4125.641113,450.000000,4.000000,,,,0.000000,4.000000,4.000000,4.000000,4.000000,4.000000,96.984146,14.568750,6.654408,2.809128,9.673453,11.169444,2.476271,2.983910,1.689628,7.145942,23.970068,8.791842,4.274753,2.203096,7.810067,8.666111,9.521264,2.415785,2.777682,9.398927,44.861610,9.974983,4.096995,2.031624,7.710017
1577421142.920565,106.000000,0.000000,4205.641113,4351.282227,4191.794922,4190.769043,4202.051270,450.000000,4.000000,,,,0.000000,4.000000,4.000000,4.000000,4.000000,4.000000,,,,,,,,,,,,,,,,,,,,,,,,,
1577421142.928262,107.000000,0.000000,4174.358887,4308.717773,4143.589844,4125.128418,4126.666504,16211.000000,4.000000,,,,0.000000,4.000000,4.000000,4.000000,4.000000,4.000000,,,,,,,,,,,,,,,,,,,,,,,,,
1577421142.936058,108.000000,0.000000,4241.025879,4349.743652,4205.128418,4180.000000,4191.794922,450.000000,4.000000,,,,0.000000,4.000000,4.000000,4.000000,4.000000,4.000000,,,,,,,,,,,,,,,,,,,,,,,,,
1577421142.943755,109.000000,0.000000,4226.666504,4341.538574,4197.436035,4159.487305,4175.384766,450.000000,4.000000,,,,0.000000,4.000000,4.000000,4.000000,4.000000,4.000000,,,,,,,,,,,,,,,,,,,,,,,,,
1577421142.951551,110.000000,0.000000,4195.384766,4334.871582,4152.307617,4137.436035,4155.384766,450.000000,4.000000,,,,0.000000,4.000000,4.000000,4.000000,4.000000,4.000000,,,,,,,,,,,,,,,,,,,,,,,,,
1577421142.959248,111.000000,0.000000,4250.256348,4360.512695,4189.743652,4157.436035,4190.256348,16211.000000,4.000000,,,,0.000000,4.000000,4.000000,4.000000,4.000000,4.000000,,,,,,,,,,,,,,,,,,,,,,,,,
1577421142.967044,112.000000,0.000000,4230.769043,4313.333496,4160.512695,4124.615234,4163.589844,450.000000,4.000000,,,,0.000000,4.000000,4.000000,4.000000,4.000000,4.000000,,,,,,,,,,,,,,,,,,,,,,,,,
1577421142.974741,113.000000,0.000000,4233.333496,4320.000000,4145.128418,4121.538574,4154.358887,450.000000,4.000000,,,,0.000000,4.000000,4.000000,4.000000,4.000000,4.000000,,,,,,,,,,,,,,,,,,,,,,,,,
1577421142.982537,114.000000,0.000000,4224.102539,4307.692383,4132.307617,4124.102539,4129.743652,450.000000,4.000000,,,,0.000000,4.000000,4.000000,4.000000,4.000000,4.000000,,,,,,,,,,,,,,,,,,,,,,,,,
1577421142.990233,115.000000,0.000000,4177.436035,4250.769043,4102.563965,4125.128418,4105.641113,16211.000000,4.000000,,,,0.000000,4.000000,4.000000,4.000000,4.000000,4.000000,,,,,,,,,,,,,,,,,,,,,,,,,
1577421142.998030,116.000000,0.000000,4147.692383,4229.743652,4085.641113,4098.974121,4097.436035,450.000000,4.000000,,,,0.000000,4.000000,4.000000,4.000000,4.000000,4.000000,,,,,,,,,,,,,,,,,,,,,,,,,
1577421143.005726,117.000000,0.000000,4129.743652,4222.051270,4063.589844,4066.153809,4085.641113,450.000000,4.000000,,,,0.000000,4.000000,4.000000,4.000000,4.000000,4.000000,,,,,,,,,,,,,,,,,,,,,,,,,
1577421143.013423,118.000000,0.000000,4129.743652,4200.512695,4055.384521,4063.076904,4089.743652,450.000000,4.000000,,,,0.000000,4.000000,4.000000,4.000000,4.000000,4.000000,,,,,,,,,,,,,,,,,,,,,,,,,
1577421143.021219,119.000000,0.000000,4135.384766,4187.692383,4057.948730,4054.358887,4091.281982,16211.000000,4.000000,,,,0.000000,4.000000,4.000000,4.000000,4.000000,4.000000,,,,,,,,,,,,,,,,,,,,,,,,,
1577421143.029016,120.000000,0.000000,4115.897461,4184.102539,4044.615479,4052.820557,4065.641113,450.000000,4.000000,,,,0.000000,4.000000,4.000000,4.000000,4.000000,4.000000,,,,,,,,,,,,,,,,,,,,,,,,,
1577421143.036712,121.000000,0.000000,4101.538574,4182.051270,4047.692383,4088.718018,4051.794922,450.000000,4.000000,,,,0.000000,4.000000,4.000000,4.000000,4.000000,4.000000,165.719696,17.588554,5.889980,2.603741,4.801209,10.003397,2.497605,2.299783,1.399381,3.664757,24.377798,9.405959,3.957101,2.110063,3.817772,9.394515,9.317988,2.922809,3.492465,6.256946,73.048172,9.612658,3.784591,2.102310,3.962389
1577421143.044409,122.000000,0.000000,4113.333496,4181.538574,4065.641113,4093.846191,4065.128174,450.000000,4.000000,,,,0.000000,4.000000,4.000000,4.000000,4.000000,4.000000,,,,,,,,,,,,,,,,,,,,,,,,,
1577421143.052205,123.000000,0.000000,4121.538574,4175.384766,4063.076904,4080.000000,4082.051270,16211.000000,4.000000,,,,0.000000,4.000000,4.000000,4.000000,4.000000,4.000000,,,,,,,,,,,,,,,,,,,,,,,,,
1577421143.059902,124.000000,0.000000,4125.128418,4164.102539,4053.333252,4083.076904,4088.718018,450.000000,4.000000,,,,0.000000,4.000000,4.000000,4.000000,4.000000,4.000000,,,,,,,,,,,,,,,,,,,,,,,,,
1577421143.067699,125.000000,0.000000,4115.897461,4145.641113,4036.923096,4059.487061,4073.846191,450.000000,4.000000,,,,0.000000,4.000000,4.000000,4.000000,4.000000,4.000000,,,,,,,,,,,,,,,,,,,,,,,,,
1577421143.075395,126.000000,0.000000,4114.358887,4148.205078,4031.794922,4049.230713,4070.769287,450.000000,4.000000,,,,0.000000,4.000000,4.000000,4.000000,4.000000,4.000000,,,,,,,,,,,,,,,,,,,,,,,,,
1577421143.083192,127.000000,0.000000,4142.051270,4170.769043,4052.820557,4075.384521,4091.794922,235.000000,4.000000,,,,0.000000,4.000000,4.000000,4.000000,4.000000,4.000000,,,,,,,,,,,,,,,,,,,,,,,,,
1577421143.090988,0.000000,0.000000,4150.256348,4168.205078,4062.051270,4091.281982,4104.615234,450.000000,4.000000,,,,0.000000,4.000000,4.000000,4.000000,4.000000,4.000000,,,,,,,,,,,,,,,,,,,,,,,,,
1577421143.098685,1.000000,0.000000,4129.743652,4163.077148,4049.230713,4085.641113,4096.410156,450.000000,4.000000,,,,0.000000,4.000000,4.000000,4.000000,4.000000,4.000000,,,,,,,,,,,,,,,,,,,,,,,,,
1577421143.106481,2.000000,0.000000,4119.487305,4170.769043,4030.256348,4067.179443,4083.589844,16190.000000,4.000000,,,,0.000000,4.000000,4.000000,4.000000,4.000000,4.000000,,,,,,,,,,,,,,,,,,,,,,,,,
1577421143.114177,3.000000,0.000000,4133.846191,4183.589844,4030.769287,4068.205078,4097.436035,450.000000,4.000000,,,,0.000000,4.000000,4.000000,4.000000,4.000000,4.000000,,,,,,,,,,,,,,,,,,,,,,,,,
1577421143.121874,4.000000,0.000000,4160.512695,4204.615234,4048.718018,4075.897461,4124.102539,16198.000000,4.000000,,,,0.000000,4.000000,4.000000,4.000000,4.000000,4.000000,,,,,,,,,,,,,,,,,,,,,,,,,
1577421143.129670,5.000000,0.000000,4170.256348,4217.948730,4054.871826,4075.384521,4124.102539,450.000000,4.000000,,,,0.000000,4.000000,4.000000,4.000000,4.000000,4.000000,,,,,,,,,,,,,,,,,,,,,,,,,
1577421143.137367,6.000000,0.000000,4170.769043,4229.743652,4071.281982,4088.205078,4123.589844,16182.000000,4.000000,,,,0.000000,4.000000,4.000000,4.000000,4.000000,4.000000,,,,,,,,,,,,,,,,,,,,,,,,,
1577421143.145164,7.000000,0.000000,4169.743652,4237.948730,4095.384521,4088.718018,4129.743652,450.000000,4.000000,,,,0.000000,4.000000,4.000000,4.000000,4.000000,4.000000,,,,,,,,,,,,,,,,,,,,,,,,,
1577421143.152860,8.000000,0.000000,4161.025879,4243.077148,4095.897461,4079.487061,4124.102539,450.000000,4.000000,,,,0.000000,4.000000,4.000000,4.000000,4.000000,4.000000,,,,,,,,,,,,,,,,,,,,,,,,,
1577421143.160657,9.000000,0.000000,4154.871582,4263.589844,4097.436035,4088.718018,4118.974121,16165.000000,4.000000,,,,0.000000,4.000000,4.000000,4.000000,4.000000,4.000000,237.037994,20.646555,6.212827,2.720479,2.716828,8.837564,2.630118,2.112814,1.408764,2.134163,23.171991,9.724957,4.359832,2.238423,2.118457,9.449228,8.915992,3.749996,4.371364,4.842577,102.571556,9.016800,4.013431,2.349887,2.325185
1577421143.168353,10.000000,0.000000,4163.077148,4291.794922,4116.410156,4092.307617,4128.205078,450.000000,4.000000,,,,0.000000,4.000000,4.000000,4.000000,4.000000,4.000000,,,,,,,,,,,,,,,,,,,,,,,,,
1577421143.176050,11.000000,0.000000,4200.512695,4323.077148,4154.358887,4098.461426,4165.641113,16217.000000,4.000000,,,,0.000000,4.000000,4.000000,4.000000,4.000000,4.000000,,,,,,,,,,,,,,,,,,,,,,,,,
1577421143.183847,12.000000,0.000000,4207.692383,4329.230957,4170.256348,4105.641113,4166.153809,450.000000,4.000000,,,,0.000000,4.000000,4.000000,4.000000,4.000000,4.000000,,,,,,,,,,,,,,,,,,,,,,,,,
1577421143.191643,13.000000,0.000000,4166.666504,4311.282227,4143.077148,4110.256348,4116.410156,450.000000,4.000000,,,,0.000000,4.000000,4.000000,4.000000,4.000000,4.000000,,,,,,,,,,,,,,,,,,,,,,,,,
1577421143.199339,14.000000,0.000000,4167.179688,4311.282227,4154.358887,4119.487305,4121.025879,450.000000,4.000000,,,,0.000000,4.000000,4.000000,4.000000,4.000000,4.000000,,,,,,,,,,,,,,,,,,,,,,,,,
1577421143.207136,15.000000,0.000000,4196.410156,4317.948730,4191.794922,4117.436035,4167.179688,16217.000000,4.000000,,,,0.000000,4.000000,4.000000,4.000000,4.000000,4.000000,,,,,,,,,,,,,,,,,,,,,,,,,
1577421143.214832,16.000000,0.000000,4203.077148,4317.948730,4190.769043,4127.692383,4182.563965,0.000000,4.000000,,,,0.000000,4.000000,4.000000,4.000000,4.000000,4.000000,,,,,,,,,,,,,,,,,,,,,,,,,
1577421143.222628,17.000000,0.000000,4196.922852,4322.051270,4173.846191,4133.333496,4161.538574,0.000000,4.000000,,,,0.000000,4.000000,4.000000,4.000000,4.000000,4.000000,,,,,,,,,,,,,,,,,,,,,,,,,
1577421143.230325,18.000000,0.000000,4205.128418,4321.025879,4172.307617,4112.820313,4153.333496,0.000000,4.000000,,,,0.000000,4.000000,4.000000,4.000000,4.000000,4.000000,,,,,,,,,,,,,,,,,,,,,,,,,
1577421143.238121,19.000000,0.000000,4232.307617,4321.025879,4189.230957,4116.922852,4181.025879,0.000000,4.000000,,,,0.000000,4.000000,4.000000,4.000000,4.000000,4.000000,,,,,,,,,,,,,,,,,,,,,,,,,
1577421143.245817,20.000000,0.000000,4215.897461,4300.512695,4170.256348,4112.820313,4164.102539,0.000000,4.000000,,,,0.000000,4.000000,4.000000,4.000000,4.000000,4.000000,,,,,,,,,,,,,,,,,,,,,,,,,
1577421143.253614,21.000000,0.000000,4164.102539,4270.256348,4120.512695,4084.102539,4112.820313,0.000000,4.000000,,,,0.000000,4.000000,4.000000,4.000000,4.000000,4.000000,,,,,,,,,,,,,,,,,,,,,,,,,
1577421143.261310,22.000000,0.000000,4144.615234,4253.333496,4106.153809,4069.230713,4101.025879,0.000000,4.000000,,,,0.000000,4.000000,4.000000,4.000000,4.000000,4.000000,,,,,,,,,,,,,,,,,,,,,,,,,
1577421143.269106,23.000000,0.000000,4160.512695,4239.487305,4112.307617,4069.230713,4112.820313,0.000000,4.000000,,,,0.000000,4.000000,4.000000,4.000000,4.000000,4.000000,,,,,,,,,,,,,,,,,,,,,,,,,
1577421143.276803,24.000000,0.000000,4188.205078,4253.333496,4124.615234,4099.487305,4135.897461,0.000000,4.000000,,,,0.000000,4.000000,4.000000,4.000000,4.000000,4.000000,,,,,,,,,,,,,,,,,,,,,,,,,
1577421143.284599,25.000000,0.000000,4187.179688,4265.641113,4126.153809,4117.948730,4134.871582,0.000000,4.000000,,,,0.000000,4.000000,4.000000,4.000000,4.000000,4.000000,289.683807,23.005289,6.811097,3.013474,2.914210,8.530962,2.844457,2.168990,1.598429,2.204270,20.907696,9.800491,4.927961,2.503804,2.238506,8.906528,8.416835,4.547691,5.247387,4.797720,125.117882,8.473862,4.366957,2.741204,2.423041
1577421143.292296,26.000000,0.000000,4172.307617,4256.410156,4117.436035,4098.461426,4121.538574,0.000000,4.000000,,,,0.000000,4.000000,4.000000,4.000000,4.000000,4.000000,,,,,,,,,,,,,,,,,,,,,,,,,
1577421143.299992,27.000000,0.000000,4193.846191,4255.897461,4117.436035,4100.000000,4142.563965,0.000000,4.000000,,,,0.000000,4.000000,4.000000,4.000000,4.000000,4.000000,,,,,,,,,,,,,,,,,,,,,,,,,
1577421143.307789,28.000000,0.000000,4201.538574,4241.025879,4109.743652,4114.871582,4152.820313,0.000000,4.000000,,,,0.000000,4.000000,4.000000,4.000000,4.000000,4.000000,,,,,,,,,,,,,,,,,,,,,,,,,
1577421143.315485,29.000000,0.000000,4174.358887,4220.512695,4099.487305,4101.025879,4131.282227,0.000000,4.000000,,,,0.000000,4.000000,4.000000,4.000000,4.000000,4.000000,,,,,,,,,,,,,,,,,,,,,,,,,
1577421143.323282,30.000000,0.000000,4166.666504,4225.641113,4094.358887,4086.666748,4112.307617,0.000000,4.000000,,,,0.000000,4.000000,4.000000,4.000000,4.000000,4.000000,,,,,,,,,,,,,,,,,,,,,,,,,
1577421143.330978,31.000000,0.000000,4200.512695,4242.563965,4105.641113,4114.871582,4125.128418,0.000000,4.000000,,,,0.000000,4.000000,4.000000,4.000000,4.000000,4.000000,,,,,,,,,,,,,,,,,,,,,,,,,
1577421143.338775,32.000000,0.000000,4208.205078,4234.871582,4104.102539,4116.410156,4123.077148,0.000000,4.000000,,,,0.000000,4.000000,4.000000,4.000000,4.000000,4.000000,,,,,,,,,,,,,,,,,,,,,,,,,
1577421143.346472,33.000000,0.000000,4147.692383,4203.077148,4062.564209,4049.230713,4063.076904,0.000000,4.000000,,,,0.000000,4.000000,4.000000,4.000000,4.000000,4.000000,,,,,,,,,,,,,,,,,,,,,,,,,
1577421143.354268,34.000000,0.000000,4132.307617,4204.615234,4050.769287,4041.538574,4053.846191,0.000000,4.000000,,,,0.000000,4.000000,4.000000,4.000000,4.000000,4.000000,,,,,,,,,,,,,,,,,,,,,,,,,
1577421143.361965,35.000000,0.000000,4168.717773,4221.538574,4068.718018,4096.410156,4092.820557,0.000000,4.000000,,,,0.000000,4.000000,4.000000,4.000000,4.000000,4.000000,,,,,,,,,,,,,,,,,,,,,,,,,
1577421143.369761,36.000000,0.000000,4161.025879,4214.871582,4063.589844,4088.205078,4083.076904,0.000000,4.000000,,,,0.000000,4.000000,4.000000,4.000000,4.000000,4.000000,,,,,,,,,,,,,,,,,,,,,,,,,
1577421143.377458,37.000000,0.000000,4144.102539,4218.974121,4058.974365,4061.025635,4060.000000,0.000000,4.000000,,,,0.000000,4.000000,4.000000,4.000000,4.000000,4.000000,,,,,,,,,,,,,,,,,,,,,,,,,
1577421143.385254,38.000000,0.000000,4155.384766,4233.333496,4070.769287,4096.410156,4066.666748,0.000000,4.000000,,,,0.000000,4.000000,4.000000,4.000000,4.000000,4.000000,,,,,,,,,,,,,,,,,,,,,,,,,
1577421143.392950,39.000000,0.000000,4180.512695,4240.512695,4090.769287,4138.461426,4097.436035,0.000000,4.000000,,,,0.000000,4.000000,4.000000,4.000000,4.000000,4.000000,,,,,,,,,,,,,,,,,,,,,,,,,
1577421143.400747,40.000000,0.000000,4181.025879,4234.358887,4098.974121,4111.282227,4110.769043,0.000000,4.000000,,,,0.000000,4.000000,4.000000,4.000000,4.000000,4.000000,,,,,,,,,,,,,,,,,,,,,,,,,
1577421143.408443,41.000000,0.000000,4152.307617,4223.589844,4082.564209,4083.589844,4093.333252,0.000000,4.000000,,,,0.000000,4.000000,4.000000,4.000000,4.000000,4.000000,305.564178,23.964027,6.966205,3.290187,4.395631,10.002851,3.178512,2.224690,1.798122,3.170517,18.301903,9.848585,5.149837,2.765937,3.315955,7.966408,7.893292,5.000522,5.923096,5.459942,133.093903,8.115953,4.495365,3.187012,3.491151
1577421143.416239,42.000000,0.000000,4168.205078,4241.025879,4091.794922,4127.692383,4111.282227,0.000000,4.000000,,,,0.000000,4.000000,4.000000,4.000000,4.000000,4.000000,,,,,,,,,,,,,,,,,,,,,,,,,
1577421143.423936,43.000000,0.000000,4191.282227,4247.692383,4112.820313,4135.384766,4128.205078,0.000000,4.000000,,,,0.000000,4.000000,4.000000,4.000000,4.000000,4.000000,,,,,,,,,,,,,,,,,,,,,,,,,
1577421143.431632,44.000000,0.000000,4167.692383,4235.384766,4099.487305,4082.564209,4096.922852,0.000000,4.000000,,,,0.000000,4.000000,4.000000,4.000000,4.000000,4.000000,,,,,,,,,,,,,,,,,,,,,,,,,
1577421143.439429,45.000000,0.000000,4158.974121,4245.641113,4098.974121,4092.820557,4089.230713,0.000000,4.000000,,,,0.000000,4.000000,4.000000,4.000000,4.000000,4.000000,,,,,,,,,,,,,,,,,,,,,,,,,
1577421143.447225,46.000000,0.000000,4165.128418,4247.179688,4118.974121,4135.897461,4109.230957,0.000000,4.000000,,,,0.000000,4.000000,4.000000,4.000000,4.000000,4.000000,,,,,,,,,,,,,,,,,,,,,,,,,
1577421143.454922,47.000000,0.000000,4171.794922,4232.820313,4124.102539,4140.000000,4116.922852,0.000000,4.000000,,,,0.000000,4.000000,4.000000,4.000000,4.000000,4.000000,,,,,,,,,,,,,,,,,,,,,,,,,
1577421143.462618,48.000000,0.000000,4183.077148,4240.000000,4124.102539,4129.230957,4124.615234,0.000000,4.000000,,,,0.000000,4.000000,4.000000,4.000000,4.000000,4.000000,,,,,,,,,,,,,,,,,,,,,,,,,
1577421143.470415,49.000000,0.000000,4202.563965,4262.051270,4134.871582,4121.025879,4149.743652,0.000000,4.000000,,,,0.000000,4.000000,4.000000,4.000000,4.000000,4.000000,,,,,,,,,,,,,,,,,,,,,,,,,
1577421143.478112,50.000000,0.000000,4202.563965,4253.333496,4126.666504,4110.256348,4142.563965,0.000000,4.000000,,,,0.000000,4.000000,4.000000,4.000000,4.000000,4.000000,,,,,,,,,,,,,,,,,,,,,,,,,
1577421143.485908,51.000000,0.000000,4166.153809,4228.717773,4107.692383,4107.692383,4099.487305,0.000000,4.000000,,,,0.000000,4.000000,4.000000,4.000000,4.000000,4.000000,,,,,,,,,,,,,,,,,,,,,,,,,
1577421143.493605,52.000000,0.000000,4167.692383,4242.563965,4125.128418,4122.563965,4113.333496,0.000000,4.000000,,,,0.000000,4.000000,4.000000,4.000000,4.000000,4.000000,,,,,,,,,,,,,,,,,,,,,,,,,
1577421143.501401,53.000000,0.000000,4180.000000,4255.897461,4126.666504,4120.512695,4136.922852,0.000000,4.000000,,,,0.000000,4.000000,4.000000,4.000000,4.000000,4.000000,,,,,,,,,,,,,,,,,,,,,,,,,
1577421143.509098,54.000000,0.000000,4166.666504,4247.692383,4106.666504,4128.205078,4118.461426,0.000000,4.000000,,,,0.000000,4.000000,4.000000,4.000000,4.000000,4.000000,,,,,,,,,,,,,,,,,,,,,,,,,
1577421143.516894,55.000000,0.000000,4167.692383,4247.692383,4114.871582,4137.436035,4118.974121,0.000000,4.000000,,,,0.000000,4.000000,4.000000,4.000000,4.000000,4.000000,,,,,,,,,,,,,,,,,,,,,,,,,
1577421143.524591,56.000000,0.000000,4155.384766,4229.230957,4103.589844,4110.256348,4110.769043,0.000000,4.000000,,,,0.000000,4.000000,4.000000,4.000000,4.000000,4.000000,,,,,,,,,,,,,,,,,,,,,,,,,
1577421143.532388,57.000000,0.000000,4155.897461,4238.461426,4106.153809,4114.871582,4101.025879,0.000000,4.000000,,,,0.000000,4.000000,4.000000,4.000000,4.000000,4.000000,279.409790,23.303621,6.407875,3.422012,6.374863,14.052133,3.734235,2.177185,1.901281,4.463266,16.246498,10.076484,4.806834,2.900877,4.702325,6.936414,7.452920,4.939917,6.235384,6.338719,123.551804,7.955676,4.276693,3.554341,4.924287
1577421143.540084,58.000000,0.000000,4199.487305,4276.922852,4150.769043,4148.205078,4151.794922,0.000000,4.000000,,,,0.000000,4.000000,4.000000,4.000000,4.000000,4.000000,,,,,,,,,,,,,,,,,,,,,,,,,
1577421143.547881,59.000000,0.000000,4195.384766,4253.846191,4145.641113,4149.743652,4171.282227,0.000000,4.000000,,,,0.000000,4.000000,4.000000,4.000000,4.000000,4.000000,,,,,,,,,,,,,,,,,,,,,,,,,
1577421143.555577,60.000000,0.000000,4138.974121,4214.871582,4099.487305,4117.948730,4115.384766,0.000000,4.000000,,,,0.000000,4.000000,4.000000,4.000000,4.000000,4.000000,,,,,,,,,,,,,,,,,,,,,,,,,
1577421143.563373,61.000000,0.000000,4139.487305,4229.743652,4093.846191,4102.051270,4097.436035,0.000000,4.000000,,,,0.000000,4.000000,4.000000,4.000000,4.000000,4.000000,,,,,,,,,,,,,,,,,,,,,,,,,
1577421143.571070,62.000000,0.000000,4200.512695,4257.948730,4130.769043,4137.436035,4146.153809,0.000000,4.000000,,,,0.000000,4.000000,4.000000,4.000000,4.000000,4.000000,,,,,,,,,,,,,,,,,,,,,,,,,
1577421143.578866,63.000000,0.000000,4225.128418,4243.589844,4146.666504,4148.717773,4172.307617,0.000000,4.000000,,,,0.000000,4.000000,4.000000,4.000000,4.000000,4.000000,,,,,,,,,,,,,,,,,,,,,,,,,
1577421143.586562,64.000000,0.000000,4191.794922,4216.922852,4126.153809,4127.692383,4156.922852,450.000000,4.000000,,,,0.000000,4.000000,4.000000,4.000000,4.000000,4.000000,,,,,,,,,,,,,,,,,,,,,,,,,
1577421143.594359,65.000000,0.000000,4193.333496,4229.230957,4128.205078,4139.487305,4161.025879,450.000000,4.000000,,,,0.000000,4.000000,4.000000,4.000000,4.000000,4.000000,,,,,,,,,,,,,,,,,,,,,,,,,
1577421143.602055,66.000000,0.000000,4211.794922,4220.512695,4130.769043,4138.461426,4168.717773,16228.000000,4.000000,,,,0.000000,4.000000,4.000000,4.000000,4.000000,4.000000,,,,,,,,,,,,,,,,,,,,,,,,,
1577421143.609952,67.000000,0.000000,4188.717773,4181.025879,4103.589844,4114.358887,4151.794922,450.000000,4.000000,,,,0.000000,4.000000,4.000000,4.000000,4.000000,4.000000,,,,,,,,,,,,,,,,,,,,,,,,,
1577421143.617748,68.000000,0.000000,4183.077148,4173.846191,4090.769287,4124.102539,4142.563965,16211.000000,4.000000,,,,0.000000,4.000000,4.000000,4.000000,4.000000,4.000000,,,,,,,,,,,,,,,,,,,,,,,,,
1577421143.625445,69.000000,0.000000,4196.410156,4184.615234,4090.256348,4137.948730,4144.615234,450.000000,4.000000,,,,0.000000,4.000000,4.000000,4.000000,4.000000,4.000000,,,,,,,,,,,,,,,,,,,,,,,,,
1577421143.633241,70.000000,0.000000,4201.025879,4186.153809,4089.230713,4121.025879,4156.410156,16179.000000,4.000000,,,,0.000000,4.000000,4.000000,4.000000,4.000000,4.000000,,,,,,,,,,,,,,,,,,,,,,,,,
1577421143.641038,71.000000,0.000000,4196.410156,4181.025879,4092.820557,4102.051270,4157.436035,450.000000,4.000000,,,,0.000000,4.000000,4.000000,4.000000,4.000000,4.000000,,,,,,,,,,,,,,,,,,,,,,,,,
1577421143.648734,72.000000,0.000000,4196.922852,4185.641113,4111.282227,4128.205078,4157.948730,450.000000,4.000000,,,,0.000000,4.000000,4.000000,4.000000,4.000000,4.000000,,,,,,,,,,,,,,,,,,,,,,,,,
1577421143.656530,73.000000,0.000000,4233.846191,4216.922852,4146.666504,4163.077148,4195.897461,16188.000000,4.000000,,,,0.000000,4.000000,4.000000,4.000000,4.000000,4.000000,220.028534,21.462240,5.341456,3.404251,8.334952,20.252748,4.557531,2.051790,1.906796,5.701200,15.059707,10.643677,4.027664,2.873886,6.014600,5.946220,7.237852,4.422831,6.146055,7.177164,99.047935,8.053290,3.827341,3.743194,6.352623
1577421143.664227,74.000000,0.000000,4252.820313,4216.410156,4146.153809,4149.230957,4215.897461,450.000000,4.000000,,,,0.000000,4.000000,4.000000,4.000000,4.000000,4.000000,,,,,,,,,,,,,,,,,,,,,,,,,
1577421143.672023,75.000000,0.000000,4241.025879,4202.563965,4136.922852,4148.205078,4199.487305,16247.000000,4.000000,,,,0.000000,4.000000,4.000000,4.000000,4.000000,4.000000,,,,,,,,,,,,,,,,,,,,,,,,,
1577421143.679719,76.000000,0.000000,4251.282227,4221.538574,4155.384766,4172.820313,4202.563965,450.000000,4.000000,,,,0.000000,4.000000,4.000000,4.000000,4.000000,4.000000,,,,,,,,,,,,,,,,,,,,,,,,,
1577421143.687416,77.000000,0.000000,4254.358887,4225.128418,4157.436035,4165.128418,4211.282227,450.000000,4.000000,,,,0.000000,4.000000,4.000000,4.000000,4.000000,4.000000,,,,,,,,,,,,,,,,,,,,,,,,,
1577421143.695213,78.000000,0.000000,4232.307617,4217.436035,4143.589844,4140.000000,4196.922852,450.000000,4.000000,,,,0.000000,4.000000,4.000000,4.000000,4.000000,4.000000,,,,,,,,,,,,,,,,,,,,,,,,,
1577421143.702909,79.000000,0.000000,4215.384766,4220.000000,4126.153809,4115.384766,4176.922852,16247.000000,4.000000,,,,0.000000,4.000000,4.000000,4.000000,4.000000,4.000000,,,,,,,,,,,,,,,,,,,,,,,,,
1577421143.710706,80.000000,0.000000,4230.256348,4225.128418,4129.230957,4123.077148,4189.743652,450.000000,4.000000,,,,0.000000,4.000000,4.000000,4.000000,4.000000,4.000000,,,,,,,,,,,,,,,,,,,,,,,,,
1577421143.718402,81.000000,0.000000,4229.230957,4223.077148,4133.846191,4136.410156,4194.871582,450.000000,4.000000,,,,0.000000,4.000000,4.000000,4.000000,4.000000,4.000000,,,,,,,,,,,,,,,,,,,,,,,,,
1577421143.726199,82.000000,0.000000,4199.487305,4223.077148,4117.436035,4120.000000,4180.000000,450.000000,4.000000,,,,0.000000,4.000000,4.000000,4.000000,4.000000,4.000000,,,,,,,,,,,,,,,,,,,,,,,,,
1577421143.733896,83.000000,0.000000,4237.948730,4253.846191,4146.153809,4143.589844,4212.307617,16247.000000,4.000000,,,,0.000000,4.000000,4.000000,4.000000,4.000000,4.000000,,,,,,,,,,,,,,,,,,,,,,,,,
1577421143.741692,84.000000,0.000000,4276.410156,4261.538574,4176.410156,4164.615234,4234.358887,450.000000,4.000000,,,,0.000000,4.000000,4.000000,4.000000,4.000000,4.000000,,,,,,,,,,,,,,,,,,,,,,,,,
1577421143.749389,85.000000,0.000000,4241.538574,4241.538574,4164.615234,4147.179688,4217.436035,450.000000,4.000000,,,,0.000000,4.000000,4.000000,4.000000,4.000000,4.000000,,,,,,,,,,,,,,,,,,,,,,,,,
1577421143.757185,86.000000,0.000000,4218.461426,4238.974121,4152.307617,4132.820313,4209.743652,450.000000,4.000000,,,,0.000000,4.000000,4.000000,4.000000,4.000000,4.000000,,,,,,,,,,,,,,,,,,,,,,,,,
1577421143.764882,87.000000,0.000000,4221.025879,4237.436035,4138.974121,4113.846191,4203.077148,16247.000000,4.000000,,,,0.000000,4.000000,4.000000,4.000000,4.000000,4.000000,,,,,,,,,,,,,,,,,,,,,,,,,
1577421143.772678,88.000000,0.000000,4223.589844,4232.307617,4131.282227,4107.692383,4201.538574,450.000000,4.000000,,,,0.000000,4.000000,4.000000,4.000000,4.000000,4.000000,,,,,,,,,,,,,,,,,,,,,,,,,
1577421143.780375,89.000000,0.000000,4233.333496,4235.897461,4134.358887,4130.769043,4211.794922,450.000000,4.000000,,,,0.000000,4.000000,4.000000,4.000000,4.000000,4.000000,148.403244,18.974518,4.074321,3.308936,9.702942,27.746229,5.506410,1.892834,1.863354,6.478174,15.394840,11.409487,3.088614,2.717537,6.854909,5.242241,7.232800,3.651724,5.724895,7.689474,68.545807,8.292921,3.298894,3.725791,7.382481
1577421143.788171,90.000000,0.000000,4233.846191,4252.307617,4128.717773,4138.461426,4214.871582,450.000000,4.000000,,,,0.000000,4.000000,4.000000,4.000000,4.000000,4.000000,,,,,,,,,,,,,,,,,,,,,,,,,
1577421143.795867,91.000000,0.000000,4216.410156,4259.487305,4109.230957,4108.717773,4195.897461,16247.000000,4.000000,,,,0.000000,4.000000,4.000000,4.000000,4.000000,4.000000,,,,,,,,,,,,,,,,,,,,,,,,,
1577421143.803664,92.000000,0.000000,4214.358887,4236.922852,4095.897461,4099.487305,4190.769043,450.000000,4.000000,,,,0.000000,4.000000,4.000000,4.000000,4.000000,4.000000,,,,,,,,,,,,,,,,,,,,,,,,,
1577421143.811360,93.000000,0.000000,4247.179688,4237.948730,4115.897461,4135.384766,4224.102539,450.000000,4.000000,,,,0.000000,4.000000,4.000000,4.000000,4.000000,4.000000,,,,,,,,,,,,,,,,,,,,,,,,,
1577421143.819156,94.000000,0.000000,4261.025879,4272.820313,4134.871582,4143.589844,4238.974121,450.000000,4.000000,,,,0.000000,4.000000,4.000000,4.000000,4.000000,4.000000,,,,,,,,,,,,,,,,,,,,,,,,,
1577421143.826853,95.000000,0.000000,4232.307617,4272.820313,4121.025879,4117.948730,4221.025879,16247.000000,4.000000,,,,0.000000,4.000000,4.000000,4.000000,4.000000,4.000000,,,,,,,,,,,,,,,,,,,,,,,,,
1577421143.834649,96.000000,0.000000,4232.307617,4257.948730,4125.641113,4098.461426,4215.384766,450.000000,4.000000,,,,0.000000,4.000000,4.000000,4.000000,4.000000,4.000000,,,,,,,,,,,,,,,,,,,,,,,,,
1577421143.842346,97.000000,0.000000,4247.692383,4268.205078,4139.487305,4094.358887,4217.436035,450.000000,4.000000,,,,0.000000,4.000000,4.000000,4.000000,4.000000,4.000000,,,,,,,,,,,,,,,,,,,,,,,,,
1577421143.850142,98.000000,0.000000,4236.410156,4278.974121,4131.282227,4124.615234,4215.897461,450.000000,4.000000,,,,0.000000,4.000000,4.000000,4.000000,4.000000,4.000000,,,,,,,,,,,,,,,,,,,,,,,,,
1577421143.857838,99.000000,0.000000,4228.717773,4266.153809,4126.153809,4129.230957,4212.307617,16247.000000,4.000000,,,,0.000000,4.000000,4.000000,4.000000,4.000000,4.000000,,,,,,,,,,,,,,,,,,,,,,,,,
1577421143.865535,100.000000,0.000000,4226.666504,4247.179688,4123.589844,4089.230713,4204.102539,450.000000,4.000000,,,,0.000000,4.000000,4.000000,4.000000,4.000000,4.000000,,,,,,,,,,,,,,,,,,,,,,,,,
1577421143.873331,101.000000,0.000000,4227.179688,4266.153809,4126.666504,4097.436035,4212.307617,450.000000,4.000000,,,,0.000000,4.000000,4.000000,4.000000,4.000000,4.000000,,,,,,,,,,,,,,,,,,,,,,,,,
1577421143.881128,102.000000,0.000000,4234.358887,4280.512695,4129.743652,4116.922852,4211.794922,450.000000,4.000000,,,,0.000000,4.000000,4.000000,4.000000,4.000000,4.000000,,,,,,,,,,,,,,,,,,,,,,,,,
1577421143.888824,103.000000,0.000000,4255.897461,4283.077148,4148.717773,4112.307617,4216.410156,16247.000000,4.000000,,,,0.000000,4.000000,4.000000,4.000000,4.000000,4.000000,,,,,,,,,,,,,,,,,,,,,,,,,
1577421143.896521,104.000000,0.000000,4263.077148,4296.922852,4176.922852,4123.589844,4233.333496,450.000000,4.000000,,,,0.000000,4.000000,4.000000,4.000000,4.000000,4.000000,,,,,,,,,,,,,,,,,,,,,,,,,
1577421143.904317,105.000000,0.000000,4252.307617,4299.487305,4175.897461,4126.153809,4229.743652,450.000000,4.000000,,,,0.000000,4.000000,4.000000,4.000000,4.000000,4.000000,85.139595,16.467466,2.960761,3.211427,10.063195,34.095039,6.296366,1.733941,1.821685,6.517647,16.883512,12.019942,2.273838,2.496482,6.951852,4.837605,7.318726,2.888398,5.098544,7.665894,40.668823,8.589937,2.856735,3.532492,7.730094
1577421143.912014,106.000000,0.000000,4263.589844,4297.948730,4175.384766,4111.794922,4229.743652,450.000000,4.000000,,,,0.000000,4.000000,4.000000,4.000000,4.000000,4.000000,,,,,,,,,,,,,,,,,,,,,,,,,
1577421143.919811,107.000000,0.000000,4276.922852,4306.666504,4193.846191,4126.666504,4244.615234,16247.000000,4.000000,,,,0.000000,4.000000,4.000000,4.000000,4.000000,4.000000,,,,,,,,,,,,,,,,,,,,,,,,,
1577421143.927507,108.000000,0.000000,4277.436035,4314.871582,4202.051270,4148.205078,4247.179688,450.000000,4.000000,,,,0.000000,4.000000,4.000000,4.000000,4.000000,4.000000,,,,,,,,,,,,,,,,,,,,,,,,,
1577421143.935304,109.000000,0.000000,4227.179688,4281.025879,4162.563965,4121.538574,4190.256348,450.000000,4.000000,,,,0.000000,4.000000,4.000000,4.000000,4.000000,4.000000,,,,,,,,,,,,,,,,,,,,,,,,,
1577421143.943000,110.000000,0.000000,4227.179688,4288.717773,4172.307617,4138.974121,4188.717773,450.000000,4.000000,,,,0.000000,4.000000,4.000000,4.000000,4.000000,4.000000,,,,,,,,,,,,,,,,,,,,,,,,,
1577421143.950797,111.000000,0.000000,4293.333496,4325.128418,4216.410156,4164.615234,4247.692383,16247.000000,4.000000,,,,0.000000,4.000000,4.000000,4.000000,4.000000,4.000000,,,,,,,,,,,,,,,,,,,,,,,,,
1577421143.958493,112.000000,0.000000,4234.358887,4267.179688,4137.948730,4105.128418,4191.794922,450.000000,4.000000,,,,0.000000,4.000000,4.000000,4.000000,4.000000,4.000000,,,,,,,,,,,,,,,,,,,,,,,,,
1577421143.966290,113.000000,0.000000,4237.436035,4285.128418,4137.948730,4134.871582,4190.769043,450.000000,4.000000,,,,0.000000,4.000000,4.000000,4.000000,4.000000,4.000000,,,,,,,,,,,,,,,,,,,,,,,,,
1577421143.973986,114.000000,0.000000,4300.512695,4312.820313,4190.256348,4136.922852,4228.205078,450.000000,4.000000,,,,0.000000,4.000000,4.000000,4.000000,4.000000,4.000000,,,,,,,,,,,,,,,,,,,,,,,,,
1577421143.981782,115.000000,0.000000,4231.282227,4223.589844,4116.410156,4042.564209,4171.794922,16247.000000,4.000000,,,,0.000000,4.000000,4.000000,4.000000,4.000000,4.000000,,,,,,,,,,,,,,,,,,,,,,,,,
1577421143.989479,116.000000,0.000000,4241.538574,4242.051270,4127.692383,4108.205078,4206.153809,450.000000,4.000000,,,,0.000000,4.000000,4.000000,4.000000,4.000000,4.000000,,,,,,,,,,,,,,,,,,,,,,,,,
1577421143.997275,117.000000,0.000000,4269.230957,4280.512695,4149.230957,4162.563965,4226.666504,450.000000,4.000000,,,,0.000000,4.000000,4.000000,4.000000,4.000000,4.000000,,,,,,,,,,,,,,,,,,,,,,,,,
1577421144.004971,118.000000,0.000000,4207.692383,4244.102539,4091.281982,4107.692383,4166.666504,450.000000,4.000000,,,,0.000000,4.000000,4.000000,4.000000,4.000000,4.000000,,,,,,,,,,,,,,,,,,,,,,,,,
1577421144.012768,119.000000,0.000000,4211.282227,4243.589844,4098.461426,4097.948730,4171.282227,16247.000000,4.000000,,,,0.000000,4.000000,4.000000,4.000000,4.000000,4.000000,,,,,,,,,,,,,,,,,,,,,,,,,
1577421144.020464,120.000000,0.000000,4229.743652,4233.846191,4109.743652,4106.153809,4176.410156,450.000000,4.000000,,,,0.000000,4.000000,4.000000,4.000000,4.000000,4.000000,,,,,,,,,,,,,,,,,,,,,,,,,
1577421144.028260,121.000000,0.000000,4229.743652,4235.384766,4110.256348,4123.077148,4175.897461,450.000000,4.000000,,,,0.000000,4.000000,4.000000,4.000000,4.000000,4.000000,42.859516,14.328705,2.267477,3.145092,9.351299,37.857628,6.635524,1.597782,1.804827,5.809448,19.249996,12.158719,1.817986,2.278854,6.284684,4.751256,7.365315,2.369600,4.391333,7.072612,21.536722,8.890529,2.649649,3.236107,7.336023
1577421144.035957,122.000000,0.000000,4223.077148,4248.717773,4114.358887,4100.000000,4178.974121,450.000000,4.000000,,,,0.000000,4.000000,4.000000,4.000000,4.000000,4.000000,,,,,,,,,,,,,,,,,,,,,,,,,
1577421144.043853,123.000000,0.000000,4198.974121,4236.410156,4097.948730,4064.102539,4157.436035,16247.000000,4.000000,,,,0.000000,4.000000,4.000000,4.000000,4.000000,4.000000,,,,,,,,,,,,,,,,,,,,,,,,,
1577421144.051650,124.000000,0.000000,4206.666504,4242.563965,4100.000000,4100.000000,4156.410156,450.000000,4.000000,,,,0.000000,4.000000,4.000000,4.000000,4.000000,4.000000,,,,,,,,,,,,,,,,,,,,,,,,,
1577421144.059546,125.000000,0.000000,4217.436035,4244.615234,4101.025879,4123.589844,4157.948730,450.000000,4.000000,,,,0.000000,4.000000,4.000000,4.000000,4.000000,4.000000,,,,,,,,,,,,,,,,,,,,,,,,,
1577421144.067343,126.000000,0.000000,4194.871582,4222.563965,4078.974365,4101.025879,4137.436035,450.000000,4.000000,,,,0.000000,4.000000,4.000000,4.000000,4.000000,4.000000,,,,,,,,,,,,,,,,,,,,,,,,,
1577421144.075139,127.000000,0.000000,4197.436035,4232.820313,4088.718018,4104.102539,4146.153809,235.000000,4.000000,,,,0.000000,4.000000,4.000000,4.000000,4.000000,4.000000,,,,,,,,,,,,,,,,,,,,,,,,,
1577421144.082835,0.000000,0.000000,4244.615234,4271.282227,4145.128418,4146.153809,4204.615234,450.000000,4.000000,,,,0.000000,4.000000,4.000000,4.000000,4.000000,4.000000,,,,,,,,,,,,,,,,,,,,,,,,,
1577421144.090632,1.000000,0.000000,4264.615234,4285.641113,4164.102539,4160.000000,4231.794922,450.000000,4.000000,,,,0.000000,4.000000,4.000000,4.000000,4.000000,4.000000,,,,,,,,,,,,,,,,,,,,,,,,,
1577421144.098328,2.000000,0.000000,4211.282227,4262.563965,4105.641113,4110.769043,4175.897461,16199.000000,4.000000,,,,0.000000,4.000000,4.000000,4.000000,4.000000,4.000000,,,,,,,,,,,,,,,,,,,,,,,,,
1577421144.106025,3.000000,0.000000,4184.615234,4251.282227,4080.512939,4089.743652,4149.743652,450.000000,4.000000,,,,0.000000,4.000000,4.000000,4.000000,4.000000,4.000000,,,,,,,,,,,,,,,,,,,,,,,,,
1577421144.113821,4.000000,0.000000,4218.974121,4256.922852,4112.307617,4122.051270,4181.025879,16204.000000,4.000000,,,,0.000000,4.000000,4.000000,4.000000,4.000000,4.000000,,,,,,,,,,,,,,,,,,,,,,,,,
1577421144.121518,5.000000,0.000000,4217.436035,4253.333496,4109.743652,4144.615234,4177.948730,450.000000,4.000000,,,,0.000000,4.000000,4.000000,4.000000,4.000000,4.000000,,,,,,,,,,,,,,,,,,,,,,,,,
1577421144.129314,6.000000,0.000000,4214.871582,4274.871582,4112.820313,4152.820313,4180.000000,16190.000000,4.000000,,,,0.000000,4.000000,4.000000,4.000000,4.000000,4.000000,,,,,,,,,,,,,,,,,,,,,,,,,
1577421144.137011,7.000000,0.000000,4227.692383,4280.000000,4130.769043,4135.897461,4198.974121,450.000000,4.000000,,,,0.000000,4.000000,4.000000,4.000000,4.000000,4.000000,,,,,,,,,,,,,,,,,,,,,,,,,
1577421144.144807,8.000000,0.000000,4198.974121,4248.205078,4110.256348,4114.358887,4187.692383,450.000000,4.000000,,,,0.000000,4.000000,4.000000,4.000000,4.000000,4.000000,,,,,,,,,,,,,,,,,,,,,,,,,
1577421144.152504,9.000000,0.000000,4183.589844,4246.153809,4090.769287,4121.025879,4179.487305,16212.000000,4.000000,,,,0.000000,4.000000,4.000000,4.000000,4.000000,4.000000,21.823940,12.464617,2.080486,3.084591,7.877771,37.769924,6.402783,1.492532,1.797042,4.619701,21.719744,11.771874,1.819856,2.102348,5.095453,4.784636,7.215952,2.196485,3.693456,6.084063,11.823100,9.044997,2.720221,2.909353,6.380820
1577421144.160300,10.000000,0.000000,4201.538574,4260.000000,4098.974121,4124.615234,4178.461426,450.000000,4.000000,,,,0.000000,4.000000,4.000000,4.000000,4.000000,4.000000,,,,,,,,,,,,,,,,,,,,,,,,,
1577421144.167996,11.000000,0.000000,4223.077148,4262.563965,4115.384766,4131.794922,4186.153809,16247.000000,4.000000,,,,0.000000,4.000000,4.000000,4.000000,4.000000,4.000000,,,,,,,,,,,,,,,,,,,,,,,,,
1577421144.175893,12.000000,0.000000,4222.051270,4245.641113,4120.512695,4149.743652,4197.436035,450.000000,4.000000,,,,0.000000,4.000000,4.000000,4.000000,4.000000,4.000000,,,,,,,,,,,,,,,,,,,,,,,,,
1577421144.183689,13.000000,0.000000,4211.794922,4241.025879,4135.384766,4180.000000,4208.717773,450.000000,4.000000,,,,0.000000,4.000000,4.000000,4.000000,4.000000,4.000000,,,,,,,,,,,,,,,,,,,,,,,,,
1577421144.191486,14.000000,0.000000,4234.358887,4274.871582,4168.717773,4201.538574,4231.794922,450.000000,4.000000,,,,0.000000,4.000000,4.000000,4.000000,4.000000,4.000000,,,,,,,,,,,,,,,,,,,,,,,,,
1577421144.199182,15.000000,0.000000,4236.410156,4263.589844,4163.077148,4164.102539,4209.230957,16247.000000,4.000000,,,,0.000000,4.000000,4.000000,4.000000,4.000000,4.000000,,,,,,,,,,,,,,,,,,,,,,,,,
1577421144.206978,16.000000,0.000000,4211.282227,4226.153809,4143.589844,4123.589844,4172.820313,0.000000,4.000000,,,,0.000000,4.000000,4.000000,4.000000,4.000000,4.000000,,,,,,,,,,,,,,,,,,,,,,,,,
1577421144.214675,17.000000,0.000000,4216.410156,4236.410156,4152.307617,4123.589844,4177.948730,0.000000,4.000000,,,,0.000000,4.000000,4.000000,4.000000,4.000000,4.000000,,,,,,,,,,,,,,,,,,,,,,,,,
1577421144.222471,18.000000,0.000000,4213.846191,4242.051270,4157.436035,4122.051270,4180.512695,0.000000,4.000000,,,,0.000000,4.000000,4.000000,4.000000,4.000000,4.000000,,,,,,,,,,,,,,,,,,,,,,,,,
1577421144.230167,19.000000,0.000000,4208.205078,4239.487305,4170.256348,4120.512695,4185.641113,0.000000,4.000000,,,,0.000000,4.000000,4.000000,4.000000,4.000000,4.000000,,,,,,,,,,,,,,,,,,,,,,,,,
1577421144.237964,20.000000,0.000000,4205.641113,4247.179688,4167.179688,4124.102539,4177.948730,0.000000,4.000000,,,,0.000000,4.000000,4.000000,4.000000,4.000000,4.000000,,,,,,,,,,,,,,,,,,,,,,,,,
1577421144.245660,21.000000,0.000000,4198.974121,4247.179688,4143.589844,4133.846191,4161.025879,0.000000,4.000000,,,,0.000000,4.000000,4.000000,4.000000,4.000000,4.000000,,,,,,,,,,,,,,,,,,,,,,,,,
1577421144.253456,22.000000,0.000000,4203.077148,4233.846191,4144.615234,4125.128418,4156.922852,0.000000,4.000000,,,,0.000000,4.000000,4.000000,4.000000,4.000000,4.000000,,,,,,,,,,,,,,,,,,,,,,,,,
1577421144.261153,23.000000,0.000000,4204.615234,4211.794922,4150.769043,4116.922852,4149.743652,0.000000,4.000000,,,,0.000000,4.000000,4.000000,4.000000,4.000000,4.000000,,,,,,,,,,,,,,,,,,,,,,,,,
1577421144.268949,24.000000,0.000000,4240.512695,4225.128418,4166.153809,4150.256348,4176.410156,0.000000,4.000000,,,,0.000000,4.000000,4.000000,4.000000,4.000000,4.000000,,,,,,,,,,,,,,,,,,,,,,,,,
1577421144.276645,25.000000,0.000000,4266.666504,4250.769043,4168.717773,4157.948730,4200.000000,0.000000,4.000000,,,,0.000000,4.000000,4.000000,4.000000,4.000000,4.000000,13.980628,10.552258,2.316869,2.969680,6.192742,34.188244,5.666546,1.409188,1.759992,3.374369,23.858219,10.922993,2.213295,1.971734,3.800762,4.925173,6.736385,2.347213,3.061388,5.029900,8.448867,8.842138,3.006991,2.610585,5.210200
1577421144.284542,26.000000,0.000000,4242.563965,4244.615234,4146.153809,4147.179688,4183.589844,0.000000,4.000000,,,,0.000000,4.000000,4.000000,4.000000,4.000000,4.000000,,,,,,,,,,,,,,,,,,,,,,,,,
1577421144.292338,27.000000,0.000000,4233.333496,4222.563965,4149.743652,4153.333496,4176.922852,0.000000,4.000000,,,,0.000000,4.000000,4.000000,4.000000,4.000000,4.000000,,,,,,,,,,,,,,,,,,,,,,,,,
1577421144.300135,28.000000,0.000000,4223.077148,4193.846191,4146.666504,4135.384766,4175.897461,0.000000,4.000000,,,,0.000000,4.000000,4.000000,4.000000,4.000000,4.000000,,,,,,,,,,,,,,,,,,,,,,,,,
1577421144.307831,29.000000,0.000000,4223.077148,4212.820313,4145.128418,4138.974121,4189.230957,0.000000,4.000000,,,,0.000000,4.000000,4.000000,4.000000,4.000000,4.000000,,,,,,,,,,,,,,,,,,,,,,,,,
1577421144.315528,30.000000,0.000000,4225.641113,4238.974121,4157.948730,4154.871582,4199.487305,0.000000,4.000000,,,,0.000000,4.000000,4.000000,4.000000,4.000000,4.000000,,,,,,,,,,,,,,,,,,,,,,,,,
1577421144.323324,31.000000,0.000000,4193.333496,4205.641113,4138.461426,4135.384766,4177.948730,0.000000,4.000000,,,,0.000000,4.000000,4.000000,4.000000,4.000000,4.000000,,,,,,,,,,,,,,,,,,,,,,,,,
1577421144.331021,32.000000,0.000000,4188.205078,4197.948730,4129.230957,4126.153809,4175.384766,0.000000,4.000000,,,,0.000000,4.000000,4.000000,4.000000,4.000000,4.000000,,,,,,,,,,,,,,,,,,,,,,,,,
1577421144.338818,33.000000,0.000000,4207.692383,4220.000000,4143.589844,4132.307617,4197.436035,0.000000,4.000000,,,,0.000000,4.000000,4.000000,4.000000,4.000000,4.000000,,,,,,,,,,,,,,,,,,,,,,,,,
1577421144.346514,34.000000,0.000000,4207.179688,4224.615234,4146.153809,4121.025879,4212.307617,0.000000,4.000000,,,,0.000000,4.000000,4.000000,4.000000,4.000000,4.000000,,,,,,,,,,,,,,,,,,,,,,,,,
1577421144.354310,35.000000,0.000000,4187.692383,4212.307617,4123.589844,4091.281982,4194.358887,0.000000,4.000000,,,,0.000000,4.000000,4.000000,4.000000,4.000000,4.000000,,,,,,,,,,,,,,,,,,,,,,,,,
1577421144.362007,36.000000,0.000000,4181.538574,4201.025879,4106.153809,4100.512695,4183.077148,0.000000,4.000000,,,,0.000000,4.000000,4.000000,4.000000,4.000000,4.000000,,,,,,,,,,,,,,,,,,,,,,,,,
1577421144.369803,37.000000,0.000000,4222.563965,4226.666504,4136.410156,4161.538574,4225.128418,0.000000,4.000000,,,,0.000000,4.000000,4.000000,4.000000,4.000000,4.000000,,,,,,,,,,,,,,,,,,,,,,,,,
1577421144.377499,38.000000,0.000000,4217.948730,4220.000000,4135.384766,4148.205078,4228.717773,0.000000,4.000000,,,,0.000000,4.000000,4.000000,4.000000,4.000000,4.000000,,,,,,,,,,,,,,,,,,,,,,,,,
1577421144.385296,39.000000,0.000000,4176.410156,4186.153809,4101.025879,4104.615234,4200.512695,0.000000,4.000000,,,,0.000000,4.000000,4.000000,4.000000,4.000000,4.000000,,,,,,,,,,,,,,,,,,,,,,,,,
1577421144.392992,40.000000,0.000000,4197.436035,4210.769043,4111.794922,4126.666504,4225.641113,0.000000,4.000000,,,,0.000000,4.000000,4.000000,4.000000,4.000000,4.000000,,,,,,,,,,,,,,,,,,,,,,,,,
1577421144.400788,41.000000,0.000000,4220.000000,4230.769043,4117.436035,4118.974121,4247.179688,0.000000,4.000000,,,,0.000000,4.000000,4.000000,4.000000,4.000000,4.000000,10.507951,8.458057,2.785248,2.762138,4.818178,28.438562,4.675832,1.334361,1.670627,2.452693,25.463444,9.814489,2.780449,1.892153,2.795295,5.184195,5.998169,2.701675,2.551869,4.241096,7.423131,8.233386,3.350342,2.386001,4.170430
1577421144.408485,42.000000,0.000000,4216.922852,4219.487305,4107.179688,4101.538574,4239.487305,0.000000,4.000000,,,,0.000000,4.000000,4.000000,4.000000,4.000000,4.000000,,,,,,,,,,,,,,,,,,,,,,,,,
1577421144.416281,43.000000,0.000000,4203.077148,4214.358887,4106.153809,4114.358887,4228.205078,0.000000,4.000000,,,,0.000000,4.000000,4.000000,4.000000,4.000000,4.000000,,,,,,,,,,,,,,,,,,,,,,,,,
1577421144.423977,44.000000,0.000000,4186.666504,4214.871582,4107.179688,4128.717773,4224.615234,0.000000,4.000000,,,,0.000000,4.000000,4.000000,4.000000,4.000000,4.000000,,,,,,,,,,,,,,,,,,,,,,,,,
1577421144.431874,45.000000,0.000000,4202.563965,4223.077148,4116.922852,4149.743652,4241.025879,0.000000,4.000000,,,,0.000000,4.000000,4.000000,4.000000,4.000000,4.000000,,,,,,,,,,,,,,,,,,,,,,,,,
1577421144.439670,46.000000,0.000000,4201.025879,4213.333496,4094.358887,4134.358887,4232.307617,0.000000,4.000000,,,,0.000000,4.000000,4.000000,4.000000,4.000000,4.000000,,,,,,,,,,,,,,,,,,,,,,,,,
1577421144.447567,47.000000,0.000000,4180.512695,4203.077148,4072.820557,4109.230957,4209.230957,0.000000,4.000000,,,,0.000000,4.000000,4.000000,4.000000,4.000000,4.000000,,,,,,,,,,,,,,,,,,,,,,,,,
1577421144.455363,48.000000,0.000000,4176.410156,4214.871582,4084.102539,4093.333252,4206.666504,0.000000,4.000000,,,,0.000000,4.000000,4.000000,4.000000,4.000000,4.000000,,,,,,,,,,,,,,,,,,,,,,,,,
1577421144.463260,49.000000,0.000000,4173.333496,4229.743652,4088.205078,4082.564209,4210.769043,0.000000,4.000000,,,,0.000000,4.000000,4.000000,4.000000,4.000000,4.000000,,,,,,,,,,,,,,,,,,,,,,,,,
1577421144.471056,50.000000,0.000000,4196.410156,4244.615234,4103.589844,4109.743652,4231.282227,0.000000,4.000000,,,,0.000000,4.000000,4.000000,4.000000,4.000000,4.000000,,,,,,,,,,,,,,,,,,,,,,,,,
1577421144.478953,51.000000,0.000000,4220.000000,4232.307617,4111.794922,4129.230957,4249.230957,0.000000,4.000000,,,,0.000000,4.000000,4.000000,4.000000,4.000000,4.000000,,,,,,,,,,,,,,,,,,,,,,,,,
1577421144.486749,52.000000,0.000000,4216.410156,4219.487305,4101.025879,4129.230957,4251.282227,0.000000,4.000000,,,,0.000000,4.000000,4.000000,4.000000,4.000000,4.000000,,,,,,,,,,,,,,,,,,,,,,,,,
1577421144.494646,53.000000,0.000000,4211.282227,4236.410156,4098.974121,4136.410156,4248.717773,0.000000,4.000000,,,,0.000000,4.000000,4.000000,4.000000,4.000000,4.000000,,,,,,,,,,,,,,,,,,,,,,,,,
1577421144.502442,54.000000,0.000000,4221.538574,4243.077148,4104.102539,4140.000000,4257.948730,0.000000,4.000000,,,,0.000000,4.000000,4.000000,4.000000,4.000000,4.000000,,,,,,,,,,,,,,,,,,,,,,,,,
1577421144.510239,55.000000,0.000000,4240.000000,4235.897461,4118.974121,4132.307617,4271.794922,0.000000,4.000000,,,,0.000000,4.000000,4.000000,4.000000,4.000000,4.000000,,,,,,,,,,,,,,,,,,,,,,,,,
1577421144.518035,56.000000,0.000000,4228.717773,4227.179688,4110.256348,4113.333496,4248.717773,0.000000,4.000000,,,,0.000000,4.000000,4.000000,4.000000,4.000000,4.000000,,,,,,,,,,,,,,,,,,,,,,,,,
1577421144.525732,57.000000,0.000000,4216.410156,4238.974121,4101.025879,4124.102539,4232.307617,0.000000,4.000000,,,,0.000000,4.000000,4.000000,4.000000,4.000000,4.000000,8.230747,6.629166,3.291456,2.494790,4.017459,22.507219,3.698719,1.278323,1.550467,2.024480,26.198143,8.649569,3.293025,1.889523,2.282807,5.542562,5.242295,3.137061,2.242534,3.891100,7.031367,7.412220,3.608912,2.286596,3.465656
1577421144.533528,58.000000,0.000000,4235.384766,4249.743652,4117.948730,4143.077148,4251.794922,0.000000,4.000000,,,,0.000000,4.000000,4.000000,4.000000,4.000000,4.000000,,,,,,,,,,,,,,,,,,,,,,,,,
1577421144.541225,59.000000,0.000000,4245.128418,4232.307617,4115.897461,4118.974121,4252.820313,0.000000,4.000000,,,,0.000000,4.000000,4.000000,4.000000,4.000000,4.000000,,,,,,,,,,,,,,,,,,,,,,,,,
1577421144.549121,60.000000,0.000000,4234.358887,4235.384766,4116.410156,4100.512695,4237.436035,0.000000,4.000000,,,,0.000000,4.000000,4.000000,4.000000,4.000000,4.000000,,,,,,,,,,,,,,,,,,,,,,,,,
1577421144.556918,61.000000,0.000000,4214.871582,4241.538574,4121.538574,4113.333496,4225.641113,0.000000,4.000000,,,,0.000000,4.000000,4.000000,4.000000,4.000000,4.000000,,,,,,,,,,,,,,,,,,,,,,,,,
1577421144.564714,62.000000,0.000000,4222.051270,4238.974121,4119.487305,4130.769043,4236.410156,0.000000,4.000000,,,,0.000000,4.000000,4.000000,4.000000,4.000000,4.000000,,,,,,,,,,,,,,,,,,,,,,,,,
1577421144.572411,63.000000,0.000000,4251.794922,4247.179688,4126.153809,4130.256348,4254.871582,0.000000,4.000000,,,,0.000000,4.000000,4.000000,4.000000,4.000000,4.000000,,,,,,,,,,,,,,,,,,,,,,,,,
1577421144.580207,64.000000,0.000000,4249.743652,4230.256348,4112.307617,4113.333496,4246.153809,450.000000,4.000000,,,,0.000000,4.000000,4.000000,4.000000,4.000000,4.000000,,,,,,,,,,,,,,,,,,,,,,,,,
1577421144.587903,65.000000,0.000000,4252.820313,4222.051270,4110.769043,4115.384766,4263.589844,450.000000,4.000000,,,,0.000000,4.000000,4.000000,4.000000,4.000000,4.000000,,,,,,,,,,,,,,,,,,,,,,,,,
1577421144.595700,66.000000,0.000000,4265.128418,4230.769043,4126.153809,4116.922852,4289.230957,16195.000000,4.000000,,,,0.000000,4.000000,4.000000,4.000000,4.000000,4.000000,,,,,,,,,,,,,,,,,,,,,,,,,
1577421144.603396,67.000000,0.000000,4259.487305,4228.205078,4130.256348,4109.230957,4284.615234,450.000000,4.000000,,,,0.000000,4.000000,4.000000,4.000000,4.000000,4.000000,,,,,,,,,,,,,,,,,,,,,,,,,
1577421144.611292,68.000000,0.000000,4305.641113,4249.743652,4166.666504,4135.897461,4323.589844,16178.000000,4.000000,,,,0.000000,4.000000,4.000000,4.000000,4.000000,4.000000,,,,,,,,,,,,,,,,,,,,,,,,,
1577421144.619089,69.000000,0.000000,4353.333496,4268.205078,4199.487305,4170.256348,4358.461426,450.000000,4.000000,,,,0.000000,4.000000,4.000000,4.000000,4.000000,4.000000,,,,,,,,,,,,,,,,,,,,,,,,,
1577421144.626885,70.000000,0.000000,4319.487305,4248.205078,4180.512695,4170.256348,4318.974121,16201.000000,4.000000,,,,0.000000,4.000000,4.000000,4.000000,4.000000,4.000000,,,,,,,,,,,,,,,,,,,,,,,,,
1577421144.634582,71.000000,0.000000,4276.922852,4232.307617,4161.538574,4147.179688,4284.102539,450.000000,4.000000,,,,0.000000,4.000000,4.000000,4.000000,4.000000,4.000000,,,,,,,,,,,,,,,,,,,,,,,,,
1577421144.642378,72.000000,0.000000,4291.282227,4251.794922,4181.538574,4155.384766,4309.743652,450.000000,4.000000,,,,0.000000,4.000000,4.000000,4.000000,4.000000,4.000000,,,,,,,,,,,,,,,,,,,,,,,,,
1577421144.650075,73.000000,0.000000,4314.871582,4264.102539,4205.641113,4173.846191,4337.436035,16182.000000,4.000000,,,,0.000000,4.000000,4.000000,4.000000,4.000000,4.000000,6.395936,5.467580,3.599106,2.227420,3.723007,17.250235,2.879221,1.229127,1.450170,2.013160,25.293455,7.460001,3.532154,1.982250,2.210893,5.786948,4.734186,3.521286,2.208521,3.911867,6.708175,6.552913,3.626156,2.329801,3.096512
1577421144.657871,74.000000,0.000000,4290.256348,4242.563965,4188.717773,4142.563965,4306.666504,450.000000,4.000000,,,,0.000000,4.000000,4.000000,4.000000,4.000000,4.000000,,,,,,,,,,,,,,,,,,,,,,,,,
1577421144.665567,75.000000,0.000000,4276.410156,4254.871582,4185.128418,4134.871582,4287.179688,16199.000000,4.000000,,,,0.000000,4.000000,4.000000,4.000000,4.000000,4.000000,,,,,,,,,,,,,,,,,,,,,,,,,
1577421144.673464,76.000000,0.000000,4297.948730,4279.487305,4209.230957,4148.205078,4302.563965,450.000000,4.000000,,,,0.000000,4.000000,4.000000,4.000000,4.000000,4.000000,,,,,,,,,,,,,,,,,,,,,,,,,
1577421144.681260,77.000000,0.000000,4286.153809,4248.717773,4203.589844,4131.794922,4291.794922,450.000000,4.000000,,,,0.000000,4.000000,4.000000,4.000000,4.000000,4.000000,,,,,,,,,,,,,,,,,,,,,,,,,
1577421144.689157,78.000000,0.000000,4270.256348,4238.974121,4202.563965,4156.410156,4290.769043,450.000000,4.000000,,,,0.000000,4.000000,4.000000,4.000000,4.000000,4.000000,,,,,,,,,,,,,,,,,,,,,,,,,
1577421144.696953,79.000000,0.000000,4272.307617,4271.282227,4212.820313,4176.922852,4300.000000,16199.000000,4.000000,,,,0.000000,4.000000,4.000000,4.000000,4.000000,4.000000,,,,,,,,,,,,,,,,,,,,,,,,,
1577421144.704750,80.000000,0.000000,4275.384766,4278.974121,4212.307617,4153.333496,4301.025879,450.000000,4.000000,,,,0.000000,4.000000,4.000000,4.000000,4.000000,4.000000,,,,,,,,,,,,,,,,,,,,,,,,,
1577421144.712546,81.000000,0.000000,4290.769043,4271.794922,4220.000000,4158.974121,4311.794922,450.000000,4.000000,,,,0.000000,4.000000,4.000000,4.000000,4.000000,4.000000,,,,,,,,,,,,,,,,,,,,,,,,,
1577421144.720243,82.000000,0.000000,4286.666504,4269.230957,4222.051270,4180.000000,4296.922852,450.000000,4.000000,,,,0.000000,4.000000,4.000000,4.000000,4.000000,4.000000,,,,,,,,,,,,,,,,,,,,,,,,,
1577421144.728139,83.000000,0.000000,4276.410156,4267.179688,4225.128418,4168.717773,4281.538574,16199.000000,4.000000,,,,0.000000,4.000000,4.000000,4.000000,4.000000,4.000000,,,,,,,,,,,,,,,,,,,,,,,,,
1577421144.735936,84.000000,0.000000,4262.051270,4256.410156,4217.436035,4133.333496,4274.358887,450.000000,4.000000,,,,0.000000,4.000000,4.000000,4.000000,4.000000,4.000000,,,,,,,,,,,,,,,,,,,,,,,,,
1577421144.743732,85.000000,0.000000,4235.897461,4253.333496,4194.871582,4137.436035,4262.563965,450.000000,4.000000,,,,0.000000,4.000000,4.000000,4.000000,4.000000,4.000000,,,,,,,,,,,,,,,,,,,,,,,,,
1577421144.751429,86.000000,0.000000,4238.461426,4265.641113,4190.256348,4158.974121,4261.025879,450.000000,4.000000,,,,0.000000,4.000000,4.000000,4.000000,4.000000,4.000000,,,,,,,,,,,,,,,,,,,,,,,,,
1577421144.759225,87.000000,0.000000,4221.538574,4231.282227,4169.230957,4114.358887,4225.128418,16199.000000,4.000000,,,,0.000000,4.000000,4.000000,4.000000,4.000000,4.000000,,,,,,,,,,,,,,,,,,,,,,,,,
1577421144.766921,88.000000,0.000000,4255.384766,4254.871582,4211.282227,4139.487305,4259.487305,450.000000,4.000000,,,,0.000000,4.000000,4.000000,4.000000,4.000000,4.000000,,,,,,,,,,,,,,,,,,,,,,,,,
1577421144.774718,89.000000,0.000000,4385.641113,4375.384766,4340.512695,4223.589844,4354.871582,450.000000,4.000000,,,,0.000000,4.000000,4.000000,4.000000,4.000000,4.000000,4.945237,4.971251,3.571656,2.020586,3.662884,13.620830,2.229741,1.160003,1.410938,2.192266,22.959623,6.243460,3.383257,2.154406,2.354123,5.836271,4.654388,3.802034,2.486618,4.068637,6.440331,5.811081,3.322511,2.489700,2.925573
1577421144.782414,90.000000,0.000000,4140.512695,4171.282227,4113.333496,4058.974365,4142.563965,450.000000,4.000000,,,,0.000000,4.000000,4.000000,4.000000,4.000000,4.000000,,,,,,,,,,,,,,,,,,,,,,,,,
1577421144.790210,91.000000,0.000000,4241.538574,4285.128418,4212.307617,4253.846191,4307.179688,16199.000000,4.000000,,,,0.000000,4.000000,4.000000,4.000000,4.000000,4.000000,,,,,,,,,,,,,,,,,,,,,,,,,
1577421144.797907,92.000000,0.000000,4791.794922,4709.230957,4705.641113,4433.333496,4646.153809,450.000000,4.000000,,,,0.000000,4.000000,4.000000,4.000000,4.000000,4.000000,,,,,,,,,,,,,,,,,,,,,,,,,
1577421144.805703,93.000000,0.000000,4396.922852,4309.230957,4307.692383,4001.538574,4253.846191,450.000000,4.000000,,,,0.000000,4.000000,4.000000,4.000000,4.000000,4.000000,,,,,,,,,,,,,,,,,,,,,,,,,
1577421144.813399,94.000000,0.000000,4268.717773,4228.205078,4171.794922,4272.307617,4394.871582,450.000000,4.000000,,,,0.000000,4.000000,4.000000,4.000000,4.000000,4.000000,,,,,,,,,,,,,,,,,,,,,,,,,
1577421144.821196,95.000000,0.000000,4580.512695,4489.230957,4459.487305,4489.743652,4636.410156,16199.000000,4.000000,,,,0.000000,4.000000,4.000000,4.000000,4.000000,4.000000,,,,,,,,,,,,,,,,,,,,,,,,,
1577421144.828892,96.000000,0.000000,4288.205078,4230.256348,4205.641113,4122.563965,4289.230957,450.000000,4.000000,,,,0.000000,4.000000,4.000000,4.000000,4.000000,4.000000,,,,,,,,,,,,,,,,,,,,,,,,,
1577421144.836688,97.000000,0.000000,4284.102539,4254.871582,4202.051270,4227.692383,4357.436035,450.000000,4.000000,,,,0.000000,4.000000,4.000000,4.000000,4.000000,4.000000,,,,,,,,,,,,,,,,,,,,,,,,,
1577421144.844385,98.000000,0.000000,4324.615234,4294.358887,4227.692383,4227.692383,4356.410156,450.000000,4.000000,,,,0.000000,4.000000,4.000000,4.000000,4.000000,4.000000,,,,,,,,,,,,,,,,,,,,,,,,,
1577421144.852281,99.000000,0.000000,4215.897461,4211.794922,4138.461426,4127.179688,4243.589844,16199.000000,4.000000,,,,0.000000,4.000000,4.000000,4.000000,4.000000,4.000000,,,,,,,,,,,,,,,,,,,,,,,,,
1577421144.860078,100.000000,0.000000,4261.538574,4256.410156,4189.230957,4160.512695,4289.230957,450.000000,4.000000,,,,0.000000,4.000000,4.000000,4.000000,4.000000,4.000000,,,,,,,,,,,,,,,,,,,,,,,,,
1577421144.867974,101.000000,0.000000,4252.820313,4257.948730,4183.077148,4143.589844,4272.820313,450.000000,4.000000,,,,0.000000,4.000000,4.000000,4.000000,4.000000,4.000000,,,,,,,,,,,,,,,,,,,,,,,,,
1577421144.875771,102.000000,0.000000,4236.410156,4255.384766,4173.333496,4165.128418,4260.512695,450.000000,4.000000,,,,0.000000,4.000000,4.000000,4.000000,4.000000,4.000000,,,,,,,,,,,,,,,,,,,,,,,,,
1577421144.883667,103.000000,0.000000,4215.897461,4235.897461,4156.922852,4151.794922,4234.871582,16199.000000,4.000000,,,,0.000000,4.000000,4.000000,4.000000,4.000000,4.000000,,,,,,,,,,,,,,,,,,,,,,,,,
1577421144.891464,104.000000,0.000000,4218.461426,4241.025879,4158.461426,4135.384766,4236.922852,450.000000,4.000000,,,,0.000000,4.000000,4.000000,4.000000,4.000000,4.000000,,,,,,,,,,,,,,,,,,,,,,,,,
1577421144.899360,105.000000,0.000000,4207.692383,4242.563965,4157.436035,4134.358887,4229.743652,450.000000,4.000000,,,,0.000000,4.000000,4.000000,4.000000,4.000000,4.000000,3.943560,5.085855,3.231029,1.898839,3.616084,11.032675,1.707353,1.050590,1.435957,2.371222,19.681238,5.055312,2.864849,2.346943,2.500458,5.590534,5.039979,3.946122,3.003526,4.131158,6.599779,5.462813,2.763114,2.679800,2.824347
1577421144.907157,106.000000,0.000000,4184.102539,4229.230957,4148.717773,4118.461426,4213.333496,450.000000,4.000000,,,,0.000000,4.000000,4.000000,4.000000,4.000000,4.000000,,,,,,,,,,,,,,,,,,,,,,,,,
1577421144.915053,107.000000,0.000000,4211.794922,4255.897461,4172.307617,4114.871582,4242.051270,16199.000000,4.000000,,,,0.000000,4.000000,4.000000,4.000000,4.000000,4.000000,,,,,,,,,,,,,,,,,,,,,,,,,
1577421144.922849,108.000000,0.000000,4250.256348,4279.487305,4199.487305,4159.487305,4273.333496,450.000000,4.000000,,,,0.000000,4.000000,4.000000,4.000000,4.000000,4.000000,,,,,,,,,,,,,,,,,,,,,,,,,
1577421144.930546,109.000000,0.000000,4247.179688,4257.948730,4194.358887,4193.846191,4269.230957,450.000000,4.000000,,,,0.000000,4.000000,4.000000,4.000000,4.000000,4.000000,,,,,,,,,,,,,,,,,,,,,,,,,
1577421144.938342,110.000000,0.000000,4215.384766,4241.025879,4168.205078,4156.410156,4240.000000,450.000000,4.000000,,,,0.000000,4.000000,4.000000,4.000000,4.000000,4.000000,,,,,,,,,,,,,,,,,,,,,,,,,
1577421144.946039,111.000000,0.000000,4197.948730,4244.102539,4151.282227,4112.307617,4216.410156,16199.000000,4.000000,,,,0.000000,4.000000,4.000000,4.000000,4.000000,4.000000,,,,,,,,,,,,,,,,,,,,,,,,,
1577421144.953835,112.000000,0.000000,4221.025879,4246.153809,4166.153809,4144.102539,4235.384766,450.000000,4.000000,,,,0.000000,4.000000,4.000000,4.000000,4.000000,4.000000,,,,,,,,,,,,,,,,,,,,,,,,,
1577421144.961531,113.000000,0.000000,4253.333496,4257.436035,4192.820313,4180.512695,4269.230957,450.000000,4.000000,,,,0.000000,4.000000,4.000000,4.000000,4.000000,4.000000,,,,,,,,,,,,,,,,,,,,,,,,,
1577421144.969327,114.000000,0.000000,4235.384766,4264.615234,4180.000000,4143.077148,4250.769043,450.000000,4.000000,,,,0.000000,4.000000,4.000000,4.000000,4.000000,4.000000,,,,,,,,,,,,,,,,,,,,,,,,,
1577421144.977024,115.000000,0.000000,4197.948730,4252.307617,4153.846191,4112.307617,4213.333496,16199.000000,4.000000,,,,0.000000,4.000000,4.000000,4.000000,4.000000,4.000000,,,,,,,,,,,,,,,,,,,,,,,,,
1577421144.984920,116.000000,0.000000,4204.102539,4250.769043,4170.769043,4144.615234,4225.641113,450.000000,4.000000,,,,0.000000,4.000000,4.000000,4.000000,4.000000,4.000000,,,,,,,,,,,,,,,,,,,,,,,,,
1577421144.992717,117.000000,0.000000,4243.589844,4275.897461,4212.307617,4187.692383,4265.641113,450.000000,4.000000,,,,0.000000,4.000000,4.000000,4.000000,4.000000,4.000000,,,,,,,,,,,,,,,,,,,,,,,,,
1577421145.000613,118.000000,0.000000,4254.358887,4284.615234,4224.102539,4190.769043,4273.846191,450.000000,4.000000,,,,0.000000,4.000000,4.000000,4.000000,4.000000,4.000000,,,,,,,,,,,,,,,,,,,,,,,,,
1577421145.008410,119.000000,0.000000,4234.358887,4271.794922,4211.282227,4180.000000,4256.922852,16199.000000,4.000000,,,,0.000000,4.000000,4.000000,4.000000,4.000000,4.000000,,,,,,,,,,,,,,,,,,,,,,,,,
1577421145.016206,120.000000,0.000000,4243.077148,4279.487305,4218.461426,4166.153809,4261.538574,450.000000,4.000000,,,,0.000000,4.000000,4.000000,4.000000,4.000000,4.000000,,,,,,,,,,,,,,,,,,,,,,,,,
1577421145.023903,121.000000,0.000000,4249.230957,4283.589844,4214.871582,4132.820313,4258.461426,450.000000,4.000000,,,,0.000000,4.000000,4.000000,4.000000,4.000000,4.000000,4.195211,6.144990,2.848599,1.895236,4.042670,9.169723,1.532406,1.029163,1.537447,2.850246,16.248755,4.353284,2.271108,2.513179,3.003829,5.337262,5.836760,4.001058,3.601765,4.322213,7.893236,6.019532,2.162273,2.790673,3.075792
1577421145.031799,122.000000,0.000000,4230.256348,4274.358887,4204.102539,4147.692383,4248.717773,450.000000,4.000000,,,,0.000000,4.000000,4.000000,4.000000,4.000000,4.000000,,,,,,,,,,,,,,,,,,,,,,,,,
1577421145.039696,123.000000,0.000000,4234.358887,4280.000000,4220.512695,4177.948730,4253.846191,16199.000000,4.000000,,,,0.000000,4.000000,4.000000,4.000000,4.000000,4.000000,,,,,,,,,,,,,,,,,,,,,,,,,
1577421145.047492,124.000000,0.000000,4217.948730,4263.589844,4195.897461,4141.025879,4228.717773,450.000000,4.000000,,,,0.000000,4.000000,4.000000,4.000000,4.000000,4.000000,,,,,,,,,,,,,,,,,,,,,,,,,
1577421145.055388,125.000000,0.000000,4197.436035,4260.512695,4171.794922,4138.461426,4218.974121,450.000000,4.000000,,,,0.000000,4.000000,4.000000,4.000000,4.000000,4.000000,,,,,,,,,,,,,,,,,,,,,,,,,
1577421145.063185,126.000000,0.000000,4224.615234,4291.794922,4209.743652,4186.153809,4241.538574,450.000000,4.000000,,,,0.000000,4.000000,4.000000,4.000000,4.000000,4.000000,,,,,,,,,,,,,,,,,,,,,,,,,
1577421145.070982,127.000000,0.000000,4197.436035,4258.974121,4183.589844,4131.794922,4212.820313,235.000000,4.000000,,,,0.000000,4.000000,4.000000,4.000000,4.000000,4.000000,,,,,,,,,,,,,,,,,,,,,,,,,
1577421145.078878,0.000000,0.000000,4153.846191,4231.794922,4134.358887,4083.076904,4187.179688,450.000000,4.000000,,,,0.000000,4.000000,4.000000,4.000000,4.000000,4.000000,,,,,,,,,,,,,,,,,,,,,,,,,
1577421145.086774,1.000000,0.000000,4268.717773,4350.769043,4245.641113,4176.410156,4261.025879,450.000000,4.000000,,,,0.000000,4.000000,4.000000,4.000000,4.000000,4.000000,,,,,,,,,,,,,,,,,,,,,,,,,
1577421145.094571,2.000000,0.000000,4418.974121,4458.461426,4385.128418,4246.153809,4341.025879,16218.000000,4.000000,,,,0.000000,4.000000,4.000000,4.000000,4.000000,4.000000,,,,,,,,,,,,,,,,,,,,,,,,,
1577421145.102467,3.000000,0.000000,4399.487305,4397.436035,4343.077148,4213.333496,4334.871582,450.000000,4.000000,,,,0.000000,4.000000,4.000000,4.000000,4.000000,4.000000,,,,,,,,,,,,,,,,,,,,,,,,,
1577421145.110264,4.000000,0.000000,4355.897461,4341.538574,4278.461426,4221.538574,4362.563965,16209.000000,4.000000,,,,0.000000,4.000000,4.000000,4.000000,4.000000,4.000000,,,,,,,,,,,,,,,,,,,,,,,,,
1577421145.118160,5.000000,0.000000,4401.538574,4380.512695,4317.436035,4278.461426,4428.717773,450.000000,4.000000,,,,0.000000,4.000000,4.000000,4.000000,4.000000,4.000000,,,,,,,,,,,,,,,,,,,,,,,,,
1577421145.125957,6.000000,0.000000,4367.179688,4350.256348,4288.205078,4250.769043,4381.538574,16142.000000,4.000000,,,,0.000000,4.000000,4.000000,4.000000,4.000000,4.000000,,,,,,,,,,,,,,,,,,,,,,,,,
1577421145.133853,7.000000,0.000000,4294.871582,4300.000000,4223.077148,4200.512695,4318.974121,450.000000,4.000000,,,,0.000000,4.000000,4.000000,4.000000,4.000000,4.000000,,,,,,,,,,,,,,,,,,,,,,,,,
1577421145.141650,8.000000,0.000000,4291.282227,4316.410156,4224.615234,4191.794922,4314.871582,450.000000,4.000000,,,,0.000000,4.000000,4.000000,4.000000,4.000000,4.000000,,,,,,,,,,,,,,,,,,,,,,,,,
1577421145.149546,9.000000,0.000000,4262.563965,4300.512695,4206.666504,4169.743652,4278.461426,16140.000000,4.000000,,,,0.000000,4.000000,4.000000,4.000000,4.000000,4.000000,8.164040,8.883846,3.096186,2.163861,6.236104,8.232337,2.278893,1.481494,1.809433,4.540677,14.367456,5.111883,2.314033,2.722694,4.978432,5.963700,7.030079,4.085615,4.131842,5.523213,12.086472,8.225767,1.865711,2.790416,4.502274
1577421145.157443,10.000000,0.000000,4232.307617,4283.077148,4187.692383,4172.307617,4250.256348,450.000000,4.000000,,,,0.000000,4.000000,4.000000,4.000000,4.000000,4.000000,,,,,,,,,,,,,,,,,,,,,,,,,
1577421145.165239,11.000000,0.000000,4231.282227,4288.717773,4193.333496,4175.384766,4250.256348,16199.000000,4.000000,,,,0.000000,4.000000,4.000000,4.000000,4.000000,4.000000,,,,,,,,,,,,,,,,,,,,,,,,,
1577421145.173036,12.000000,0.000000,4229.743652,4285.641113,4195.897461,4161.025879,4254.871582,450.000000,4.000000,,,,0.000000,4.000000,4.000000,4.000000,4.000000,4.000000,,,,,,,,,,,,,,,,,,,,,,,,,
1577421145.180932,13.000000,0.000000,4216.922852,4276.922852,4183.589844,4138.974121,4234.871582,450.000000,4.000000,,,,0.000000,4.000000,4.000000,4.000000,4.000000,4.000000,,,,,,,,,,,,,,,,,,,,,,,,,
1577421145.188729,14.000000,0.000000,4191.794922,4267.692383,4160.000000,4120.512695,4194.871582,450.000000,4.000000,,,,0.000000,4.000000,4.000000,4.000000,4.000000,4.000000,,,,,,,,,,,,,,,,,,,,,,,,,
1577421145.196625,15.000000,0.000000,4193.846191,4271.282227,4158.974121,4135.384766,4196.410156,16199.000000,4.000000,,,,0.000000,4.000000,4.000000,4.000000,4.000000,4.000000,,,,,,,,,,,,,,,,,,,,,,,,,
1577421145.204422,16.000000,0.000000,4198.461426,4272.820313,4160.000000,4130.256348,4202.051270,0.000000,4.000000,,,,0.000000,4.000000,4.000000,4.000000,4.000000,4.000000,,,,,,,,,,,,,,,,,,,,,,,,,
1577421145.212318,17.000000,0.000000,4187.692383,4268.717773,4152.307617,4120.512695,4188.717773,0.000000,4.000000,,,,0.000000,4.000000,4.000000,4.000000,4.000000,4.000000,,,,,,,,,,,,,,,,,,,,,,,,,
1577421145.220115,18.000000,0.000000,4194.358887,4270.769043,4165.641113,4154.358887,4200.000000,0.000000,4.000000,,,,0.000000,4.000000,4.000000,4.000000,4.000000,4.000000,,,,,,,,,,,,,,,,,,,,,,,,,
1577421145.228011,19.000000,0.000000,4214.358887,4273.333496,4181.538574,4178.974121,4225.641113,0.000000,4.000000,,,,0.000000,4.000000,4.000000,4.000000,4.000000,4.000000,,,,,,,,,,,,,,,,,,,,,,,,,
1577421145.235907,20.000000,0.000000,4220.000000,4264.615234,4176.410156,4166.153809,4230.769043,0.000000,4.000000,,,,0.000000,4.000000,4.000000,4.000000,4.000000,4.000000,,,,,,,,,,,,,,,,,,,,,,,,,
1577421145.243704,21.000000,0.000000,4209.230957,4261.538574,4160.512695,4148.205078,4221.025879,0.000000,4.000000,,,,0.000000,4.000000,4.000000,4.000000,4.000000,4.000000,,,,,,,,,,,,,,,,,,,,,,,,,
1577421145.251500,22.000000,0.000000,4202.563965,4272.307617,4152.820313,4145.641113,4218.974121,0.000000,4.000000,,,,0.000000,4.000000,4.000000,4.000000,4.000000,4.000000,,,,,,,,,,,,,,,,,,,,,,,,,
1577421145.259397,23.000000,0.000000,4209.230957,4276.410156,4152.820313,4151.282227,4220.000000,0.000000,4.000000,,,,0.000000,4.000000,4.000000,4.000000,4.000000,4.000000,,,,,,,,,,,,,,,,,,,,,,,,,
1577421145.267293,24.000000,0.000000,4207.179688,4260.512695,4138.461426,4143.077148,4206.153809,0.000000,4.000000,,,,0.000000,4.000000,4.000000,4.000000,4.000000,4.000000,,,,,,,,,,,,,,,,,,,,,,,,,
1577421145.275090,25.000000,0.000000,4198.461426,4251.794922,4117.948730,4128.717773,4191.282227,0.000000,4.000000,,,,0.000000,4.000000,4.000000,4.000000,4.000000,4.000000,18.220755,13.799113,4.696255,2.930011,11.364371,8.977828,4.489561,2.762282,2.395398,8.279024,15.612834,8.180613,3.644745,3.148418,9.482410,8.390651,8.651735,4.262198,4.516101,8.653812,20.654278,12.611297,2.161602,2.741923,7.865016
1577421145.282986,26.000000,0.000000,4216.922852,4274.871582,4127.692383,4138.461426,4208.717773,0.000000,4.000000,,,,0.000000,4.000000,4.000000,4.000000,4.000000,4.000000,,,,,,,,,,,,,,,,,,,,,,,,,
1577421145.290883,27.000000,0.000000,4226.153809,4285.128418,4137.948730,4152.307617,4225.128418,0.000000,4.000000,,,,0.000000,4.000000,4.000000,4.000000,4.000000,4.000000,,,,,,,,,,,,,,,,,,,,,,,,,
1577421145.298679,28.000000,0.000000,4205.641113,4264.102539,4124.615234,4136.922852,4207.179688,0.000000,4.000000,,,,0.000000,4.000000,4.000000,4.000000,4.000000,4.000000,,,,,,,,,,,,,,,,,,,,,,,,,
1577421145.306576,29.000000,0.000000,4210.256348,4265.641113,4127.692383,4130.769043,4202.051270,0.000000,4.000000,,,,0.000000,4.000000,4.000000,4.000000,4.000000,4.000000,,,,,,,,,,,,,,,,,,,,,,,,,
1577421145.314372,30.000000,0.000000,4222.563965,4290.769043,4140.000000,4141.538574,4218.461426,0.000000,4.000000,,,,0.000000,4.000000,4.000000,4.000000,4.000000,4.000000,,,,,,,,,,,,,,,,,,,,,,,,,
1577421145.322269,31.000000,0.000000,4207.179688,4292.820313,4133.333496,4134.871582,4208.717773,0.000000,4.000000,,,,0.000000,4.000000,4.000000,4.000000,4.000000,4.000000,,,,,,,,,,,,,,,,,,,,,,,,,
1577421145.330065,32.000000,0.000000,4197.948730,4275.897461,4131.794922,4130.256348,4188.717773,0.000000,4.000000,,,,0.000000,4.000000,4.000000,4.000000,4.000000,4.000000,,,,,,,,,,,,,,,,,,,,,,,,,
1577421145.337961,33.000000,0.000000,4208.717773,4280.000000,4146.666504,4141.538574,4196.922852,0.000000,4.000000,,,,0.000000,4.000000,4.000000,4.000000,4.000000,4.000000,,,,,,,,,,,,,,,,,,,,,,,,,
1577421145.345758,34.000000,0.000000,4200.000000,4280.000000,4145.128418,4136.410156,4194.871582,0.000000,4.000000,,,,0.000000,4.000000,4.000000,4.000000,4.000000,4.000000,,,,,,,,,,,,,,,,,,,,,,,,,
1577421145.353654,35.000000,0.000000,4187.179688,4268.205078,4135.897461,4124.615234,4182.563965,0.000000,4.000000,,,,0.000000,4.000000,4.000000,4.000000,4.000000,4.000000,,,,,,,,,,,,,,,,,,,,,,,,,
1577421145.361451,36.000000,0.000000,4189.743652,4263.077148,4133.333496,4128.717773,4185.641113,0.000000,4.000000,,,,0.000000,4.000000,4.000000,4.000000,4.000000,4.000000,,,,,,,,,,,,,,,,,,,,,,,,,
1577421145.369347,37.000000,0.000000,4186.153809,4258.461426,4121.025879,4114.358887,4181.025879,0.000000,4.000000,,,,0.000000,4.000000,4.000000,4.000000,4.000000,4.000000,,,,,,,,,,,,,,,,,,,,,,,,,
1577421145.377144,38.000000,0.000000,4197.436035,4270.256348,4121.025879,4110.769043,4190.256348,0.000000,4.000000,,,,0.000000,4.000000,4.000000,4.000000,4.000000,4.000000,,,,,,,,,,,,,,,,,,,,,,,,,
1577421145.385040,39.000000,0.000000,4219.487305,4283.077148,4135.384766,4144.102539,4212.820313,0.000000,4.000000,,,,0.000000,4.000000,4.000000,4.000000,4.000000,4.000000,,,,,,,,,,,,,,,,,,,,,,,,,
1577421145.392937,40.000000,0.000000,4222.051270,4270.769043,4135.897461,4157.436035,4220.512695,0.000000,4.000000,,,,0.000000,4.000000,4.000000,4.000000,4.000000,4.000000,,,,,,,,,,,,,,,,,,,,,,,,,
1577421145.400734,41.000000,0.000000,4211.282227,4263.077148,4123.077148,4147.179688,4215.384766,0.000000,4.000000,,,,0.000000,4.000000,4.000000,4.000000,4.000000,4.000000,35.156250,21.014114,8.063207,4.325626,19.460693,12.124465,8.338795,4.992395,3.389166,14.113238,21.099100,13.908689,6.513009,3.963968,16.614248,13.197855,10.803122,4.483034,4.783138,13.934465,34.249043,19.296448,3.261139,2.775918,13.191311
1577421145.408630,42.000000,0.000000,4186.666504,4258.974121,4100.000000,4140.512695,4191.282227,0.000000,4.000000,,,,0.000000,4.000000,4.000000,4.000000,4.000000,4.000000,,,,,,,,,,,,,,,,,,,,,,,,,
1577421145.416427,43.000000,0.000000,4161.025879,4237.436035,4077.435791,4125.641113,4163.077148,0.000000,4.000000,,,,0.000000,4.000000,4.000000,4.000000,4.000000,4.000000,,,,,,,,,,,,,,,,,,,,,,,,,
1577421145.424323,44.000000,0.000000,4166.153809,4241.538574,4088.205078,4114.871582,4164.102539,0.000000,4.000000,,,,0.000000,4.000000,4.000000,4.000000,4.000000,4.000000,,,,,,,,,,,,,,,,,,,,,,,,,
