title:sc5, start timestamp:2019-12-27T07:33:03.353254+03:00, stop timestamp:2019-12-27T07:33:34.222031+03:00, headset type:INSIGHT, headset serial:A2D200FB, headset firmware:930, subject name:Qasim, channels:44, sampling rate:eeg_128;pow_8, samples:3958      , version:2.0
Timestamp,EEG.Counter,EEG.Interpolated,EEG.AF3,EEG.T7,EEG.Pz,EEG.T8,EEG.AF4,EEG.RawCq,EEG.Battery,MarkerIndex,MarkerType,MarkerValueInt,EEG.MarkerHardware,CQ.AF3,CQ.T7,CQ.Pz,CQ.T8,CQ.AF4,POW.AF3.Theta,POW.AF3.Alpha,POW.AF3.BetaL,POW.AF3.BetaH,POW.AF3.Gamma,POW.T7.Theta,POW.T7.Alpha,POW.T7.BetaL,POW.T7.BetaH,POW.T7.Gamma,POW.Pz.Theta,POW.Pz.Alpha,POW.Pz.BetaL,POW.Pz.BetaH,POW.Pz.Gamma,POW.T8.Theta,POW.T8.Alpha,POW.T8.BetaL,POW.T8.BetaH,POW.T8.Gamma,POW.AF4.Theta,POW.AF4.Alpha,POW.AF4.BetaL,POW.AF4.BetaH,POW.AF4.Gamma
1577421183.353254,44.000000,0.000000,4262.563965,4283.589844,4181.538574,4141.025879,4238.461426,0.000000,4.000000,,,,0.000000,4.000000,4.000000,4.000000,4.000000,4.000000,,,,,,,,,,,,,,,,,,,,,,,,,
1577421183.360951,45.000000,0.000000,4273.846191,4269.230957,4166.153809,4111.282227,4229.743652,0.000000,4.000000,,,,0.000000,4.000000,4.000000,4.000000,4.000000,4.000000,,,,,,,,,,,,,,,,,,,,,,,,,
1577421183.368848,46.000000,0.000000,4279.487305,4280.512695,4186.666504,4138.974121,4227.179688,0.000000,4.000000,,,,0.000000,4.000000,4.000000,4.000000,4.000000,4.000000,,,,,,,,,,,,,,,,,,,,,,,,,
1577421183.376645,47.000000,0.000000,4288.205078,4287.179688,4197.948730,4167.179688,4230.769043,0.000000,4.000000,,,,0.000000,4.000000,4.000000,4.000000,4.000000,4.000000,,,,,,,,,,,,,,,,,,,,,,,,,
1577421183.384441,48.000000,0.000000,4291.282227,4273.333496,4194.871582,4150.256348,4226.153809,0.000000,4.000000,,,,0.000000,4.000000,4.000000,4.000000,4.000000,4.000000,,,,,,,,,,,,,,,,,,,,,,,,,
1577421183.392238,49.000000,0.000000,4277.436035,4260.512695,4185.128418,4101.538574,4205.128418,0.000000,4.000000,,,,0.000000,4.000000,4.000000,4.000000,4.000000,4.000000,,,,,,,,,,,,,,,,,,,,,,,,,
1577421183.400035,50.000000,0.000000,4271.282227,4266.153809,4185.128418,4090.769287,4198.974121,0.000000,4.000000,,,,0.000000,4.000000,4.000000,4.000000,4.000000,4.000000,,,,,,,,,,,,,,,,,,,,,,,,,
1577421183.407732,51.000000,0.000000,4278.461426,4281.538574,4197.436035,4120.512695,4207.179688,0.000000,4.000000,,,,0.000000,4.000000,4.000000,4.000000,4.000000,4.000000,,,,,,,,,,,,,,,,,,,,,,,,,
1577421183.415628,52.000000,0.000000,4274.358887,4292.820313,4195.897461,4121.025879,4197.436035,0.000000,4.000000,,,,0.000000,4.000000,4.000000,4.000000,4.000000,4.000000,,,,,,,,,,,,,,,,,,,,,,,,,
1577421183.423425,53.000000,0.000000,4285.641113,4312.820313,4203.589844,4120.512695,4202.563965,0.000000,4.000000,,,,0.000000,4.000000,4.000000,4.000000,4.000000,4.000000,,,,,,,,,,,,,,,,,,,,,,,,,
1577421183.431321,54.000000,0.000000,4277.436035,4313.846191,4206.666504,4131.794922,4201.538574,0.000000,4.000000,,,,0.000000,4.000000,4.000000,4.000000,4.000000,4.000000,,,,,,,,,,,,,,,,,,,,,,,,,
1577421183.439117,55.000000,0.000000,4231.794922,4296.922852,4193.333496,4118.974121,4175.384766,0.000000,4.000000,,,,0.000000,4.000000,4.000000,4.000000,4.000000,4.000000,,,,,,,,,,,,,,,,,,,,,,,,,
1577421183.447014,56.000000,0.000000,4224.102539,4305.641113,4195.384766,4097.948730,4168.717773,0.000000,4.000000,,,,0.000000,4.000000,4.000000,4.000000,4.000000,4.000000,,,,,,,,,,,,,,,,,,,,,,,,,
1577421183.454810,57.000000,0.000000,4267.179688,4324.615234,4216.922852,4119.487305,4193.333496,0.000000,4.000000,,,,0.000000,4.000000,4.000000,4.000000,4.000000,4.000000,5.017509,5.805161,4.464762,2.949890,2.127638,21.683300,1.375939,2.148031,1.187976,1.114619,13.583441,5.348528,3.804318,2.688470,1.866314,5.912353,3.665442,3.111120,3.749663,2.896714,5.380116,6.478742,5.572931,3.271191,2.066356
1577421183.462707,58.000000,0.000000,4297.948730,4326.153809,4245.128418,4155.384766,4236.922852,0.000000,4.000000,,,,0.000000,4.000000,4.000000,4.000000,4.000000,4.000000,,,,,,,,,,,,,,,,,,,,,,,,,
1577421183.470503,59.000000,0.000000,4275.897461,4320.512695,4243.589844,4141.538574,4243.077148,0.000000,4.000000,,,,0.000000,4.000000,4.000000,4.000000,4.000000,4.000000,,,,,,,,,,,,,,,,,,,,,,,,,
1577421183.478400,60.000000,0.000000,4244.615234,4328.717773,4211.794922,4138.461426,4205.641113,0.000000,4.000000,,,,0.000000,4.000000,4.000000,4.000000,4.000000,4.000000,,,,,,,,,,,,,,,,,,,,,,,,,
1577421183.486196,61.000000,0.000000,4256.410156,4327.692383,4211.794922,4155.384766,4194.871582,0.000000,4.000000,,,,0.000000,4.000000,4.000000,4.000000,4.000000,4.000000,,,,,,,,,,,,,,,,,,,,,,,,,
1577421183.494093,62.000000,0.000000,4287.692383,4316.922852,4243.589844,4144.615234,4218.461426,0.000000,4.000000,,,,0.000000,4.000000,4.000000,4.000000,4.000000,4.000000,,,,,,,,,,,,,,,,,,,,,,,,,
1577421183.501889,63.000000,0.000000,4309.230957,4326.666504,4264.615234,4168.205078,4240.512695,0.000000,4.000000,,,,0.000000,4.000000,4.000000,4.000000,4.000000,4.000000,,,,,,,,,,,,,,,,,,,,,,,,,
1577421183.509786,64.000000,0.000000,4294.358887,4306.153809,4245.128418,4179.487305,4220.512695,450.000000,4.000000,,,,0.000000,4.000000,4.000000,4.000000,4.000000,4.000000,,,,,,,,,,,,,,,,,,,,,,,,,
1577421183.517582,65.000000,0.000000,4258.461426,4264.102539,4216.410156,4125.128418,4187.692383,450.000000,4.000000,,,,0.000000,4.000000,4.000000,4.000000,4.000000,4.000000,,,,,,,,,,,,,,,,,,,,,,,,,
1577421183.525379,66.000000,0.000000,4264.615234,4266.666504,4232.820313,4132.820313,4206.153809,16222.000000,4.000000,,,,0.000000,4.000000,4.000000,4.000000,4.000000,4.000000,,,,,,,,,,,,,,,,,,,,,,,,,
1577421183.533175,67.000000,0.000000,4278.461426,4274.358887,4246.666504,4179.487305,4213.846191,450.000000,4.000000,,,,0.000000,4.000000,4.000000,4.000000,4.000000,4.000000,,,,,,,,,,,,,,,,,,,,,,,,,
1577421183.540872,68.000000,0.000000,4270.769043,4274.358887,4235.384766,4167.179688,4197.948730,16201.000000,4.000000,,,,0.000000,4.000000,4.000000,4.000000,4.000000,4.000000,,,,,,,,,,,,,,,,,,,,,,,,,
1577421183.548768,69.000000,0.000000,4261.538574,4280.512695,4230.769043,4129.230957,4194.871582,450.000000,4.000000,,,,0.000000,4.000000,4.000000,4.000000,4.000000,4.000000,,,,,,,,,,,,,,,,,,,,,,,,,
1577421183.556565,70.000000,0.000000,4237.436035,4260.000000,4223.077148,4122.051270,4172.820313,16166.000000,4.000000,,,,0.000000,4.000000,4.000000,4.000000,4.000000,4.000000,,,,,,,,,,,,,,,,,,,,,,,,,
1577421183.564461,71.000000,0.000000,4243.077148,4258.974121,4228.717773,4140.000000,4168.205078,450.000000,4.000000,,,,0.000000,4.000000,4.000000,4.000000,4.000000,4.000000,,,,,,,,,,,,,,,,,,,,,,,,,
1577421183.572258,72.000000,0.000000,4260.512695,4274.871582,4241.538574,4130.769043,4178.974121,450.000000,4.000000,,,,0.000000,4.000000,4.000000,4.000000,4.000000,4.000000,,,,,,,,,,,,,,,,,,,,,,,,,
1577421183.580054,73.000000,0.000000,4242.051270,4263.589844,4237.948730,4129.743652,4173.846191,16171.000000,4.000000,,,,0.000000,4.000000,4.000000,4.000000,4.000000,4.000000,4.327459,5.254214,3.759389,3.058224,2.070139,22.334871,1.251020,2.293062,1.283885,1.134583,14.087999,4.948310,3.245510,2.503829,1.875186,4.747027,3.446693,2.754267,3.557480,2.999083,4.240184,5.715795,5.046080,3.616778,1.946779
1577421183.587751,74.000000,0.000000,4238.461426,4268.205078,4232.307617,4153.333496,4170.769043,450.000000,4.000000,,,,0.000000,4.000000,4.000000,4.000000,4.000000,4.000000,,,,,,,,,,,,,,,,,,,,,,,,,
1577421183.595647,75.000000,0.000000,4241.538574,4279.487305,4225.641113,4134.358887,4161.025879,16217.000000,4.000000,,,,0.000000,4.000000,4.000000,4.000000,4.000000,4.000000,,,,,,,,,,,,,,,,,,,,,,,,,
1577421183.603444,76.000000,0.000000,4238.974121,4275.384766,4227.692383,4109.230957,4160.000000,450.000000,4.000000,,,,0.000000,4.000000,4.000000,4.000000,4.000000,4.000000,,,,,,,,,,,,,,,,,,,,,,,,,
1577421183.611340,77.000000,0.000000,4247.179688,4273.333496,4241.025879,4140.512695,4171.282227,450.000000,4.000000,,,,0.000000,4.000000,4.000000,4.000000,4.000000,4.000000,,,,,,,,,,,,,,,,,,,,,,,,,
1577421183.619137,78.000000,0.000000,4261.538574,4283.589844,4258.461426,4178.974121,4185.641113,450.000000,4.000000,,,,0.000000,4.000000,4.000000,4.000000,4.000000,4.000000,,,,,,,,,,,,,,,,,,,,,,,,,
1577421183.627033,79.000000,0.000000,4277.948730,4289.230957,4280.000000,4186.666504,4206.153809,16217.000000,4.000000,,,,0.000000,4.000000,4.000000,4.000000,4.000000,4.000000,,,,,,,,,,,,,,,,,,,,,,,,,
1577421183.634830,80.000000,0.000000,4276.922852,4274.358887,4286.666504,4191.282227,4208.205078,450.000000,4.000000,,,,0.000000,4.000000,4.000000,4.000000,4.000000,4.000000,,,,,,,,,,,,,,,,,,,,,,,,,
1577421183.642726,81.000000,0.000000,4274.871582,4273.333496,4280.512695,4192.307617,4201.025879,450.000000,4.000000,,,,0.000000,4.000000,4.000000,4.000000,4.000000,4.000000,,,,,,,,,,,,,,,,,,,,,,,,,
1577421183.650523,82.000000,0.000000,4260.000000,4266.153809,4253.333496,4148.717773,4178.974121,450.000000,4.000000,,,,0.000000,4.000000,4.000000,4.000000,4.000000,4.000000,,,,,,,,,,,,,,,,,,,,,,,,,
1577421183.658319,83.000000,0.000000,4239.487305,4244.102539,4227.692383,4121.025879,4165.128418,16217.000000,4.000000,,,,0.000000,4.000000,4.000000,4.000000,4.000000,4.000000,,,,,,,,,,,,,,,,,,,,,,,,,
1577421183.666016,84.000000,0.000000,4254.358887,4249.230957,4240.512695,4151.282227,4189.230957,450.000000,4.000000,,,,0.000000,4.000000,4.000000,4.000000,4.000000,4.000000,,,,,,,,,,,,,,,,,,,,,,,,,
1577421183.673912,85.000000,0.000000,4252.820313,4250.256348,4242.563965,4151.794922,4182.051270,450.000000,4.000000,,,,0.000000,4.000000,4.000000,4.000000,4.000000,4.000000,,,,,,,,,,,,,,,,,,,,,,,,,
1577421183.681709,86.000000,0.000000,4236.410156,4242.051270,4233.333496,4137.948730,4163.589844,450.000000,4.000000,,,,0.000000,4.000000,4.000000,4.000000,4.000000,4.000000,,,,,,,,,,,,,,,,,,,,,,,,,
1577421183.689605,87.000000,0.000000,4243.589844,4245.128418,4237.948730,4154.871582,4175.897461,16217.000000,4.000000,,,,0.000000,4.000000,4.000000,4.000000,4.000000,4.000000,,,,,,,,,,,,,,,,,,,,,,,,,
1577421183.697402,88.000000,0.000000,4237.948730,4255.897461,4245.128418,4159.487305,4170.769043,450.000000,4.000000,,,,0.000000,4.000000,4.000000,4.000000,4.000000,4.000000,,,,,,,,,,,,,,,,,,,,,,,,,
1577421183.705198,89.000000,0.000000,4234.358887,4268.205078,4263.077148,4147.692383,4168.205078,450.000000,4.000000,,,,0.000000,4.000000,4.000000,4.000000,4.000000,4.000000,4.142203,4.260089,3.057058,3.107625,2.008026,23.622580,1.049461,2.449560,1.519272,1.190696,15.314115,4.082669,2.809372,2.245940,1.798825,4.200853,2.956664,2.509767,3.317428,3.001574,3.573888,4.430549,4.355538,3.918909,1.856355
1577421183.713095,90.000000,0.000000,4234.871582,4247.179688,4253.846191,4153.846191,4171.282227,450.000000,4.000000,,,,0.000000,4.000000,4.000000,4.000000,4.000000,4.000000,,,,,,,,,,,,,,,,,,,,,,,,,
1577421183.720891,91.000000,0.000000,4224.615234,4231.282227,4229.743652,4192.307617,4173.333496,16217.000000,4.000000,,,,0.000000,4.000000,4.000000,4.000000,4.000000,4.000000,,,,,,,,,,,,,,,,,,,,,,,,,
1577421183.728788,92.000000,0.000000,4214.871582,4247.179688,4237.436035,4180.512695,4184.615234,450.000000,4.000000,,,,0.000000,4.000000,4.000000,4.000000,4.000000,4.000000,,,,,,,,,,,,,,,,,,,,,,,,,
1577421183.736584,93.000000,0.000000,4213.846191,4241.025879,4243.077148,4145.128418,4189.230957,450.000000,4.000000,,,,0.000000,4.000000,4.000000,4.000000,4.000000,4.000000,,,,,,,,,,,,,,,,,,,,,,,,,
1577421183.744481,94.000000,0.000000,4218.461426,4234.358887,4234.358887,4153.846191,4190.256348,450.000000,4.000000,,,,0.000000,4.000000,4.000000,4.000000,4.000000,4.000000,,,,,,,,,,,,,,,,,,,,,,,,,
1577421183.752277,95.000000,0.000000,4183.589844,4221.025879,4215.897461,4145.128418,4162.051270,16217.000000,4.000000,,,,0.000000,4.000000,4.000000,4.000000,4.000000,4.000000,,,,,,,,,,,,,,,,,,,,,,,,,
1577421183.760174,96.000000,0.000000,4191.282227,4227.692383,4237.436035,4173.846191,4175.897461,450.000000,4.000000,,,,0.000000,4.000000,4.000000,4.000000,4.000000,4.000000,,,,,,,,,,,,,,,,,,,,,,,,,
1577421183.767970,97.000000,0.000000,4281.538574,4276.410156,4300.512695,4240.000000,4252.820313,450.000000,4.000000,,,,0.000000,4.000000,4.000000,4.000000,4.000000,4.000000,,,,,,,,,,,,,,,,,,,,,,,,,
1577421183.775867,98.000000,0.000000,4294.358887,4260.512695,4294.871582,4225.641113,4270.769043,450.000000,4.000000,,,,0.000000,4.000000,4.000000,4.000000,4.000000,4.000000,,,,,,,,,,,,,,,,,,,,,,,,,
1577421183.783663,99.000000,0.000000,4258.461426,4217.948730,4258.974121,4203.589844,4252.820313,16217.000000,4.000000,,,,0.000000,4.000000,4.000000,4.000000,4.000000,4.000000,,,,,,,,,,,,,,,,,,,,,,,,,
1577421183.791560,100.000000,0.000000,4259.487305,4234.871582,4264.615234,4207.692383,4242.051270,450.000000,4.000000,,,,0.000000,4.000000,4.000000,4.000000,4.000000,4.000000,,,,,,,,,,,,,,,,,,,,,,,,,
1577421183.799356,101.000000,0.000000,4242.051270,4245.641113,4267.179688,4179.487305,4216.410156,450.000000,4.000000,,,,0.000000,4.000000,4.000000,4.000000,4.000000,4.000000,,,,,,,,,,,,,,,,,,,,,,,,,
1577421183.807252,102.000000,0.000000,4230.769043,4232.820313,4271.794922,4174.871582,4209.230957,450.000000,4.000000,,,,0.000000,4.000000,4.000000,4.000000,4.000000,4.000000,,,,,,,,,,,,,,,,,,,,,,,,,
1577421183.815049,103.000000,0.000000,4232.820313,4235.384766,4279.487305,4195.384766,4214.358887,16217.000000,4.000000,,,,0.000000,4.000000,4.000000,4.000000,4.000000,4.000000,,,,,,,,,,,,,,,,,,,,,,,,,
1577421183.822945,104.000000,0.000000,4219.487305,4243.589844,4276.410156,4177.436035,4206.666504,450.000000,4.000000,,,,0.000000,4.000000,4.000000,4.000000,4.000000,4.000000,,,,,,,,,,,,,,,,,,,,,,,,,
1577421183.830742,105.000000,0.000000,4200.512695,4230.256348,4258.461426,4147.692383,4184.102539,450.000000,4.000000,,,,0.000000,4.000000,4.000000,4.000000,4.000000,4.000000,4.417212,3.286001,2.504525,3.132751,1.982183,24.583767,0.824420,2.552536,1.826913,1.281184,16.548756,3.070038,2.711607,2.023434,1.675091,4.288883,2.390237,2.485592,3.212204,2.962254,3.497321,3.057442,3.640248,4.118220,1.849211
1577421183.838638,106.000000,0.000000,4183.077148,4198.461426,4230.256348,4147.179688,4165.641113,450.000000,4.000000,,,,0.000000,4.000000,4.000000,4.000000,4.000000,4.000000,,,,,,,,,,,,,,,,,,,,,,,,,
1577421183.846435,107.000000,0.000000,4222.563965,4213.333496,4261.538574,4187.179688,4206.666504,16217.000000,4.000000,,,,0.000000,4.000000,4.000000,4.000000,4.000000,4.000000,,,,,,,,,,,,,,,,,,,,,,,,,
1577421183.854331,108.000000,0.000000,4257.436035,4237.436035,4297.436035,4210.769043,4235.897461,450.000000,4.000000,,,,0.000000,4.000000,4.000000,4.000000,4.000000,4.000000,,,,,,,,,,,,,,,,,,,,,,,,,
1577421183.862128,109.000000,0.000000,4227.692383,4222.563965,4278.461426,4195.897461,4208.205078,450.000000,4.000000,,,,0.000000,4.000000,4.000000,4.000000,4.000000,4.000000,,,,,,,,,,,,,,,,,,,,,,,,,
1577421183.870024,110.000000,0.000000,4221.538574,4226.666504,4280.000000,4196.922852,4209.230957,450.000000,4.000000,,,,0.000000,4.000000,4.000000,4.000000,4.000000,4.000000,,,,,,,,,,,,,,,,,,,,,,,,,
1577421183.877821,111.000000,0.000000,4216.922852,4217.948730,4275.897461,4189.743652,4209.743652,16217.000000,4.000000,,,,0.000000,4.000000,4.000000,4.000000,4.000000,4.000000,,,,,,,,,,,,,,,,,,,,,,,,,
1577421183.885517,112.000000,0.000000,4205.641113,4198.974121,4260.000000,4158.974121,4193.846191,450.000000,4.000000,,,,0.000000,4.000000,4.000000,4.000000,4.000000,4.000000,,,,,,,,,,,,,,,,,,,,,,,,,
1577421183.893314,113.000000,0.000000,4215.384766,4209.743652,4266.666504,4143.589844,4199.487305,450.000000,4.000000,,,,0.000000,4.000000,4.000000,4.000000,4.000000,4.000000,,,,,,,,,,,,,,,,,,,,,,,,,
1577421183.901011,114.000000,0.000000,4223.077148,4233.846191,4280.000000,4176.410156,4222.051270,450.000000,4.000000,,,,0.000000,4.000000,4.000000,4.000000,4.000000,4.000000,,,,,,,,,,,,,,,,,,,,,,,,,
1577421183.908807,115.000000,0.000000,4225.641113,4236.410156,4295.897461,4202.051270,4227.179688,16217.000000,4.000000,,,,0.000000,4.000000,4.000000,4.000000,4.000000,4.000000,,,,,,,,,,,,,,,,,,,,,,,,,
1577421183.916504,116.000000,0.000000,4192.307617,4196.410156,4276.410156,4168.205078,4191.794922,450.000000,4.000000,,,,0.000000,4.000000,4.000000,4.000000,4.000000,4.000000,,,,,,,,,,,,,,,,,,,,,,,,,
1577421183.924300,117.000000,0.000000,4172.307617,4200.000000,4261.025879,4162.051270,4186.153809,450.000000,4.000000,,,,0.000000,4.000000,4.000000,4.000000,4.000000,4.000000,,,,,,,,,,,,,,,,,,,,,,,,,
1577421183.931997,118.000000,0.000000,4182.563965,4226.153809,4269.743652,4168.717773,4200.512695,450.000000,4.000000,,,,0.000000,4.000000,4.000000,4.000000,4.000000,4.000000,,,,,,,,,,,,,,,,,,,,,,,,,
1577421183.939793,119.000000,0.000000,4187.179688,4202.051270,4261.538574,4146.666504,4202.051270,16217.000000,4.000000,,,,0.000000,4.000000,4.000000,4.000000,4.000000,4.000000,,,,,,,,,,,,,,,,,,,,,,,,,
1577421183.947490,120.000000,0.000000,4199.487305,4199.487305,4274.358887,4144.615234,4210.256348,450.000000,4.000000,,,,0.000000,4.000000,4.000000,4.000000,4.000000,4.000000,,,,,,,,,,,,,,,,,,,,,,,,,
1577421183.955386,121.000000,0.000000,4160.000000,4187.692383,4249.743652,4113.333496,4166.666504,450.000000,4.000000,,,,0.000000,4.000000,4.000000,4.000000,4.000000,4.000000,5.032557,2.689754,2.188744,3.147039,2.021209,24.517748,0.625062,2.560848,2.093549,1.383666,17.439400,2.202341,3.036723,1.905922,1.552431,4.935206,1.943306,2.770905,3.350778,2.948906,3.973406,1.978534,3.024865,4.147133,1.935380
1577421183.963183,122.000000,0.000000,4184.615234,4215.897461,4265.641113,4159.487305,4194.871582,450.000000,4.000000,,,,0.000000,4.000000,4.000000,4.000000,4.000000,4.000000,,,,,,,,,,,,,,,,,,,,,,,,,
1577421183.970980,123.000000,0.000000,4270.769043,4268.717773,4345.641113,4218.461426,4268.205078,16217.000000,4.000000,,,,0.000000,4.000000,4.000000,4.000000,4.000000,4.000000,,,,,,,,,,,,,,,,,,,,,,,,,
1577421183.978676,124.000000,0.000000,4090.256348,4118.974121,4190.769043,4080.000000,4130.769043,450.000000,4.000000,,,,0.000000,4.000000,4.000000,4.000000,4.000000,4.000000,,,,,,,,,,,,,,,,,,,,,,,,,
1577421183.986573,125.000000,0.000000,4205.641113,4258.461426,4303.077148,4221.025879,4265.128418,450.000000,4.000000,,,,0.000000,4.000000,4.000000,4.000000,4.000000,4.000000,,,,,,,,,,,,,,,,,,,,,,,,,
1577421183.994369,126.000000,0.000000,4375.384766,4396.922852,4441.025879,4195.384766,4306.666504,450.000000,4.000000,,,,0.000000,4.000000,4.000000,4.000000,4.000000,4.000000,,,,,,,,,,,,,,,,,,,,,,,,,
1577421184.002266,127.000000,0.000000,3798.974365,3927.692383,3881.025635,3816.410156,3853.333252,235.000000,4.000000,,,,0.000000,4.000000,4.000000,4.000000,4.000000,4.000000,,,,,,,,,,,,,,,,,,,,,,,,,
1577421184.010062,0.000000,0.000000,3911.281982,4107.692383,3994.358887,4184.615234,4116.922852,450.000000,4.000000,,,,0.000000,4.000000,4.000000,4.000000,4.000000,4.000000,,,,,,,,,,,,,,,,,,,,,,,,,
1577421184.017958,1.000000,0.000000,4278.974121,4428.717773,4362.563965,4223.077148,4233.846191,450.000000,4.000000,,,,0.000000,4.000000,4.000000,4.000000,4.000000,4.000000,,,,,,,,,,,,,,,,,,,,,,,,,
1577421184.025755,2.000000,0.000000,3913.846191,4114.871582,4041.538574,3799.487061,3813.846191,16310.000000,4.000000,,,,0.000000,4.000000,4.000000,4.000000,4.000000,4.000000,,,,,,,,,,,,,,,,,,,,,,,,,
1577421184.033652,3.000000,0.000000,4034.358887,4237.436035,4156.922852,4060.000000,4054.358887,450.000000,4.000000,,,,0.000000,4.000000,4.000000,4.000000,4.000000,4.000000,,,,,,,,,,,,,,,,,,,,,,,,,
1577421184.041548,4.000000,0.000000,4194.871582,4365.641113,4301.538574,4129.230957,4158.974121,16278.000000,4.000000,,,,0.000000,4.000000,4.000000,4.000000,4.000000,4.000000,,,,,,,,,,,,,,,,,,,,,,,,,
1577421184.049345,5.000000,0.000000,4106.153809,4291.794922,4216.922852,4034.871826,4071.281982,450.000000,4.000000,,,,0.000000,4.000000,4.000000,4.000000,4.000000,4.000000,,,,,,,,,,,,,,,,,,,,,,,,,
1577421184.057142,6.000000,0.000000,4193.846191,4348.205078,4294.358887,4115.384766,4170.256348,16145.000000,4.000000,,,,0.000000,4.000000,4.000000,4.000000,4.000000,4.000000,,,,,,,,,,,,,,,,,,,,,,,,,
1577421184.064939,7.000000,0.000000,4165.641113,4299.487305,4260.512695,4092.820557,4140.000000,450.000000,4.000000,,,,0.000000,4.000000,4.000000,4.000000,4.000000,4.000000,,,,,,,,,,,,,,,,,,,,,,,,,
1577421184.072835,8.000000,0.000000,4193.846191,4325.128418,4281.025879,4139.487305,4188.205078,450.000000,4.000000,,,,0.000000,4.000000,4.000000,4.000000,4.000000,4.000000,,,,,,,,,,,,,,,,,,,,,,,,,
1577421184.080732,9.000000,0.000000,4241.538574,4363.077148,4325.641113,4156.410156,4221.538574,16186.000000,4.000000,,,,0.000000,4.000000,4.000000,4.000000,4.000000,4.000000,5.907566,2.654095,2.221293,3.161622,2.144650,23.269884,0.494475,2.473293,2.231887,1.477704,17.476250,1.661408,3.713011,1.912720,1.486297,5.960705,1.757755,3.398309,3.735675,2.996735,5.012747,1.430982,2.669986,4.000689,2.088114
1577421184.088628,10.000000,0.000000,4213.846191,4333.333496,4300.512695,4153.333496,4188.717773,450.000000,4.000000,,,,0.000000,4.000000,4.000000,4.000000,4.000000,4.000000,,,,,,,,,,,,,,,,,,,,,,,,,
1577421184.096425,11.000000,0.000000,4211.282227,4335.384766,4298.461426,4165.128418,4188.205078,16274.000000,4.000000,,,,0.000000,4.000000,4.000000,4.000000,4.000000,4.000000,,,,,,,,,,,,,,,,,,,,,,,,,
1577421184.104322,12.000000,0.000000,4214.871582,4348.205078,4307.692383,4138.974121,4196.922852,450.000000,4.000000,,,,0.000000,4.000000,4.000000,4.000000,4.000000,4.000000,,,,,,,,,,,,,,,,,,,,,,,,,
1577421184.112119,13.000000,0.000000,4218.974121,4348.717773,4317.948730,4148.717773,4211.794922,450.000000,4.000000,,,,0.000000,4.000000,4.000000,4.000000,4.000000,4.000000,,,,,,,,,,,,,,,,,,,,,,,,,
1577421184.120015,14.000000,0.000000,4218.974121,4344.102539,4316.922852,4158.974121,4206.666504,450.000000,4.000000,,,,0.000000,4.000000,4.000000,4.000000,4.000000,4.000000,,,,,,,,,,,,,,,,,,,,,,,,,
1577421184.127812,15.000000,0.000000,4220.000000,4356.410156,4308.205078,4142.051270,4200.000000,16274.000000,4.000000,,,,0.000000,4.000000,4.000000,4.000000,4.000000,4.000000,,,,,,,,,,,,,,,,,,,,,,,,,
1577421184.135709,16.000000,0.000000,4232.307617,4369.230957,4309.230957,4154.358887,4213.846191,0.000000,4.000000,,,,0.000000,4.000000,4.000000,4.000000,4.000000,4.000000,,,,,,,,,,,,,,,,,,,,,,,,,
1577421184.143505,17.000000,0.000000,4226.666504,4358.461426,4305.128418,4171.282227,4213.333496,0.000000,4.000000,,,,0.000000,4.000000,4.000000,4.000000,4.000000,4.000000,,,,,,,,,,,,,,,,,,,,,,,,,
1577421184.151402,18.000000,0.000000,4211.794922,4357.948730,4301.538574,4144.102539,4204.102539,0.000000,4.000000,,,,0.000000,4.000000,4.000000,4.000000,4.000000,4.000000,,,,,,,,,,,,,,,,,,,,,,,,,
1577421184.159199,19.000000,0.000000,4222.051270,4372.307617,4311.794922,4122.051270,4206.666504,0.000000,4.000000,,,,0.000000,4.000000,4.000000,4.000000,4.000000,4.000000,,,,,,,,,,,,,,,,,,,,,,,,,
1577421184.167095,20.000000,0.000000,4249.230957,4376.410156,4330.769043,4158.461426,4226.153809,0.000000,4.000000,,,,0.000000,4.000000,4.000000,4.000000,4.000000,4.000000,,,,,,,,,,,,,,,,,,,,,,,,,
1577421184.174892,21.000000,0.000000,4262.051270,4372.307617,4333.333496,4195.384766,4243.077148,0.000000,4.000000,,,,0.000000,4.000000,4.000000,4.000000,4.000000,4.000000,,,,,,,,,,,,,,,,,,,,,,,,,
1577421184.182789,22.000000,0.000000,4252.307617,4364.615234,4317.436035,4188.205078,4230.256348,0.000000,4.000000,,,,0.000000,4.000000,4.000000,4.000000,4.000000,4.000000,,,,,,,,,,,,,,,,,,,,,,,,,
1577421184.190586,23.000000,0.000000,4243.077148,4353.846191,4308.205078,4155.897461,4212.820313,0.000000,4.000000,,,,0.000000,4.000000,4.000000,4.000000,4.000000,4.000000,,,,,,,,,,,,,,,,,,,,,,,,,
1577421184.198482,24.000000,0.000000,4246.666504,4343.589844,4310.256348,4143.077148,4216.410156,0.000000,4.000000,,,,0.000000,4.000000,4.000000,4.000000,4.000000,4.000000,,,,,,,,,,,,,,,,,,,,,,,,,
1577421184.206279,25.000000,0.000000,4250.256348,4338.974121,4302.563965,4162.563965,4225.641113,0.000000,4.000000,,,,0.000000,4.000000,4.000000,4.000000,4.000000,4.000000,7.047650,3.323859,2.691136,3.271865,2.676254,20.996889,0.486294,2.342638,2.266166,1.814000,16.616261,1.644000,4.643586,2.119561,1.810652,6.963865,2.001032,4.317799,4.275514,3.327720,6.422018,1.679950,2.700074,3.768468,2.487343
1577421184.214176,26.000000,0.000000,4243.077148,4343.589844,4285.641113,4158.974121,4219.487305,0.000000,4.000000,,,,0.000000,4.000000,4.000000,4.000000,4.000000,4.000000,,,,,,,,,,,,,,,,,,,,,,,,,
1577421184.221973,27.000000,0.000000,4229.743652,4333.333496,4273.333496,4133.333496,4203.077148,0.000000,4.000000,,,,0.000000,4.000000,4.000000,4.000000,4.000000,4.000000,,,,,,,,,,,,,,,,,,,,,,,,,
1577421184.229869,28.000000,0.000000,4238.461426,4324.615234,4273.333496,4148.205078,4208.717773,0.000000,4.000000,,,,0.000000,4.000000,4.000000,4.000000,4.000000,4.000000,,,,,,,,,,,,,,,,,,,,,,,,,
1577421184.237666,29.000000,0.000000,4256.410156,4335.897461,4271.282227,4179.487305,4224.102539,0.000000,4.000000,,,,0.000000,4.000000,4.000000,4.000000,4.000000,4.000000,,,,,,,,,,,,,,,,,,,,,,,,,
1577421184.245563,30.000000,0.000000,4251.794922,4331.794922,4260.000000,4156.922852,4217.436035,0.000000,4.000000,,,,0.000000,4.000000,4.000000,4.000000,4.000000,4.000000,,,,,,,,,,,,,,,,,,,,,,,,,
1577421184.253359,31.000000,0.000000,4244.102539,4314.358887,4254.871582,4126.666504,4207.692383,0.000000,4.000000,,,,0.000000,4.000000,4.000000,4.000000,4.000000,4.000000,,,,,,,,,,,,,,,,,,,,,,,,,
1577421184.261256,32.000000,0.000000,4240.000000,4313.846191,4251.282227,4130.256348,4198.974121,0.000000,4.000000,,,,0.000000,4.000000,4.000000,4.000000,4.000000,4.000000,,,,,,,,,,,,,,,,,,,,,,,,,
1577421184.269153,33.000000,0.000000,4244.615234,4331.282227,4259.487305,4155.384766,4203.077148,0.000000,4.000000,,,,0.000000,4.000000,4.000000,4.000000,4.000000,4.000000,,,,,,,,,,,,,,,,,,,,,,,,,
1577421184.276949,34.000000,0.000000,4263.589844,4333.846191,4285.128418,4177.436035,4226.666504,0.000000,4.000000,,,,0.000000,4.000000,4.000000,4.000000,4.000000,4.000000,,,,,,,,,,,,,,,,,,,,,,,,,
1577421184.284846,35.000000,0.000000,4256.922852,4321.025879,4285.128418,4158.974121,4227.179688,0.000000,4.000000,,,,0.000000,4.000000,4.000000,4.000000,4.000000,4.000000,,,,,,,,,,,,,,,,,,,,,,,,,
1577421184.292643,36.000000,0.000000,4230.769043,4323.077148,4263.589844,4136.410156,4207.692383,0.000000,4.000000,,,,0.000000,4.000000,4.000000,4.000000,4.000000,4.000000,,,,,,,,,,,,,,,,,,,,,,,,,
1577421184.300540,37.000000,0.000000,4224.102539,4316.922852,4256.410156,4136.410156,4195.897461,0.000000,4.000000,,,,0.000000,4.000000,4.000000,4.000000,4.000000,4.000000,,,,,,,,,,,,,,,,,,,,,,,,,
1577421184.308336,38.000000,0.000000,4231.794922,4303.589844,4262.563965,4144.615234,4203.077148,0.000000,4.000000,,,,0.000000,4.000000,4.000000,4.000000,4.000000,4.000000,,,,,,,,,,,,,,,,,,,,,,,,,
1577421184.316133,39.000000,0.000000,4252.307617,4327.179688,4282.051270,4156.410156,4228.717773,0.000000,4.000000,,,,0.000000,4.000000,4.000000,4.000000,4.000000,4.000000,,,,,,,,,,,,,,,,,,,,,,,,,
1577421184.324030,40.000000,0.000000,4276.922852,4355.897461,4302.051270,4154.358887,4251.794922,0.000000,4.000000,,,,0.000000,4.000000,4.000000,4.000000,4.000000,4.000000,,,,,,,,,,,,,,,,,,,,,,,,,
1577421184.331826,41.000000,0.000000,4275.897461,4337.436035,4296.922852,4156.922852,4244.102539,0.000000,4.000000,,,,0.000000,4.000000,4.000000,4.000000,4.000000,4.000000,9.211123,5.251842,3.745177,3.622779,4.676756,18.371578,0.763985,2.340011,2.313876,3.252616,15.841064,2.669689,5.915421,2.705959,3.516361,8.039836,2.933994,5.404171,4.840496,4.735697,8.774897,3.308976,3.226832,3.564895,3.890466
1577421184.339723,42.000000,0.000000,4256.922852,4307.692383,4281.025879,4160.000000,4221.025879,0.000000,4.000000,,,,0.000000,4.000000,4.000000,4.000000,4.000000,4.000000,,,,,,,,,,,,,,,,,,,,,,,,,
1577421184.347520,43.000000,0.000000,4252.307617,4308.717773,4282.563965,4150.769043,4226.153809,0.000000,4.000000,,,,0.000000,4.000000,4.000000,4.000000,4.000000,4.000000,,,,,,,,,,,,,,,,,,,,,,,,,
1577421184.355417,44.000000,0.000000,4260.512695,4327.179688,4293.846191,4158.461426,4243.077148,0.000000,4.000000,,,,0.000000,4.000000,4.000000,4.000000,4.000000,4.000000,,,,,,,,,,,,,,,,,,,,,,,,,
1577421184.363313,45.000000,0.000000,4250.769043,4324.615234,4285.128418,4169.743652,4226.666504,0.000000,4.000000,,,,0.000000,4.000000,4.000000,4.000000,4.000000,4.000000,,,,,,,,,,,,,,,,,,,,,,,,,
1577421184.371110,46.000000,0.000000,4240.000000,4308.205078,4273.846191,4141.538574,4207.692383,0.000000,4.000000,,,,0.000000,4.000000,4.000000,4.000000,4.000000,4.000000,,,,,,,,,,,,,,,,,,,,,,,,,
1577421184.379007,47.000000,0.000000,4256.922852,4312.820313,4282.563965,4120.512695,4220.512695,0.000000,4.000000,,,,0.000000,4.000000,4.000000,4.000000,4.000000,4.000000,,,,,,,,,,,,,,,,,,,,,,,,,
1577421184.386803,48.000000,0.000000,4261.025879,4312.820313,4273.333496,4142.563965,4226.666504,0.000000,4.000000,,,,0.000000,4.000000,4.000000,4.000000,4.000000,4.000000,,,,,,,,,,,,,,,,,,,,,,,,,
1577421184.394700,49.000000,0.000000,4238.974121,4297.436035,4245.641113,4136.410156,4205.641113,0.000000,4.000000,,,,0.000000,4.000000,4.000000,4.000000,4.000000,4.000000,,,,,,,,,,,,,,,,,,,,,,,,,
1577421184.402597,50.000000,0.000000,4240.000000,4295.897461,4245.641113,4123.077148,4204.102539,0.000000,4.000000,,,,0.000000,4.000000,4.000000,4.000000,4.000000,4.000000,,,,,,,,,,,,,,,,,,,,,,,,,
1577421184.410394,51.000000,0.000000,4269.743652,4302.563965,4263.589844,4157.948730,4233.333496,0.000000,4.000000,,,,0.000000,4.000000,4.000000,4.000000,4.000000,4.000000,,,,,,,,,,,,,,,,,,,,,,,,,
1577421184.418290,52.000000,0.000000,4278.461426,4302.563965,4260.000000,4176.922852,4238.461426,0.000000,4.000000,,,,0.000000,4.000000,4.000000,4.000000,4.000000,4.000000,,,,,,,,,,,,,,,,,,,,,,,,,
1577421184.426087,53.000000,0.000000,4261.538574,4295.897461,4240.512695,4150.256348,4216.410156,0.000000,4.000000,,,,0.000000,4.000000,4.000000,4.000000,4.000000,4.000000,,,,,,,,,,,,,,,,,,,,,,,,,
1577421184.433984,54.000000,0.000000,4255.897461,4281.538574,4229.743652,4126.153809,4214.871582,0.000000,4.000000,,,,0.000000,4.000000,4.000000,4.000000,4.000000,4.000000,,,,,,,,,,,,,,,,,,,,,,,,,
1577421184.441780,55.000000,0.000000,4260.512695,4275.897461,4227.692383,4128.717773,4228.205078,0.000000,4.000000,,,,0.000000,4.000000,4.000000,4.000000,4.000000,4.000000,,,,,,,,,,,,,,,,,,,,,,,,,
1577421184.449677,56.000000,0.000000,4271.794922,4286.666504,4236.922852,4146.666504,4239.487305,0.000000,4.000000,,,,0.000000,4.000000,4.000000,4.000000,4.000000,4.000000,,,,,,,,,,,,,,,,,,,,,,,,,
1577421184.457474,57.000000,0.000000,4279.487305,4291.282227,4241.538574,4152.307617,4240.512695,0.000000,4.000000,,,,0.000000,4.000000,4.000000,4.000000,4.000000,4.000000,13.599625,9.034502,5.482796,4.295651,9.274669,16.067320,1.544197,2.632947,2.495914,6.721355,16.776098,5.364995,7.745514,3.818444,7.635854,9.617427,4.765724,6.461600,5.299448,8.112194,13.161508,6.864344,4.334068,3.448050,7.165430
1577421184.465370,58.000000,0.000000,4271.282227,4286.153809,4234.871582,4144.615234,4233.333496,0.000000,4.000000,,,,0.000000,4.000000,4.000000,4.000000,4.000000,4.000000,,,,,,,,,,,,,,,,,,,,,,,,,
1577421184.473167,59.000000,0.000000,4275.897461,4285.128418,4242.563965,4157.436035,4242.563965,0.000000,4.000000,,,,0.000000,4.000000,4.000000,4.000000,4.000000,4.000000,,,,,,,,,,,,,,,,,,,,,,,,,
1577421184.481064,60.000000,0.000000,4270.256348,4267.692383,4236.922852,4145.128418,4227.692383,0.000000,4.000000,,,,0.000000,4.000000,4.000000,4.000000,4.000000,4.000000,,,,,,,,,,,,,,,,,,,,,,,,,
1577421184.488861,61.000000,0.000000,4244.102539,4249.743652,4215.897461,4102.051270,4196.410156,0.000000,4.000000,,,,0.000000,4.000000,4.000000,4.000000,4.000000,4.000000,,,,,,,,,,,,,,,,,,,,,,,,,
1577421184.496757,62.000000,0.000000,4274.358887,4277.436035,4256.410156,4150.256348,4236.922852,0.000000,4.000000,,,,0.000000,4.000000,4.000000,4.000000,4.000000,4.000000,,,,,,,,,,,,,,,,,,,,,,,,,
1577421184.504554,63.000000,0.000000,4323.589844,4300.512695,4307.179688,4198.461426,4289.743652,0.000000,4.000000,,,,0.000000,4.000000,4.000000,4.000000,4.000000,4.000000,,,,,,,,,,,,,,,,,,,,,,,,,
1577421184.512451,64.000000,0.000000,4302.563965,4287.179688,4285.641113,4145.128418,4270.256348,450.000000,4.000000,,,,0.000000,4.000000,4.000000,4.000000,4.000000,4.000000,,,,,,,,,,,,,,,,,,,,,,,,,
1577421184.520248,65.000000,0.000000,4266.153809,4271.282227,4256.410156,4129.743652,4234.358887,450.000000,4.000000,,,,0.000000,4.000000,4.000000,4.000000,4.000000,4.000000,,,,,,,,,,,,,,,,,,,,,,,,,
1577421184.528144,66.000000,0.000000,4264.615234,4261.025879,4258.974121,4169.230957,4226.666504,16242.000000,4.000000,,,,0.000000,4.000000,4.000000,4.000000,4.000000,4.000000,,,,,,,,,,,,,,,,,,,,,,,,,
1577421184.535941,67.000000,0.000000,4277.948730,4273.333496,4264.102539,4175.897461,4235.897461,450.000000,4.000000,,,,0.000000,4.000000,4.000000,4.000000,4.000000,4.000000,,,,,,,,,,,,,,,,,,,,,,,,,
1577421184.543838,68.000000,0.000000,4289.743652,4294.871582,4268.717773,4169.743652,4248.717773,16220.000000,4.000000,,,,0.000000,4.000000,4.000000,4.000000,4.000000,4.000000,,,,,,,,,,,,,,,,,,,,,,,,,
1577421184.551734,69.000000,0.000000,4290.769043,4281.025879,4263.589844,4181.025879,4247.179688,450.000000,4.000000,,,,0.000000,4.000000,4.000000,4.000000,4.000000,4.000000,,,,,,,,,,,,,,,,,,,,,,,,,
1577421184.559531,70.000000,0.000000,4278.461426,4252.307617,4240.512695,4169.743652,4228.205078,16162.000000,4.000000,,,,0.000000,4.000000,4.000000,4.000000,4.000000,4.000000,,,,,,,,,,,,,,,,,,,,,,,,,
1577421184.567428,71.000000,0.000000,4258.461426,4242.051270,4216.410156,4114.871582,4210.769043,450.000000,4.000000,,,,0.000000,4.000000,4.000000,4.000000,4.000000,4.000000,,,,,,,,,,,,,,,,,,,,,,,,,
1577421184.575224,72.000000,0.000000,4245.128418,4237.436035,4212.307617,4098.461426,4207.692383,450.000000,4.000000,,,,0.000000,4.000000,4.000000,4.000000,4.000000,4.000000,,,,,,,,,,,,,,,,,,,,,,,,,
1577421184.583121,73.000000,0.000000,4238.974121,4223.077148,4210.256348,4135.384766,4201.025879,16175.000000,4.000000,,,,0.000000,4.000000,4.000000,4.000000,4.000000,4.000000,20.585793,14.727506,7.740305,5.230777,16.654758,14.617403,2.903194,3.245285,2.861854,12.409434,21.156006,9.906630,10.140661,5.419696,14.331322,12.056288,7.435655,7.256675,5.576941,13.673376,20.190680,12.372361,5.897719,3.410241,12.521524
1577421184.590918,74.000000,0.000000,4230.769043,4202.051270,4185.128418,4138.461426,4183.589844,450.000000,4.000000,,,,0.000000,4.000000,4.000000,4.000000,4.000000,4.000000,,,,,,,,,,,,,,,,,,,,,,,,,
1577421184.598815,75.000000,0.000000,4232.820313,4197.948730,4162.563965,4109.743652,4181.025879,16225.000000,4.000000,,,,0.000000,4.000000,4.000000,4.000000,4.000000,4.000000,,,,,,,,,,,,,,,,,,,,,,,,,
1577421184.606611,76.000000,0.000000,4237.948730,4206.153809,4153.846191,4112.307617,4188.717773,450.000000,4.000000,,,,0.000000,4.000000,4.000000,4.000000,4.000000,4.000000,,,,,,,,,,,,,,,,,,,,,,,,,
1577421184.614508,77.000000,0.000000,4237.436035,4196.922852,4156.410156,4130.256348,4195.384766,450.000000,4.000000,,,,0.000000,4.000000,4.000000,4.000000,4.000000,4.000000,,,,,,,,,,,,,,,,,,,,,,,,,
1577421184.622305,78.000000,0.000000,4251.794922,4181.538574,4171.794922,4127.179688,4206.666504,450.000000,4.000000,,,,0.000000,4.000000,4.000000,4.000000,4.000000,4.000000,,,,,,,,,,,,,,,,,,,,,,,,,
1577421184.630101,79.000000,0.000000,4261.538574,4178.461426,4170.256348,4100.000000,4207.179688,16225.000000,4.000000,,,,0.000000,4.000000,4.000000,4.000000,4.000000,4.000000,,,,,,,,,,,,,,,,,,,,,,,,,
1577421184.637998,80.000000,0.000000,4241.538574,4178.461426,4148.205078,4082.051270,4186.153809,450.000000,4.000000,,,,0.000000,4.000000,4.000000,4.000000,4.000000,4.000000,,,,,,,,,,,,,,,,,,,,,,,,,
1577421184.645895,81.000000,0.000000,4228.205078,4173.333496,4143.077148,4116.410156,4173.333496,450.000000,4.000000,,,,0.000000,4.000000,4.000000,4.000000,4.000000,4.000000,,,,,,,,,,,,,,,,,,,,,,,,,
1577421184.653692,82.000000,0.000000,4225.641113,4158.974121,4140.512695,4134.871582,4171.282227,450.000000,4.000000,,,,0.000000,4.000000,4.000000,4.000000,4.000000,4.000000,,,,,,,,,,,,,,,,,,,,,,,,,
1577421184.661588,83.000000,0.000000,4206.153809,4141.538574,4117.948730,4089.230713,4153.333496,16225.000000,4.000000,,,,0.000000,4.000000,4.000000,4.000000,4.000000,4.000000,,,,,,,,,,,,,,,,,,,,,,,,,
1577421184.669485,84.000000,0.000000,4218.461426,4150.256348,4129.230957,4083.589844,4170.256348,450.000000,4.000000,,,,0.000000,4.000000,4.000000,4.000000,4.000000,4.000000,,,,,,,,,,,,,,,,,,,,,,,,,
1577421184.677282,85.000000,0.000000,4271.794922,4176.922852,4171.794922,4137.948730,4225.641113,450.000000,4.000000,,,,0.000000,4.000000,4.000000,4.000000,4.000000,4.000000,,,,,,,,,,,,,,,,,,,,,,,,,
1577421184.685179,86.000000,0.000000,4273.846191,4171.794922,4168.717773,4135.897461,4226.153809,450.000000,4.000000,,,,0.000000,4.000000,4.000000,4.000000,4.000000,4.000000,,,,,,,,,,,,,,,,,,,,,,,,,
1577421184.692976,87.000000,0.000000,4238.974121,4154.871582,4144.102539,4093.846191,4197.436035,16225.000000,4.000000,,,,0.000000,4.000000,4.000000,4.000000,4.000000,4.000000,,,,,,,,,,,,,,,,,,,,,,,,,
1577421184.700772,88.000000,0.000000,4252.307617,4165.128418,4158.974121,4117.436035,4216.922852,450.000000,4.000000,,,,0.000000,4.000000,4.000000,4.000000,4.000000,4.000000,,,,,,,,,,,,,,,,,,,,,,,,,
1577421184.708669,89.000000,0.000000,4271.794922,4175.897461,4169.230957,4152.307617,4231.794922,450.000000,4.000000,,,,0.000000,4.000000,4.000000,4.000000,4.000000,4.000000,29.053762,21.420769,10.031027,6.209951,25.515888,14.133746,4.630982,4.023556,3.351219,19.326683,28.440151,15.576715,12.694605,7.213356,22.412928,15.241618,10.472491,7.588968,5.662011,20.498661,28.985062,18.917376,7.550399,3.386696,19.065504
1577421184.716566,90.000000,0.000000,4245.128418,4169.743652,4142.563965,4122.051270,4207.692383,450.000000,4.000000,,,,0.000000,4.000000,4.000000,4.000000,4.000000,4.000000,,,,,,,,,,,,,,,,,,,,,,,,,
1577421184.724362,91.000000,0.000000,4222.051270,4165.128418,4125.641113,4094.358887,4191.794922,16225.000000,4.000000,,,,0.000000,4.000000,4.000000,4.000000,4.000000,4.000000,,,,,,,,,,,,,,,,,,,,,,,,,
1577421184.732259,92.000000,0.000000,4235.384766,4168.205078,4135.384766,4112.307617,4202.051270,450.000000,4.000000,,,,0.000000,4.000000,4.000000,4.000000,4.000000,4.000000,,,,,,,,,,,,,,,,,,,,,,,,,
1577421184.740056,93.000000,0.000000,4242.051270,4167.179688,4130.769043,4101.025879,4206.666504,450.000000,4.000000,,,,0.000000,4.000000,4.000000,4.000000,4.000000,4.000000,,,,,,,,,,,,,,,,,,,,,,,,,
1577421184.747953,94.000000,0.000000,4226.666504,4162.051270,4109.743652,4082.051270,4194.358887,450.000000,4.000000,,,,0.000000,4.000000,4.000000,4.000000,4.000000,4.000000,,,,,,,,,,,,,,,,,,,,,,,,,
1577421184.755749,95.000000,0.000000,4233.333496,4170.769043,4111.794922,4125.128418,4202.051270,16225.000000,4.000000,,,,0.000000,4.000000,4.000000,4.000000,4.000000,4.000000,,,,,,,,,,,,,,,,,,,,,,,,,
1577421184.763646,96.000000,0.000000,4238.974121,4178.461426,4112.820313,4138.461426,4204.615234,450.000000,4.000000,,,,0.000000,4.000000,4.000000,4.000000,4.000000,4.000000,,,,,,,,,,,,,,,,,,,,,,,,,
1577421184.771443,97.000000,0.000000,4221.025879,4167.692383,4091.794922,4096.922852,4187.179688,450.000000,4.000000,,,,0.000000,4.000000,4.000000,4.000000,4.000000,4.000000,,,,,,,,,,,,,,,,,,,,,,,,,
1577421184.779339,98.000000,0.000000,4238.974121,4158.974121,4106.666504,4098.974121,4209.743652,450.000000,4.000000,,,,0.000000,4.000000,4.000000,4.000000,4.000000,4.000000,,,,,,,,,,,,,,,,,,,,,,,,,
1577421184.787136,99.000000,0.000000,4267.179688,4161.538574,4136.922852,4122.563965,4236.410156,16225.000000,4.000000,,,,0.000000,4.000000,4.000000,4.000000,4.000000,4.000000,,,,,,,,,,,,,,,,,,,,,,,,,
1577421184.794933,100.000000,0.000000,4251.282227,4173.333496,4129.230957,4116.922852,4220.000000,450.000000,4.000000,,,,0.000000,4.000000,4.000000,4.000000,4.000000,4.000000,,,,,,,,,,,,,,,,,,,,,,,,,
1577421184.802830,101.000000,0.000000,4247.179688,4195.897461,4129.230957,4121.025879,4214.358887,450.000000,4.000000,,,,0.000000,4.000000,4.000000,4.000000,4.000000,4.000000,,,,,,,,,,,,,,,,,,,,,,,,,
1577421184.810726,102.000000,0.000000,4258.461426,4202.051270,4145.128418,4133.846191,4227.692383,450.000000,4.000000,,,,0.000000,4.000000,4.000000,4.000000,4.000000,4.000000,,,,,,,,,,,,,,,,,,,,,,,,,
1577421184.818523,103.000000,0.000000,4239.487305,4189.743652,4131.794922,4120.000000,4213.846191,16225.000000,4.000000,,,,0.000000,4.000000,4.000000,4.000000,4.000000,4.000000,,,,,,,,,,,,,,,,,,,,,,,,,
1577421184.826320,104.000000,0.000000,4221.538574,4198.974121,4117.948730,4101.538574,4195.897461,450.000000,4.000000,,,,0.000000,4.000000,4.000000,4.000000,4.000000,4.000000,,,,,,,,,,,,,,,,,,,,,,,,,
1577421184.834216,105.000000,0.000000,4236.410156,4217.948730,4133.333496,4113.333496,4209.230957,450.000000,4.000000,,,,0.000000,4.000000,4.000000,4.000000,4.000000,4.000000,36.564060,27.310040,11.689339,6.938104,33.371117,14.339998,6.249883,4.697136,3.798628,25.525064,37.469032,20.809874,14.671633,8.704209,29.614948,18.369417,13.083992,7.333333,5.568304,26.719057,37.145054,24.752764,8.762906,3.311366,24.988075
1577421184.842113,106.000000,0.000000,4265.128418,4223.077148,4155.384766,4137.948730,4231.794922,450.000000,4.000000,,,,0.000000,4.000000,4.000000,4.000000,4.000000,4.000000,,,,,,,,,,,,,,,,,,,,,,,,,
1577421184.850010,107.000000,0.000000,4278.461426,4225.128418,4158.461426,4135.897461,4231.794922,16225.000000,4.000000,,,,0.000000,4.000000,4.000000,4.000000,4.000000,4.000000,,,,,,,,,,,,,,,,,,,,,,,,,
1577421184.857807,108.000000,0.000000,4271.794922,4230.769043,4146.153809,4130.256348,4219.487305,450.000000,4.000000,,,,0.000000,4.000000,4.000000,4.000000,4.000000,4.000000,,,,,,,,,,,,,,,,,,,,,,,,,
1577421184.865604,109.000000,0.000000,4263.077148,4231.794922,4138.461426,4133.333496,4214.358887,450.000000,4.000000,,,,0.000000,4.000000,4.000000,4.000000,4.000000,4.000000,,,,,,,,,,,,,,,,,,,,,,,,,
1577421184.873501,110.000000,0.000000,4253.846191,4209.743652,4131.282227,4106.153809,4207.692383,450.000000,4.000000,,,,0.000000,4.000000,4.000000,4.000000,4.000000,4.000000,,,,,,,,,,,,,,,,,,,,,,,,,
1577421184.881297,111.000000,0.000000,4245.128418,4198.974121,4123.077148,4092.820557,4198.461426,16225.000000,4.000000,,,,0.000000,4.000000,4.000000,4.000000,4.000000,4.000000,,,,,,,,,,,,,,,,,,,,,,,,,
1577421184.889194,112.000000,0.000000,4246.153809,4215.897461,4119.487305,4113.846191,4196.922852,450.000000,4.000000,,,,0.000000,4.000000,4.000000,4.000000,4.000000,4.000000,,,,,,,,,,,,,,,,,,,,,,,,,
1577421184.896991,113.000000,0.000000,4255.897461,4222.563965,4116.410156,4112.307617,4210.256348,450.000000,4.000000,,,,0.000000,4.000000,4.000000,4.000000,4.000000,4.000000,,,,,,,,,,,,,,,,,,,,,,,,,
1577421184.904887,114.000000,0.000000,4257.948730,4209.230957,4110.256348,4111.282227,4220.000000,450.000000,4.000000,,,,0.000000,4.000000,4.000000,4.000000,4.000000,4.000000,,,,,,,,,,,,,,,,,,,,,,,,,
1577421184.912684,115.000000,0.000000,4237.436035,4184.615234,4095.897461,4117.948730,4202.051270,16225.000000,4.000000,,,,0.000000,4.000000,4.000000,4.000000,4.000000,4.000000,,,,,,,,,,,,,,,,,,,,,,,,,
1577421184.920581,116.000000,0.000000,4219.487305,4175.897461,4079.487061,4094.871826,4180.000000,450.000000,4.000000,,,,0.000000,4.000000,4.000000,4.000000,4.000000,4.000000,,,,,,,,,,,,,,,,,,,,,,,,,
1577421184.928478,117.000000,0.000000,4221.538574,4181.025879,4068.718018,4085.641113,4181.538574,450.000000,4.000000,,,,0.000000,4.000000,4.000000,4.000000,4.000000,4.000000,,,,,,,,,,,,,,,,,,,,,,,,,
1577421184.936274,118.000000,0.000000,4217.436035,4168.205078,4055.384521,4091.794922,4186.666504,450.000000,4.000000,,,,0.000000,4.000000,4.000000,4.000000,4.000000,4.000000,,,,,,,,,,,,,,,,,,,,,,,,,
1577421184.944071,119.000000,0.000000,4204.615234,4148.717773,4046.666748,4076.923096,4177.948730,16225.000000,4.000000,,,,0.000000,4.000000,4.000000,4.000000,4.000000,4.000000,,,,,,,,,,,,,,,,,,,,,,,,,
1577421184.951968,120.000000,0.000000,4212.307617,4162.051270,4057.948730,4086.666748,4179.487305,450.000000,4.000000,,,,0.000000,4.000000,4.000000,4.000000,4.000000,4.000000,,,,,,,,,,,,,,,,,,,,,,,,,
1577421184.959864,121.000000,0.000000,4234.871582,4190.256348,4075.897461,4121.538574,4200.512695,450.000000,4.000000,,,,0.000000,4.000000,4.000000,4.000000,4.000000,4.000000,40.525738,30.481436,12.175865,7.184341,37.585720,14.952369,7.241184,4.976254,4.016605,28.918007,45.248764,23.906281,15.342926,9.419317,33.538094,20.432953,14.465868,6.510308,5.319335,30.305725,41.955444,28.050230,9.085672,3.181919,28.314592
1577421184.967661,122.000000,0.000000,4228.205078,4184.102539,4075.897461,4093.846191,4199.487305,450.000000,4.000000,,,,0.000000,4.000000,4.000000,4.000000,4.000000,4.000000,,,,,,,,,,,,,,,,,,,,,,,,,
1577421184.975558,123.000000,0.000000,4209.743652,4167.179688,4075.897461,4055.384521,4181.025879,16225.000000,4.000000,,,,0.000000,4.000000,4.000000,4.000000,4.000000,4.000000,,,,,,,,,,,,,,,,,,,,,,,,,
1577421184.983355,124.000000,0.000000,4227.692383,4180.512695,4101.538574,4100.512695,4190.256348,450.000000,4.000000,,,,0.000000,4.000000,4.000000,4.000000,4.000000,4.000000,,,,,,,,,,,,,,,,,,,,,,,,,
1577421184.991251,125.000000,0.000000,4247.179688,4196.922852,4118.461426,4135.384766,4207.179688,450.000000,4.000000,,,,0.000000,4.000000,4.000000,4.000000,4.000000,4.000000,,,,,,,,,,,,,,,,,,,,,,,,,
1577421184.999048,126.000000,0.000000,4246.153809,4197.948730,4120.512695,4111.794922,4211.282227,450.000000,4.000000,,,,0.000000,4.000000,4.000000,4.000000,4.000000,4.000000,,,,,,,,,,,,,,,,,,,,,,,,,
1577421185.006945,127.000000,0.000000,4255.897461,4192.307617,4133.846191,4113.846191,4218.461426,235.000000,4.000000,,,,0.000000,4.000000,4.000000,4.000000,4.000000,4.000000,,,,,,,,,,,,,,,,,,,,,,,,,
1577421185.014741,0.000000,0.000000,4252.820313,4186.666504,4134.358887,4127.179688,4213.333496,450.000000,4.000000,,,,0.000000,4.000000,4.000000,4.000000,4.000000,4.000000,,,,,,,,,,,,,,,,,,,,,,,,,
1577421185.022638,1.000000,0.000000,4230.769043,4193.846191,4116.410156,4109.743652,4195.384766,450.000000,4.000000,,,,0.000000,4.000000,4.000000,4.000000,4.000000,4.000000,,,,,,,,,,,,,,,,,,,,,,,,,
1577421185.030435,2.000000,0.000000,4221.538574,4197.436035,4106.666504,4097.948730,4191.794922,16224.000000,4.000000,,,,0.000000,4.000000,4.000000,4.000000,4.000000,4.000000,,,,,,,,,,,,,,,,,,,,,,,,,
1577421185.038332,3.000000,0.000000,4224.102539,4181.025879,4102.563965,4088.205078,4198.461426,450.000000,4.000000,,,,0.000000,4.000000,4.000000,4.000000,4.000000,4.000000,,,,,,,,,,,,,,,,,,,,,,,,,
1577421185.046128,4.000000,0.000000,4242.563965,4185.641113,4104.615234,4080.000000,4204.615234,16204.000000,4.000000,,,,0.000000,4.000000,4.000000,4.000000,4.000000,4.000000,,,,,,,,,,,,,,,,,,,,,,,,,
1577421185.054025,5.000000,0.000000,4305.128418,4213.846191,4125.128418,4109.743652,4244.102539,450.000000,4.000000,,,,0.000000,4.000000,4.000000,4.000000,4.000000,4.000000,,,,,,,,,,,,,,,,,,,,,,,,,
1577421185.061822,6.000000,0.000000,4398.461426,4223.077148,4150.256348,4145.641113,4305.641113,16167.000000,4.000000,,,,0.000000,4.000000,4.000000,4.000000,4.000000,4.000000,,,,,,,,,,,,,,,,,,,,,,,,,
1577421185.069718,7.000000,0.000000,4482.563965,4222.563965,4149.230957,4131.794922,4340.000000,450.000000,4.000000,,,,0.000000,4.000000,4.000000,4.000000,4.000000,4.000000,,,,,,,,,,,,,,,,,,,,,,,,,
1577421185.077515,8.000000,0.000000,4556.410156,4237.436035,4144.102539,4111.282227,4373.846191,450.000000,4.000000,,,,0.000000,4.000000,4.000000,4.000000,4.000000,4.000000,,,,,,,,,,,,,,,,,,,,,,,,,
1577421185.085412,9.000000,0.000000,4615.384766,4241.025879,4157.948730,4118.974121,4420.512695,16170.000000,4.000000,,,,0.000000,4.000000,4.000000,4.000000,4.000000,4.000000,39.552105,29.757561,11.337684,6.886791,36.615646,15.292140,7.283844,4.712658,3.897407,28.264818,49.302620,23.767225,14.323015,9.140456,32.774178,20.453169,14.163891,5.315635,4.961049,30.006845,41.692131,27.721178,8.397047,3.063846,27.831919
1577421185.093209,10.000000,0.000000,4622.563965,4217.436035,4153.846191,4123.077148,4426.153809,450.000000,4.000000,,,,0.000000,4.000000,4.000000,4.000000,4.000000,4.000000,,,,,,,,,,,,,,,,,,,,,,,,,
1577421185.101105,11.000000,0.000000,4605.128418,4208.205078,4140.000000,4129.230957,4403.589844,16210.000000,4.000000,,,,0.000000,4.000000,4.000000,4.000000,4.000000,4.000000,,,,,,,,,,,,,,,,,,,,,,,,,
1577421185.109002,12.000000,0.000000,4603.589844,4218.974121,4152.307617,4136.410156,4403.077148,450.000000,4.000000,,,,0.000000,4.000000,4.000000,4.000000,4.000000,4.000000,,,,,,,,,,,,,,,,,,,,,,,,,
1577421185.116799,13.000000,0.000000,4595.384766,4225.641113,4161.538574,4117.948730,4406.666504,450.000000,4.000000,,,,0.000000,4.000000,4.000000,4.000000,4.000000,4.000000,,,,,,,,,,,,,,,,,,,,,,,,,
1577421185.124695,14.000000,0.000000,4570.769043,4232.307617,4156.922852,4109.230957,4395.897461,450.000000,4.000000,,,,0.000000,4.000000,4.000000,4.000000,4.000000,4.000000,,,,,,,,,,,,,,,,,,,,,,,,,
1577421185.132492,15.000000,0.000000,4560.000000,4236.922852,4168.205078,4131.282227,4400.512695,16210.000000,4.000000,,,,0.000000,4.000000,4.000000,4.000000,4.000000,4.000000,,,,,,,,,,,,,,,,,,,,,,,,,
1577421185.140389,16.000000,0.000000,4551.794922,4241.538574,4186.666504,4157.436035,4405.641113,0.000000,4.000000,,,,0.000000,4.000000,4.000000,4.000000,4.000000,4.000000,,,,,,,,,,,,,,,,,,,,,,,,,
1577421185.148186,17.000000,0.000000,4515.897461,4251.794922,4184.102539,4163.077148,4386.666504,0.000000,4.000000,,,,0.000000,4.000000,4.000000,4.000000,4.000000,4.000000,,,,,,,,,,,,,,,,,,,,,,,,,
1577421185.156082,18.000000,0.000000,4477.948730,4250.769043,4173.333496,4143.589844,4364.615234,0.000000,4.000000,,,,0.000000,4.000000,4.000000,4.000000,4.000000,4.000000,,,,,,,,,,,,,,,,,,,,,,,,,
1577421185.163879,19.000000,0.000000,4450.769043,4237.948730,4167.692383,4123.077148,4338.974121,0.000000,4.000000,,,,0.000000,4.000000,4.000000,4.000000,4.000000,4.000000,,,,,,,,,,,,,,,,,,,,,,,,,
1577421185.171776,20.000000,0.000000,4420.512695,4238.974121,4161.538574,4121.538574,4309.230957,0.000000,4.000000,,,,0.000000,4.000000,4.000000,4.000000,4.000000,4.000000,,,,,,,,,,,,,,,,,,,,,,,,,
1577421185.179572,21.000000,0.000000,4401.538574,4252.307617,4156.922852,4121.025879,4302.563965,0.000000,4.000000,,,,0.000000,4.000000,4.000000,4.000000,4.000000,4.000000,,,,,,,,,,,,,,,,,,,,,,,,,
1577421185.187469,22.000000,0.000000,4391.282227,4249.230957,4150.256348,4114.358887,4298.974121,0.000000,4.000000,,,,0.000000,4.000000,4.000000,4.000000,4.000000,4.000000,,,,,,,,,,,,,,,,,,,,,,,,,
1577421185.195266,23.000000,0.000000,4358.461426,4227.692383,4141.025879,4123.589844,4272.307617,0.000000,4.000000,,,,0.000000,4.000000,4.000000,4.000000,4.000000,4.000000,,,,,,,,,,,,,,,,,,,,,,,,,
1577421185.203162,24.000000,0.000000,4323.589844,4227.179688,4141.025879,4138.461426,4249.230957,0.000000,4.000000,,,,0.000000,4.000000,4.000000,4.000000,4.000000,4.000000,,,,,,,,,,,,,,,,,,,,,,,,,
1577421185.211059,25.000000,0.000000,4317.436035,4246.666504,4144.615234,4127.179688,4244.615234,0.000000,4.000000,,,,0.000000,4.000000,4.000000,4.000000,4.000000,4.000000,34.253895,25.566025,9.486707,6.155724,30.768675,15.204866,6.407892,3.961370,3.472015,23.778746,48.749874,20.474449,11.780643,7.988906,27.590498,18.348333,12.272515,4.043589,4.551167,25.955084,36.531731,24.041807,6.962512,3.013529,23.683449
1577421185.218856,26.000000,0.000000,4316.410156,4245.128418,4144.615234,4125.128418,4246.153809,0.000000,4.000000,,,,0.000000,4.000000,4.000000,4.000000,4.000000,4.000000,,,,,,,,,,,,,,,,,,,,,,,,,
1577421185.226653,27.000000,0.000000,4286.153809,4220.512695,4127.692383,4123.077148,4228.205078,0.000000,4.000000,,,,0.000000,4.000000,4.000000,4.000000,4.000000,4.000000,,,,,,,,,,,,,,,,,,,,,,,,,
1577421185.234550,28.000000,0.000000,4246.666504,4209.743652,4103.589844,4081.538574,4201.025879,0.000000,4.000000,,,,0.000000,4.000000,4.000000,4.000000,4.000000,4.000000,,,,,,,,,,,,,,,,,,,,,,,,,
1577421185.242347,29.000000,0.000000,4251.794922,4227.692383,4125.641113,4083.589844,4214.871582,0.000000,4.000000,,,,0.000000,4.000000,4.000000,4.000000,4.000000,4.000000,,,,,,,,,,,,,,,,,,,,,,,,,
1577421185.250243,30.000000,0.000000,4268.205078,4236.410156,4157.948730,4134.358887,4228.717773,0.000000,4.000000,,,,0.000000,4.000000,4.000000,4.000000,4.000000,4.000000,,,,,,,,,,,,,,,,,,,,,,,,,
1577421185.258040,31.000000,0.000000,4268.205078,4238.461426,4160.000000,4156.922852,4225.128418,0.000000,4.000000,,,,0.000000,4.000000,4.000000,4.000000,4.000000,4.000000,,,,,,,,,,,,,,,,,,,,,,,,,
1577421185.265937,32.000000,0.000000,4272.820313,4250.769043,4167.692383,4143.589844,4232.307617,0.000000,4.000000,,,,0.000000,4.000000,4.000000,4.000000,4.000000,4.000000,,,,,,,,,,,,,,,,,,,,,,,,,
1577421185.273734,33.000000,0.000000,4257.436035,4242.051270,4167.692383,4115.897461,4219.487305,0.000000,4.000000,,,,0.000000,4.000000,4.000000,4.000000,4.000000,4.000000,,,,,,,,,,,,,,,,,,,,,,,,,
1577421185.281630,34.000000,0.000000,4234.871582,4228.717773,4147.692383,4108.717773,4201.025879,0.000000,4.000000,,,,0.000000,4.000000,4.000000,4.000000,4.000000,4.000000,,,,,,,,,,,,,,,,,,,,,,,,,
1577421185.289527,35.000000,0.000000,4244.615234,4243.077148,4155.897461,4131.282227,4213.846191,0.000000,4.000000,,,,0.000000,4.000000,4.000000,4.000000,4.000000,4.000000,,,,,,,,,,,,,,,,,,,,,,,,,
1577421185.297324,36.000000,0.000000,4248.717773,4250.256348,4175.897461,4141.025879,4222.051270,0.000000,4.000000,,,,0.000000,4.000000,4.000000,4.000000,4.000000,4.000000,,,,,,,,,,,,,,,,,,,,,,,,,
1577421185.305121,37.000000,0.000000,4221.538574,4236.922852,4161.538574,4115.384766,4193.333496,0.000000,4.000000,,,,0.000000,4.000000,4.000000,4.000000,4.000000,4.000000,,,,,,,,,,,,,,,,,,,,,,,,,
1577421185.313017,38.000000,0.000000,4209.743652,4233.846191,4146.153809,4111.282227,4175.384766,0.000000,4.000000,,,,0.000000,4.000000,4.000000,4.000000,4.000000,4.000000,,,,,,,,,,,,,,,,,,,,,,,,,
1577421185.320814,39.000000,0.000000,4223.589844,4242.563965,4159.487305,4135.384766,4194.358887,0.000000,4.000000,,,,0.000000,4.000000,4.000000,4.000000,4.000000,4.000000,,,,,,,,,,,,,,,,,,,,,,,,,
1577421185.328711,40.000000,0.000000,4222.563965,4243.077148,4168.717773,4121.538574,4203.077148,0.000000,4.000000,,,,0.000000,4.000000,4.000000,4.000000,4.000000,4.000000,,,,,,,,,,,,,,,,,,,,,,,,,
1577421185.336507,41.000000,0.000000,4214.358887,4248.205078,4167.179688,4086.666748,4199.487305,0.000000,4.000000,,,,0.000000,4.000000,4.000000,4.000000,4.000000,4.000000,29.658741,20.074711,7.440574,5.241691,22.059088,14.542027,4.961155,2.953347,2.874013,17.030973,44.314686,15.252301,8.441335,6.348667,19.796383,14.655077,9.389650,2.978887,4.133972,19.601700,28.856817,18.503096,5.346768,3.038729,17.303019
1577421185.344404,42.000000,0.000000,4230.769043,4262.051270,4177.948730,4106.666504,4216.410156,0.000000,4.000000,,,,0.000000,4.000000,4.000000,4.000000,4.000000,4.000000,,,,,,,,,,,,,,,,,,,,,,,,,
1577421185.352301,43.000000,0.000000,4248.205078,4258.461426,4189.743652,4154.358887,4234.358887,0.000000,4.000000,,,,0.000000,4.000000,4.000000,4.000000,4.000000,4.000000,,,,,,,,,,,,,,,,,,,,,,,,,
1577421185.360097,44.000000,0.000000,4240.000000,4246.153809,4179.487305,4135.897461,4229.743652,0.000000,4.000000,,,,0.000000,4.000000,4.000000,4.000000,4.000000,4.000000,,,,,,,,,,,,,,,,,,,,,,,,,
1577421185.367894,45.000000,0.000000,4228.205078,4241.025879,4162.051270,4104.102539,4213.846191,0.000000,4.000000,,,,0.000000,4.000000,4.000000,4.000000,4.000000,4.000000,,,,,,,,,,,,,,,,,,,,,,,,,
1577421185.375791,46.000000,0.000000,4217.436035,4234.358887,4149.743652,4112.820313,4197.436035,0.000000,4.000000,,,,0.000000,4.000000,4.000000,4.000000,4.000000,4.000000,,,,,,,,,,,,,,,,,,,,,,,,,
1577421185.383688,47.000000,0.000000,4195.384766,4214.871582,4135.384766,4100.000000,4182.563965,0.000000,4.000000,,,,0.000000,4.000000,4.000000,4.000000,4.000000,4.000000,,,,,,,,,,,,,,,,,,,,,,,,,
1577421185.391484,48.000000,0.000000,4182.563965,4197.948730,4124.102539,4082.564209,4180.512695,0.000000,4.000000,,,,0.000000,4.000000,4.000000,4.000000,4.000000,4.000000,,,,,,,,,,,,,,,,,,,,,,,,,
1577421185.399381,49.000000,0.000000,4193.846191,4196.410156,4123.589844,4108.205078,4196.410156,0.000000,4.000000,,,,0.000000,4.000000,4.000000,4.000000,4.000000,4.000000,,,,,,,,,,,,,,,,,,,,,,,,,
1577421185.407178,50.000000,0.000000,4189.230957,4191.282227,4117.948730,4112.820313,4190.769043,0.000000,4.000000,,,,0.000000,4.000000,4.000000,4.000000,4.000000,4.000000,,,,,,,,,,,,,,,,,,,,,,,,,
1577421185.415074,51.000000,0.000000,4156.410156,4178.461426,4099.487305,4074.358887,4154.358887,0.000000,4.000000,,,,0.000000,4.000000,4.000000,4.000000,4.000000,4.000000,,,,,,,,,,,,,,,,,,,,,,,,,
1577421185.422871,52.000000,0.000000,4146.666504,4175.897461,4096.922852,4065.128174,4143.589844,0.000000,4.000000,,,,0.000000,4.000000,4.000000,4.000000,4.000000,4.000000,,,,,,,,,,,,,,,,,,,,,,,,,
1577421185.430768,53.000000,0.000000,4169.230957,4184.102539,4115.897461,4083.076904,4165.128418,0.000000,4.000000,,,,0.000000,4.000000,4.000000,4.000000,4.000000,4.000000,,,,,,,,,,,,,,,,,,,,,,,,,
1577421185.438565,54.000000,0.000000,4187.179688,4194.358887,4128.717773,4103.077148,4182.563965,0.000000,4.000000,,,,0.000000,4.000000,4.000000,4.000000,4.000000,4.000000,,,,,,,,,,,,,,,,,,,,,,,,,
1577421185.446461,55.000000,0.000000,4191.282227,4201.538574,4130.769043,4117.436035,4184.615234,0.000000,4.000000,,,,0.000000,4.000000,4.000000,4.000000,4.000000,4.000000,,,,,,,,,,,,,,,,,,,,,,,,,
1577421185.454258,56.000000,0.000000,4181.025879,4196.410156,4120.512695,4098.461426,4176.410156,0.000000,4.000000,,,,0.000000,4.000000,4.000000,4.000000,4.000000,4.000000,,,,,,,,,,,,,,,,,,,,,,,,,
1577421185.462155,57.000000,0.000000,4169.743652,4195.897461,4102.051270,4088.205078,4167.692383,0.000000,4.000000,,,,0.000000,4.000000,4.000000,4.000000,4.000000,4.000000,34.113369,16.305237,6.181981,4.429289,13.242738,13.449183,3.450347,1.998654,2.269904,10.184333,38.120266,9.902626,5.274410,4.696177,11.870589,10.513344,6.342946,2.335726,3.761498,12.996140,23.053499,13.103134,4.145939,3.089029,10.719729
1577421185.469951,58.000000,0.000000,4172.307617,4214.871582,4100.512695,4106.666504,4165.641113,0.000000,4.000000,,,,0.000000,4.000000,4.000000,4.000000,4.000000,4.000000,,,,,,,,,,,,,,,,,,,,,,,,,
1577421185.477848,59.000000,0.000000,4191.794922,4232.307617,4118.461426,4108.205078,4184.615234,0.000000,4.000000,,,,0.000000,4.000000,4.000000,4.000000,4.000000,4.000000,,,,,,,,,,,,,,,,,,,,,,,,,
1577421185.485645,60.000000,0.000000,4207.692383,4234.358887,4137.436035,4118.974121,4207.179688,0.000000,4.000000,,,,0.000000,4.000000,4.000000,4.000000,4.000000,4.000000,,,,,,,,,,,,,,,,,,,,,,,,,
1577421185.493542,61.000000,0.000000,4182.563965,4216.410156,4118.974121,4125.128418,4181.538574,0.000000,4.000000,,,,0.000000,4.000000,4.000000,4.000000,4.000000,4.000000,,,,,,,,,,,,,,,,,,,,,,,,,
1577421185.501338,62.000000,0.000000,4160.000000,4206.666504,4100.512695,4096.410156,4153.333496,0.000000,4.000000,,,,0.000000,4.000000,4.000000,4.000000,4.000000,4.000000,,,,,,,,,,,,,,,,,,,,,,,,,
1577421185.509235,63.000000,0.000000,4187.692383,4225.128418,4136.922852,4105.128418,4182.051270,0.000000,4.000000,,,,0.000000,4.000000,4.000000,4.000000,4.000000,4.000000,,,,,,,,,,,,,,,,,,,,,,,,,
1577421185.517032,64.000000,0.000000,4205.641113,4227.179688,4165.128418,4148.717773,4211.282227,450.000000,4.000000,,,,0.000000,4.000000,4.000000,4.000000,4.000000,4.000000,,,,,,,,,,,,,,,,,,,,,,,,,
1577421185.524928,65.000000,0.000000,4174.358887,4204.615234,4136.410156,4133.333496,4185.128418,450.000000,4.000000,,,,0.000000,4.000000,4.000000,4.000000,4.000000,4.000000,,,,,,,,,,,,,,,,,,,,,,,,,
1577421185.532825,66.000000,0.000000,4150.256348,4195.897461,4113.846191,4077.948730,4152.307617,16219.000000,4.000000,,,,0.000000,4.000000,4.000000,4.000000,4.000000,4.000000,,,,,,,,,,,,,,,,,,,,,,,,,
1577421185.540622,67.000000,0.000000,4157.436035,4202.051270,4126.153809,4073.333252,4160.512695,450.000000,4.000000,,,,0.000000,4.000000,4.000000,4.000000,4.000000,4.000000,,,,,,,,,,,,,,,,,,,,,,,,,
1577421185.548518,68.000000,0.000000,4146.666504,4203.077148,4116.410156,4086.666748,4156.410156,16201.000000,4.000000,,,,0.000000,4.000000,4.000000,4.000000,4.000000,4.000000,,,,,,,,,,,,,,,,,,,,,,,,,
1577421185.556315,69.000000,0.000000,4133.846191,4208.205078,4101.025879,4080.512939,4142.563965,450.000000,4.000000,,,,0.000000,4.000000,4.000000,4.000000,4.000000,4.000000,,,,,,,,,,,,,,,,,,,,,,,,,
1577421185.564212,70.000000,0.000000,4169.743652,4226.666504,4131.794922,4107.179688,4172.307617,16167.000000,4.000000,,,,0.000000,4.000000,4.000000,4.000000,4.000000,4.000000,,,,,,,,,,,,,,,,,,,,,,,,,
1577421185.572009,71.000000,0.000000,4196.922852,4232.307617,4157.436035,4145.128418,4205.128418,450.000000,4.000000,,,,0.000000,4.000000,4.000000,4.000000,4.000000,4.000000,,,,,,,,,,,,,,,,,,,,,,,,,
1577421185.579905,72.000000,0.000000,4178.974121,4218.461426,4144.615234,4144.102539,4199.487305,450.000000,4.000000,,,,0.000000,4.000000,4.000000,4.000000,4.000000,4.000000,,,,,,,,,,,,,,,,,,,,,,,,,
1577421185.587702,73.000000,0.000000,4163.589844,4213.846191,4133.846191,4103.589844,4177.948730,16166.000000,4.000000,,,,0.000000,4.000000,4.000000,4.000000,4.000000,4.000000,54.800373,16.520870,6.254895,3.894419,6.549385,12.181571,2.333129,1.350441,1.784822,4.992673,32.209900,5.948133,3.046777,3.395918,5.825850,7.069952,3.843566,2.160140,3.488593,7.841499,23.253767,9.457123,3.700467,3.086854,5.618197
1577421185.595599,74.000000,0.000000,4161.025879,4223.589844,4137.948730,4074.871826,4165.641113,450.000000,4.000000,,,,0.000000,4.000000,4.000000,4.000000,4.000000,4.000000,,,,,,,,,,,,,,,,,,,,,,,,,
1577421185.603396,75.000000,0.000000,4165.128418,4240.512695,4150.256348,4103.589844,4173.846191,16214.000000,4.000000,,,,0.000000,4.000000,4.000000,4.000000,4.000000,4.000000,,,,,,,,,,,,,,,,,,,,,,,,,
1577421185.611292,76.000000,0.000000,4188.205078,4253.846191,4167.179688,4145.128418,4197.948730,450.000000,4.000000,,,,0.000000,4.000000,4.000000,4.000000,4.000000,4.000000,,,,,,,,,,,,,,,,,,,,,,,,,
1577421185.619089,77.000000,0.000000,4201.538574,4260.512695,4166.666504,4143.589844,4205.641113,450.000000,4.000000,,,,0.000000,4.000000,4.000000,4.000000,4.000000,4.000000,,,,,,,,,,,,,,,,,,,,,,,,,
1577421185.626986,78.000000,0.000000,4188.717773,4261.025879,4146.666504,4117.948730,4186.666504,450.000000,4.000000,,,,0.000000,4.000000,4.000000,4.000000,4.000000,4.000000,,,,,,,,,,,,,,,,,,,,,,,,,
1577421185.634782,79.000000,0.000000,4165.128418,4250.769043,4134.871582,4115.384766,4167.179688,16214.000000,4.000000,,,,0.000000,4.000000,4.000000,4.000000,4.000000,4.000000,,,,,,,,,,,,,,,,,,,,,,,,,
1577421185.642679,80.000000,0.000000,4147.179688,4244.102539,4140.512695,4120.512695,4158.974121,450.000000,4.000000,,,,0.000000,4.000000,4.000000,4.000000,4.000000,4.000000,,,,,,,,,,,,,,,,,,,,,,,,,
1577421185.650476,81.000000,0.000000,4152.820313,4241.538574,4145.641113,4114.871582,4156.410156,450.000000,4.000000,,,,0.000000,4.000000,4.000000,4.000000,4.000000,4.000000,,,,,,,,,,,,,,,,,,,,,,,,,
1577421185.658372,82.000000,0.000000,4173.846191,4240.000000,4135.897461,4102.051270,4153.333496,450.000000,4.000000,,,,0.000000,4.000000,4.000000,4.000000,4.000000,4.000000,,,,,,,,,,,,,,,,,,,,,,,,,
1577421185.666169,83.000000,0.000000,4204.615234,4254.871582,4146.666504,4101.538574,4167.692383,16214.000000,4.000000,,,,0.000000,4.000000,4.000000,4.000000,4.000000,4.000000,,,,,,,,,,,,,,,,,,,,,,,,,
1577421185.674066,84.000000,0.000000,4246.666504,4277.948730,4184.102539,4136.922852,4203.589844,450.000000,4.000000,,,,0.000000,4.000000,4.000000,4.000000,4.000000,4.000000,,,,,,,,,,,,,,,,,,,,,,,,,
1577421185.681963,85.000000,0.000000,4270.769043,4281.538574,4193.846191,4150.769043,4221.538574,450.000000,4.000000,,,,0.000000,4.000000,4.000000,4.000000,4.000000,4.000000,,,,,,,,,,,,,,,,,,,,,,,,,
1577421185.689759,86.000000,0.000000,4267.692383,4272.820313,4173.333496,4110.769043,4204.102539,450.000000,4.000000,,,,0.000000,4.000000,4.000000,4.000000,4.000000,4.000000,,,,,,,,,,,,,,,,,,,,,,,,,
1577421185.697656,87.000000,0.000000,4270.256348,4272.820313,4169.743652,4087.179443,4194.871582,16214.000000,4.000000,,,,0.000000,4.000000,4.000000,4.000000,4.000000,4.000000,,,,,,,,,,,,,,,,,,,,,,,,,
1577421185.705453,88.000000,0.000000,4280.000000,4269.743652,4183.077148,4120.000000,4204.615234,450.000000,4.000000,,,,0.000000,4.000000,4.000000,4.000000,4.000000,4.000000,,,,,,,,,,,,,,,,,,,,,,,,,
1577421185.713349,89.000000,0.000000,4256.922852,4260.000000,4169.743652,4137.948730,4188.717773,450.000000,4.000000,,,,0.000000,4.000000,4.000000,4.000000,4.000000,4.000000,92.510796,20.874550,7.496936,3.640663,2.817681,11.469046,1.856850,1.085200,1.455882,2.115487,28.069450,4.012200,2.027884,2.565898,2.428626,4.974922,2.254398,2.308656,3.355381,4.832999,30.982885,8.138514,3.964070,2.988723,2.682591
1577421185.721146,90.000000,0.000000,4217.948730,4249.230957,4137.948730,4092.820557,4153.333496,450.000000,4.000000,,,,0.000000,4.000000,4.000000,4.000000,4.000000,4.000000,,,,,,,,,,,,,,,,,,,,,,,,,
1577421185.729043,91.000000,0.000000,4210.769043,4251.794922,4142.563965,4069.230713,4149.230957,16214.000000,4.000000,,,,0.000000,4.000000,4.000000,4.000000,4.000000,4.000000,,,,,,,,,,,,,,,,,,,,,,,,,
1577421185.736840,92.000000,0.000000,4221.025879,4262.563965,4167.179688,4108.717773,4167.179688,450.000000,4.000000,,,,0.000000,4.000000,4.000000,4.000000,4.000000,4.000000,,,,,,,,,,,,,,,,,,,,,,,,,
1577421185.744736,93.000000,0.000000,4213.333496,4264.615234,4170.256348,4130.256348,4170.769043,450.000000,4.000000,,,,0.000000,4.000000,4.000000,4.000000,4.000000,4.000000,,,,,,,,,,,,,,,,,,,,,,,,,
1577421185.752533,94.000000,0.000000,4186.666504,4254.871582,4154.358887,4086.153809,4146.666504,450.000000,4.000000,,,,0.000000,4.000000,4.000000,4.000000,4.000000,4.000000,,,,,,,,,,,,,,,,,,,,,,,,,
1577421185.760430,95.000000,0.000000,4152.820313,4236.922852,4134.358887,4042.564209,4111.794922,16214.000000,4.000000,,,,0.000000,4.000000,4.000000,4.000000,4.000000,4.000000,,,,,,,,,,,,,,,,,,,,,,,,,
1577421185.768226,96.000000,0.000000,4154.358887,4251.282227,4150.769043,4075.897461,4116.410156,450.000000,4.000000,,,,0.000000,4.000000,4.000000,4.000000,4.000000,4.000000,,,,,,,,,,,,,,,,,,,,,,,,,
1577421185.776123,97.000000,0.000000,4209.743652,4293.846191,4205.641113,4141.025879,4174.871582,450.000000,4.000000,,,,0.000000,4.000000,4.000000,4.000000,4.000000,4.000000,,,,,,,,,,,,,,,,,,,,,,,,,
1577421185.783920,98.000000,0.000000,4242.051270,4299.487305,4223.589844,4150.769043,4210.256348,450.000000,4.000000,,,,0.000000,4.000000,4.000000,4.000000,4.000000,4.000000,,,,,,,,,,,,,,,,,,,,,,,,,
1577421185.791717,99.000000,0.000000,4212.820313,4266.153809,4182.563965,4117.436035,4176.922852,16214.000000,4.000000,,,,0.000000,4.000000,4.000000,4.000000,4.000000,4.000000,,,,,,,,,,,,,,,,,,,,,,,,,
1577421185.799613,100.000000,0.000000,4191.282227,4255.384766,4165.128418,4106.666504,4151.282227,450.000000,4.000000,,,,0.000000,4.000000,4.000000,4.000000,4.000000,4.000000,,,,,,,,,,,,,,,,,,,,,,,,,
1577421185.807510,101.000000,0.000000,4208.205078,4278.974121,4195.384766,4119.487305,4172.307617,450.000000,4.000000,,,,0.000000,4.000000,4.000000,4.000000,4.000000,4.000000,,,,,,,,,,,,,,,,,,,,,,,,,
1577421185.815307,102.000000,0.000000,4203.589844,4286.153809,4198.974121,4114.871582,4170.256348,450.000000,4.000000,,,,0.000000,4.000000,4.000000,4.000000,4.000000,4.000000,,,,,,,,,,,,,,,,,,,,,,,,,
1577421185.823103,103.000000,0.000000,4179.487305,4275.897461,4174.871582,4109.743652,4151.282227,16214.000000,4.000000,,,,0.000000,4.000000,4.000000,4.000000,4.000000,4.000000,,,,,,,,,,,,,,,,,,,,,,,,,
1577421185.831000,104.000000,0.000000,4180.000000,4258.974121,4168.717773,4116.922852,4155.897461,450.000000,4.000000,,,,0.000000,4.000000,4.000000,4.000000,4.000000,4.000000,,,,,,,,,,,,,,,,,,,,,,,,,
1577421185.838897,105.000000,0.000000,4190.769043,4240.000000,4173.333496,4110.769043,4164.102539,450.000000,4.000000,,,,0.000000,4.000000,4.000000,4.000000,4.000000,4.000000,138.129318,27.497849,9.098580,3.547799,1.465303,11.313763,1.981365,1.091488,1.247267,1.090086,25.514257,3.744726,1.957442,2.117476,1.171632,4.169217,1.537718,2.595436,3.411095,3.597370,43.996960,8.653949,4.532746,2.814059,1.543935
1577421185.846794,106.000000,0.000000,4203.589844,4252.820313,4185.128418,4102.051270,4175.897461,450.000000,4.000000,,,,0.000000,4.000000,4.000000,4.000000,4.000000,4.000000,,,,,,,,,,,,,,,,,,,,,,,,,
1577421185.854591,107.000000,0.000000,4193.846191,4261.025879,4180.000000,4093.846191,4164.102539,16214.000000,4.000000,,,,0.000000,4.000000,4.000000,4.000000,4.000000,4.000000,,,,,,,,,,,,,,,,,,,,,,,,,
1577421185.862388,108.000000,0.000000,4150.256348,4224.102539,4142.051270,4081.538574,4116.922852,450.000000,4.000000,,,,0.000000,4.000000,4.000000,4.000000,4.000000,4.000000,,,,,,,,,,,,,,,,,,,,,,,,,
1577421185.870284,109.000000,0.000000,4155.384766,4230.256348,4145.128418,4098.461426,4121.025879,450.000000,4.000000,,,,0.000000,4.000000,4.000000,4.000000,4.000000,4.000000,,,,,,,,,,,,,,,,,,,,,,,,,
1577421185.878081,110.000000,0.000000,4218.974121,4288.717773,4201.025879,4137.948730,4190.256348,450.000000,4.000000,,,,0.000000,4.000000,4.000000,4.000000,4.000000,4.000000,,,,,,,,,,,,,,,,,,,,,,,,,
1577421185.885978,111.000000,0.000000,4247.179688,4293.333496,4215.384766,4156.410156,4223.589844,16214.000000,4.000000,,,,0.000000,4.000000,4.000000,4.000000,4.000000,4.000000,,,,,,,,,,,,,,,,,,,,,,,,,
1577421185.893775,112.000000,0.000000,4227.179688,4254.358887,4187.179688,4147.179688,4203.077148,450.000000,4.000000,,,,0.000000,4.000000,4.000000,4.000000,4.000000,4.000000,,,,,,,,,,,,,,,,,,,,,,,,,
1577421185.901671,113.000000,0.000000,4210.769043,4253.333496,4182.563965,4130.769043,4190.256348,450.000000,4.000000,,,,0.000000,4.000000,4.000000,4.000000,4.000000,4.000000,,,,,,,,,,,,,,,,,,,,,,,,,
1577421185.909468,114.000000,0.000000,4215.897461,4270.769043,4190.769043,4116.410156,4197.948730,450.000000,4.000000,,,,0.000000,4.000000,4.000000,4.000000,4.000000,4.000000,,,,,,,,,,,,,,,,,,,,,,,,,
1577421185.917365,115.000000,0.000000,4238.974121,4255.384766,4178.461426,4105.128418,4203.589844,16214.000000,4.000000,,,,0.000000,4.000000,4.000000,4.000000,4.000000,4.000000,,,,,,,,,,,,,,,,,,,,,,,,,
1577421185.925161,116.000000,0.000000,4263.077148,4235.897461,4162.051270,4110.256348,4202.563965,450.000000,4.000000,,,,0.000000,4.000000,4.000000,4.000000,4.000000,4.000000,,,,,,,,,,,,,,,,,,,,,,,,,
1577421185.933058,117.000000,0.000000,4281.538574,4251.794922,4167.179688,4116.410156,4205.641113,450.000000,4.000000,,,,0.000000,4.000000,4.000000,4.000000,4.000000,4.000000,,,,,,,,,,,,,,,,,,,,,,,,,
1577421185.940855,118.000000,0.000000,4318.974121,4278.461426,4189.230957,4121.025879,4238.974121,450.000000,4.000000,,,,0.000000,4.000000,4.000000,4.000000,4.000000,4.000000,,,,,,,,,,,,,,,,,,,,,,,,,
1577421185.948751,119.000000,0.000000,4341.538574,4278.974121,4195.897461,4144.615234,4264.615234,16214.000000,4.000000,,,,0.000000,4.000000,4.000000,4.000000,4.000000,4.000000,,,,,,,,,,,,,,,,,,,,,,,,,
1577421185.956648,120.000000,0.000000,4312.820313,4262.563965,4173.333496,4151.282227,4240.512695,450.000000,4.000000,,,,0.000000,4.000000,4.000000,4.000000,4.000000,4.000000,,,,,,,,,,,,,,,,,,,,,,,,,
1577421185.964445,121.000000,0.000000,4292.820313,4257.436035,4154.871582,4124.102539,4223.077148,450.000000,4.000000,,,,0.000000,4.000000,4.000000,4.000000,4.000000,4.000000,176.740479,33.661659,10.092566,3.510131,1.236890,11.509558,2.456306,1.187394,1.108749,0.919687,23.649427,4.282994,2.288261,1.884121,0.946172,4.051846,1.414913,2.820439,3.699750,3.238302,56.979179,10.009459,4.902160,2.678141,1.305511
1577421185.972342,122.000000,0.000000,4290.256348,4253.333496,4147.179688,4109.743652,4222.051270,450.000000,4.000000,,,,0.000000,4.000000,4.000000,4.000000,4.000000,4.000000,,,,,,,,,,,,,,,,,,,,,,,,,
1577421185.980138,123.000000,0.000000,4255.384766,4237.436035,4120.512695,4107.692383,4194.358887,16214.000000,4.000000,,,,0.000000,4.000000,4.000000,4.000000,4.000000,4.000000,,,,,,,,,,,,,,,,,,,,,,,,,
1577421185.988035,124.000000,0.000000,4216.410156,4221.538574,4094.358887,4091.794922,4164.615234,450.000000,4.000000,,,,0.000000,4.000000,4.000000,4.000000,4.000000,4.000000,,,,,,,,,,,,,,,,,,,,,,,,,
1577421185.995832,125.000000,0.000000,4216.922852,4216.410156,4097.948730,4076.410156,4162.563965,450.000000,4.000000,,,,0.000000,4.000000,4.000000,4.000000,4.000000,4.000000,,,,,,,,,,,,,,,,,,,,,,,,,
1577421186.003728,126.000000,0.000000,4234.871582,4222.051270,4110.769043,4084.102539,4181.025879,450.000000,4.000000,,,,0.000000,4.000000,4.000000,4.000000,4.000000,4.000000,,,,,,,,,,,,,,,,,,,,,,,,,
1577421186.011525,127.000000,0.000000,4226.153809,4221.025879,4104.615234,4106.666504,4183.077148,235.000000,4.000000,,,,0.000000,4.000000,4.000000,4.000000,4.000000,4.000000,,,,,,,,,,,,,,,,,,,,,,,,,
1577421186.019422,0.000000,0.000000,4203.077148,4204.615234,4092.307617,4104.102539,4164.615234,450.000000,4.000000,,,,0.000000,4.000000,4.000000,4.000000,4.000000,4.000000,,,,,,,,,,,,,,,,,,,,,,,,,
1577421186.027219,1.000000,0.000000,4201.538574,4199.487305,4086.153809,4082.564209,4158.461426,450.000000,4.000000,,,,0.000000,4.000000,4.000000,4.000000,4.000000,4.000000,,,,,,,,,,,,,,,,,,,,,,,,,
1577421186.035115,2.000000,0.000000,4181.538574,4192.820313,4055.384521,4062.564209,4135.384766,16213.000000,4.000000,,,,0.000000,4.000000,4.000000,4.000000,4.000000,4.000000,,,,,,,,,,,,,,,,,,,,,,,,,
1577421186.042912,3.000000,0.000000,4158.461426,4183.077148,4033.846191,4072.307617,4115.897461,450.000000,4.000000,,,,0.000000,4.000000,4.000000,4.000000,4.000000,4.000000,,,,,,,,,,,,,,,,,,,,,,,,,
1577421186.050809,4.000000,0.000000,4196.922852,4195.384766,4071.794922,4108.205078,4152.820313,16202.000000,4.000000,,,,0.000000,4.000000,4.000000,4.000000,4.000000,4.000000,,,,,,,,,,,,,,,,,,,,,,,,,
1577421186.058605,5.000000,0.000000,4231.282227,4206.666504,4105.128418,4114.358887,4185.641113,450.000000,4.000000,,,,0.000000,4.000000,4.000000,4.000000,4.000000,4.000000,,,,,,,,,,,,,,,,,,,,,,,,,
1577421186.066502,6.000000,0.000000,4211.282227,4200.000000,4092.820557,4094.871826,4171.794922,16166.000000,4.000000,,,,0.000000,4.000000,4.000000,4.000000,4.000000,4.000000,,,,,,,,,,,,,,,,,,,,,,,,,
1577421186.074299,7.000000,0.000000,4198.461426,4196.922852,4080.000000,4098.974121,4163.589844,450.000000,4.000000,,,,0.000000,4.000000,4.000000,4.000000,4.000000,4.000000,,,,,,,,,,,,,,,,,,,,,,,,,
1577421186.082196,8.000000,0.000000,4210.769043,4201.538574,4081.538574,4105.641113,4173.846191,450.000000,4.000000,,,,0.000000,4.000000,4.000000,4.000000,4.000000,4.000000,,,,,,,,,,,,,,,,,,,,,,,,,
1577421186.090092,9.000000,0.000000,4203.589844,4198.461426,4081.538574,4090.256348,4168.205078,16166.000000,4.000000,,,,0.000000,4.000000,4.000000,4.000000,4.000000,4.000000,194.049988,37.206123,9.925486,3.559042,1.242628,11.717679,3.017262,1.255289,1.038711,0.893780,21.310997,4.921390,2.580492,1.796803,0.971774,3.988800,1.618681,2.906563,4.225649,3.118101,64.174019,11.307103,4.799047,2.747111,1.311813
1577421186.097889,10.000000,0.000000,4197.436035,4198.974121,4091.281982,4095.384521,4168.205078,450.000000,4.000000,,,,0.000000,4.000000,4.000000,4.000000,4.000000,4.000000,,,,,,,,,,,,,,,,,,,,,,,,,
1577421186.105786,11.000000,0.000000,4205.128418,4200.512695,4096.922852,4105.641113,4175.384766,16212.000000,4.000000,,,,0.000000,4.000000,4.000000,4.000000,4.000000,4.000000,,,,,,,,,,,,,,,,,,,,,,,,,
1577421186.113582,12.000000,0.000000,4191.794922,4188.717773,4078.974365,4087.179443,4159.487305,450.000000,4.000000,,,,0.000000,4.000000,4.000000,4.000000,4.000000,4.000000,,,,,,,,,,,,,,,,,,,,,,,,,
1577421186.121479,13.000000,0.000000,4173.846191,4189.230957,4064.615479,4077.948730,4147.692383,450.000000,4.000000,,,,0.000000,4.000000,4.000000,4.000000,4.000000,4.000000,,,,,,,,,,,,,,,,,,,,,,,,,
1577421186.129276,14.000000,0.000000,4187.179688,4204.615234,4074.871826,4082.051270,4158.461426,450.000000,4.000000,,,,0.000000,4.000000,4.000000,4.000000,4.000000,4.000000,,,,,,,,,,,,,,,,,,,,,,,,,
1577421186.137173,15.000000,0.000000,4208.205078,4206.153809,4088.205078,4093.333252,4172.307617,16212.000000,4.000000,,,,0.000000,4.000000,4.000000,4.000000,4.000000,4.000000,,,,,,,,,,,,,,,,,,,,,,,,,
1577421186.144969,16.000000,0.000000,4174.871582,4183.077148,4060.000000,4084.615479,4144.102539,0.000000,4.000000,,,,0.000000,4.000000,4.000000,4.000000,4.000000,4.000000,,,,,,,,,,,,,,,,,,,,,,,,,
1577421186.152866,17.000000,0.000000,4120.512695,4173.846191,4021.025635,4044.615479,4090.256348,0.000000,4.000000,,,,0.000000,4.000000,4.000000,4.000000,4.000000,4.000000,,,,,,,,,,,,,,,,,,,,,,,,,
1577421186.160663,18.000000,0.000000,4146.666504,4206.666504,4053.846191,4069.230713,4117.436035,0.000000,4.000000,,,,0.000000,4.000000,4.000000,4.000000,4.000000,4.000000,,,,,,,,,,,,,,,,,,,,,,,,,
1577421186.168559,19.000000,0.000000,4222.563965,4240.000000,4117.948730,4146.153809,4201.025879,0.000000,4.000000,,,,0.000000,4.000000,4.000000,4.000000,4.000000,4.000000,,,,,,,,,,,,,,,,,,,,,,,,,
1577421186.176356,20.000000,0.000000,4231.282227,4223.589844,4111.794922,4127.179688,4206.666504,0.000000,4.000000,,,,0.000000,4.000000,4.000000,4.000000,4.000000,4.000000,,,,,,,,,,,,,,,,,,,,,,,,,
1577421186.184253,21.000000,0.000000,4204.102539,4207.179688,4078.461426,4079.487061,4171.282227,0.000000,4.000000,,,,0.000000,4.000000,4.000000,4.000000,4.000000,4.000000,,,,,,,,,,,,,,,,,,,,,,,,,
1577421186.192050,22.000000,0.000000,4218.461426,4228.717773,4085.641113,4108.205078,4180.512695,0.000000,4.000000,,,,0.000000,4.000000,4.000000,4.000000,4.000000,4.000000,,,,,,,,,,,,,,,,,,,,,,,,,
1577421186.199946,23.000000,0.000000,4218.974121,4223.077148,4084.615479,4102.563965,4181.538574,0.000000,4.000000,,,,0.000000,4.000000,4.000000,4.000000,4.000000,4.000000,,,,,,,,,,,,,,,,,,,,,,,,,
1577421186.207743,24.000000,0.000000,4201.538574,4204.615234,4077.435791,4085.128174,4168.717773,0.000000,4.000000,,,,0.000000,4.000000,4.000000,4.000000,4.000000,4.000000,,,,,,,,,,,,,,,,,,,,,,,,,
1577421186.215640,25.000000,0.000000,4206.666504,4221.538574,4088.205078,4124.615234,4174.871582,0.000000,4.000000,,,,0.000000,4.000000,4.000000,4.000000,4.000000,4.000000,183.602890,37.430450,8.769005,3.798641,1.337100,11.454412,3.521487,1.321151,1.060859,0.900324,18.460398,5.486951,2.752975,1.892090,1.130020,3.910658,2.034179,2.894568,4.917176,3.145716,62.657623,12.132429,4.278327,3.132857,1.448995
1577421186.223436,26.000000,0.000000,4198.461426,4223.589844,4077.948730,4115.384766,4166.153809,0.000000,4.000000,,,,0.000000,4.000000,4.000000,4.000000,4.000000,4.000000,,,,,,,,,,,,,,,,,,,,,,,,,
1577421186.231333,27.000000,0.000000,4183.077148,4204.102539,4067.179443,4075.897461,4153.333496,0.000000,4.000000,,,,0.000000,4.000000,4.000000,4.000000,4.000000,4.000000,,,,,,,,,,,,,,,,,,,,,,,,,
1577421186.239130,28.000000,0.000000,4194.871582,4208.205078,4082.564209,4096.922852,4167.179688,0.000000,4.000000,,,,0.000000,4.000000,4.000000,4.000000,4.000000,4.000000,,,,,,,,,,,,,,,,,,,,,,,,,
1577421186.247026,29.000000,0.000000,4209.743652,4221.538574,4090.769287,4108.205078,4181.538574,0.000000,4.000000,,,,0.000000,4.000000,4.000000,4.000000,4.000000,4.000000,,,,,,,,,,,,,,,,,,,,,,,,,
1577421186.254823,30.000000,0.000000,4202.051270,4221.538574,4078.974365,4088.718018,4175.384766,0.000000,4.000000,,,,0.000000,4.000000,4.000000,4.000000,4.000000,4.000000,,,,,,,,,,,,,,,,,,,,,,,,,
1577421186.262720,31.000000,0.000000,4200.000000,4219.487305,4074.871826,4115.897461,4176.410156,0.000000,4.000000,,,,0.000000,4.000000,4.000000,4.000000,4.000000,4.000000,,,,,,,,,,,,,,,,,,,,,,,,,
1577421186.270617,32.000000,0.000000,4212.307617,4218.974121,4077.948730,4142.563965,4186.153809,0.000000,4.000000,,,,0.000000,4.000000,4.000000,4.000000,4.000000,4.000000,,,,,,,,,,,,,,,,,,,,,,,,,
1577421186.278414,33.000000,0.000000,4211.794922,4211.282227,4067.692383,4124.615234,4181.025879,0.000000,4.000000,,,,0.000000,4.000000,4.000000,4.000000,4.000000,4.000000,,,,,,,,,,,,,,,,,,,,,,,,,
1577421186.286310,34.000000,0.000000,4189.230957,4211.282227,4062.564209,4105.641113,4163.077148,0.000000,4.000000,,,,0.000000,4.000000,4.000000,4.000000,4.000000,4.000000,,,,,,,,,,,,,,,,,,,,,,,,,
1577421186.294107,35.000000,0.000000,4180.000000,4213.333496,4072.820557,4108.205078,4163.077148,0.000000,4.000000,,,,0.000000,4.000000,4.000000,4.000000,4.000000,4.000000,,,,,,,,,,,,,,,,,,,,,,,,,
1577421186.301904,36.000000,0.000000,4200.512695,4202.563965,4078.461426,4128.205078,4187.179688,0.000000,4.000000,,,,0.000000,4.000000,4.000000,4.000000,4.000000,4.000000,,,,,,,,,,,,,,,,,,,,,,,,,
1577421186.309801,37.000000,0.000000,4209.230957,4205.128418,4078.974365,4136.922852,4203.589844,0.000000,4.000000,,,,0.000000,4.000000,4.000000,4.000000,4.000000,4.000000,,,,,,,,,,,,,,,,,,,,,,,,,
1577421186.317597,38.000000,0.000000,4186.153809,4216.410156,4072.820557,4115.384766,4190.769043,0.000000,4.000000,,,,0.000000,4.000000,4.000000,4.000000,4.000000,4.000000,,,,,,,,,,,,,,,,,,,,,,,,,
1577421186.325494,39.000000,0.000000,4160.000000,4204.615234,4057.948730,4104.102539,4170.256348,0.000000,4.000000,,,,0.000000,4.000000,4.000000,4.000000,4.000000,4.000000,,,,,,,,,,,,,,,,,,,,,,,,,
1577421186.333291,40.000000,0.000000,4155.384766,4193.846191,4055.384521,4110.769043,4162.051270,0.000000,4.000000,,,,0.000000,4.000000,4.000000,4.000000,4.000000,4.000000,,,,,,,,,,,,,,,,,,,,,,,,,
1577421186.341188,41.000000,0.000000,4162.563965,4208.205078,4066.153809,4108.717773,4168.205078,0.000000,4.000000,,,,0.000000,4.000000,4.000000,4.000000,4.000000,4.000000,150.769562,35.007545,7.195441,4.260945,1.536039,10.480285,3.887706,1.437518,1.163846,0.970133,14.992465,5.935635,2.814510,2.165056,1.426665,3.821982,2.576885,2.841346,5.619424,3.304934,53.168297,12.443370,3.569998,3.826575,1.714845
1577421186.349084,42.000000,0.000000,4168.205078,4222.051270,4073.846191,4123.589844,4181.538574,0.000000,4.000000,,,,0.000000,4.000000,4.000000,4.000000,4.000000,4.000000,,,,,,,,,,,,,,,,,,,,,,,,,
1577421186.356881,43.000000,0.000000,4161.538574,4210.769043,4075.384521,4136.922852,4177.436035,0.000000,4.000000,,,,0.000000,4.000000,4.000000,4.000000,4.000000,4.000000,,,,,,,,,,,,,,,,,,,,,,,,,
1577421186.364778,44.000000,0.000000,4171.282227,4216.410156,4089.230713,4128.717773,4185.128418,0.000000,4.000000,,,,0.000000,4.000000,4.000000,4.000000,4.000000,4.000000,,,,,,,,,,,,,,,,,,,,,,,,,
1577421186.372574,45.000000,0.000000,4200.000000,4254.358887,4108.717773,4127.692383,4212.307617,0.000000,4.000000,,,,0.000000,4.000000,4.000000,4.000000,4.000000,4.000000,,,,,,,,,,,,,,,,,,,,,,,,,
1577421186.380371,46.000000,0.000000,4191.282227,4256.410156,4100.512695,4126.153809,4204.102539,0.000000,4.000000,,,,0.000000,4.000000,4.000000,4.000000,4.000000,4.000000,,,,,,,,,,,,,,,,,,,,,,,,,
1577421186.388268,47.000000,0.000000,4170.769043,4229.743652,4085.641113,4131.282227,4184.615234,0.000000,4.000000,,,,0.000000,4.000000,4.000000,4.000000,4.000000,4.000000,,,,,,,,,,,,,,,,,,,,,,,,,
1577421186.396164,48.000000,0.000000,4184.102539,4240.000000,4093.846191,4148.717773,4194.871582,0.000000,4.000000,,,,0.000000,4.000000,4.000000,4.000000,4.000000,4.000000,,,,,,,,,,,,,,,,,,,,,,,,,
1577421186.403961,49.000000,0.000000,4201.538574,4265.128418,4105.128418,4148.205078,4214.871582,0.000000,4.000000,,,,0.000000,4.000000,4.000000,4.000000,4.000000,4.000000,,,,,,,,,,,,,,,,,,,,,,,,,
1577421186.411858,50.000000,0.000000,4191.794922,4261.025879,4101.025879,4149.230957,4212.307617,0.000000,4.000000,,,,0.000000,4.000000,4.000000,4.000000,4.000000,4.000000,,,,,,,,,,,,,,,,,,,,,,,,,
1577421186.419655,51.000000,0.000000,4166.153809,4241.538574,4087.692383,4139.487305,4187.179688,0.000000,4.000000,,,,0.000000,4.000000,4.000000,4.000000,4.000000,4.000000,,,,,,,,,,,,,,,,,,,,,,,,,
1577421186.427551,52.000000,0.000000,4154.871582,4227.179688,4080.512939,4114.358887,4172.820313,0.000000,4.000000,,,,0.000000,4.000000,4.000000,4.000000,4.000000,4.000000,,,,,,,,,,,,,,,,,,,,,,,,,
1577421186.435348,53.000000,0.000000,4150.769043,4210.769043,4072.820557,4111.794922,4163.589844,0.000000,4.000000,,,,0.000000,4.000000,4.000000,4.000000,4.000000,4.000000,,,,,,,,,,,,,,,,,,,,,,,,,
1577421186.443245,54.000000,0.000000,4138.461426,4209.743652,4060.000000,4121.025879,4150.769043,0.000000,4.000000,,,,0.000000,4.000000,4.000000,4.000000,4.000000,4.000000,,,,,,,,,,,,,,,,,,,,,,,,,
1577421186.451042,55.000000,0.000000,4148.717773,4229.743652,4072.307617,4129.743652,4164.615234,0.000000,4.000000,,,,0.000000,4.000000,4.000000,4.000000,4.000000,4.000000,,,,,,,,,,,,,,,,,,,,,,,,,
1577421186.458938,56.000000,0.000000,4160.512695,4221.025879,4076.923096,4117.948730,4175.897461,0.000000,4.000000,,,,0.000000,4.000000,4.000000,4.000000,4.000000,4.000000,,,,,,,,,,,,,,,,,,,,,,,,,
1577421186.466735,57.000000,0.000000,4111.794922,4180.512695,4020.512939,4064.615479,4128.717773,0.000000,4.000000,,,,0.000000,4.000000,4.000000,4.000000,4.000000,4.000000,109.288704,31.287766,5.860698,4.899408,1.826534,9.304266,4.063119,1.626325,1.309722,1.114667,12.118467,6.227222,2.792693,2.570137,1.819444,3.793077,3.153339,2.823557,6.155548,3.513299,39.821060,12.314006,2.948076,4.716830,2.071380
1577421186.474632,58.000000,0.000000,4084.102539,4185.641113,4001.025635,4061.538574,4102.563965,0.000000,4.000000,,,,0.000000,4.000000,4.000000,4.000000,4.000000,4.000000,,,,,,,,,,,,,,,,,,,,,,,,,
1577421186.482428,59.000000,0.000000,4152.820313,4237.948730,4074.358887,4154.358887,4173.333496,0.000000,4.000000,,,,0.000000,4.000000,4.000000,4.000000,4.000000,4.000000,,,,,,,,,,,,,,,,,,,,,,,,,
1577421186.490325,60.000000,0.000000,4211.282227,4262.563965,4116.410156,4194.871582,4235.897461,0.000000,4.000000,,,,0.000000,4.000000,4.000000,4.000000,4.000000,4.000000,,,,,,,,,,,,,,,,,,,,,,,,,
1577421186.498122,61.000000,0.000000,4188.205078,4246.153809,4076.410156,4131.794922,4210.256348,0.000000,4.000000,,,,0.000000,4.000000,4.000000,4.000000,4.000000,4.000000,,,,,,,,,,,,,,,,,,,,,,,,,
1577421186.506018,62.000000,0.000000,4165.641113,4234.871582,4057.948730,4119.487305,4186.666504,0.000000,4.000000,,,,0.000000,4.000000,4.000000,4.000000,4.000000,4.000000,,,,,,,,,,,,,,,,,,,,,,,,,
1577421186.513815,63.000000,0.000000,4188.205078,4244.615234,4091.281982,4163.077148,4214.358887,0.000000,4.000000,,,,0.000000,4.000000,4.000000,4.000000,4.000000,4.000000,,,,,,,,,,,,,,,,,,,,,,,,,
1577421186.521712,64.000000,0.000000,4202.051270,4248.205078,4097.436035,4171.282227,4231.794922,450.000000,4.000000,,,,0.000000,4.000000,4.000000,4.000000,4.000000,4.000000,,,,,,,,,,,,,,,,,,,,,,,,,
1577421186.529509,65.000000,0.000000,4188.717773,4238.974121,4074.358887,4159.487305,4218.974121,450.000000,4.000000,,,,0.000000,4.000000,4.000000,4.000000,4.000000,4.000000,,,,,,,,,,,,,,,,,,,,,,,,,
1577421186.537405,66.000000,0.000000,4170.256348,4231.794922,4068.718018,4151.794922,4196.922852,16216.000000,4.000000,,,,0.000000,4.000000,4.000000,4.000000,4.000000,4.000000,,,,,,,,,,,,,,,,,,,,,,,,,
1577421186.545302,67.000000,0.000000,4156.410156,4238.461426,4068.718018,4138.461426,4183.589844,450.000000,4.000000,,,,0.000000,4.000000,4.000000,4.000000,4.000000,4.000000,,,,,,,,,,,,,,,,,,,,,,,,,
1577421186.553099,68.000000,0.000000,4156.410156,4247.692383,4071.281982,4123.589844,4189.230957,16203.000000,4.000000,,,,0.000000,4.000000,4.000000,4.000000,4.000000,4.000000,,,,,,,,,,,,,,,,,,,,,,,,,
1577421186.560995,69.000000,0.000000,4164.615234,4243.589844,4080.512939,4120.512695,4196.410156,450.000000,4.000000,,,,0.000000,4.000000,4.000000,4.000000,4.000000,4.000000,,,,,,,,,,,,,,,,,,,,,,,,,
1577421186.568792,70.000000,0.000000,4184.615234,4247.179688,4085.128174,4134.871582,4211.282227,16174.000000,4.000000,,,,0.000000,4.000000,4.000000,4.000000,4.000000,4.000000,,,,,,,,,,,,,,,,,,,,,,,,,
1577421186.576689,71.000000,0.000000,4200.000000,4254.358887,4081.025635,4153.333496,4223.589844,450.000000,4.000000,,,,0.000000,4.000000,4.000000,4.000000,4.000000,4.000000,,,,,,,,,,,,,,,,,,,,,,,,,
1577421186.584486,72.000000,0.000000,4193.333496,4246.666504,4073.333252,4154.871582,4215.897461,450.000000,4.000000,,,,0.000000,4.000000,4.000000,4.000000,4.000000,4.000000,,,,,,,,,,,,,,,,,,,,,,,,,
1577421186.592382,73.000000,0.000000,4182.051270,4242.051270,4058.974365,4129.230957,4197.436035,16170.000000,4.000000,,,,0.000000,4.000000,4.000000,4.000000,4.000000,4.000000,72.755058,27.542578,5.145952,5.589584,2.171703,8.000421,4.030052,1.841326,1.450327,1.315678,9.707715,6.297271,2.694366,3.028291,2.231081,3.729887,3.705639,2.862530,6.385455,3.671865,27.074068,11.863482,2.581317,5.619779,2.457987
1577421186.600179,74.000000,0.000000,4170.256348,4248.717773,4043.589844,4114.358887,4178.461426,450.000000,4.000000,,,,0.000000,4.000000,4.000000,4.000000,4.000000,4.000000,,,,,,,,,,,,,,,,,,,,,,,,,
1577421186.608076,75.000000,0.000000,4166.666504,4247.179688,4047.179443,4126.153809,4176.410156,16209.000000,4.000000,,,,0.000000,4.000000,4.000000,4.000000,4.000000,4.000000,,,,,,,,,,,,,,,,,,,,,,,,,
1577421186.615872,76.000000,0.000000,4171.282227,4236.922852,4060.000000,4128.717773,4184.615234,450.000000,4.000000,,,,0.000000,4.000000,4.000000,4.000000,4.000000,4.000000,,,,,,,,,,,,,,,,,,,,,,,,,
1577421186.623769,77.000000,0.000000,4175.897461,4233.846191,4064.615479,4123.077148,4188.205078,450.000000,4.000000,,,,0.000000,4.000000,4.000000,4.000000,4.000000,4.000000,,,,,,,,,,,,,,,,,,,,,,,,,
1577421186.631566,78.000000,0.000000,4174.871582,4228.717773,4063.589844,4141.025879,4191.794922,450.000000,4.000000,,,,0.000000,4.000000,4.000000,4.000000,4.000000,4.000000,,,,,,,,,,,,,,,,,,,,,,,,,
1577421186.639463,79.000000,0.000000,4166.153809,4218.461426,4065.128174,4152.307617,4191.282227,16209.000000,4.000000,,,,0.000000,4.000000,4.000000,4.000000,4.000000,4.000000,,,,,,,,,,,,,,,,,,,,,,,,,
1577421186.647359,80.000000,0.000000,4164.615234,4222.051270,4069.230713,4122.563965,4194.358887,450.000000,4.000000,,,,0.000000,4.000000,4.000000,4.000000,4.000000,4.000000,,,,,,,,,,,,,,,,,,,,,,,,,
1577421186.655156,81.000000,0.000000,4151.282227,4219.487305,4056.410156,4100.512695,4177.436035,450.000000,4.000000,,,,0.000000,4.000000,4.000000,4.000000,4.000000,4.000000,,,,,,,,,,,,,,,,,,,,,,,,,
1577421186.663053,82.000000,0.000000,4124.615234,4194.871582,4040.000000,4113.333496,4147.179688,450.000000,4.000000,,,,0.000000,4.000000,4.000000,4.000000,4.000000,4.000000,,,,,,,,,,,,,,,,,,,,,,,,,
1577421186.670850,83.000000,0.000000,4143.077148,4196.922852,4066.666748,4121.538574,4169.743652,16209.000000,4.000000,,,,0.000000,4.000000,4.000000,4.000000,4.000000,4.000000,,,,,,,,,,,,,,,,,,,,,,,,,
1577421186.678747,84.000000,0.000000,4172.307617,4223.589844,4092.820557,4111.282227,4199.487305,450.000000,4.000000,,,,0.000000,4.000000,4.000000,4.000000,4.000000,4.000000,,,,,,,,,,,,,,,,,,,,,,,,,
1577421186.686544,85.000000,0.000000,4154.871582,4227.179688,4074.871826,4109.743652,4180.512695,450.000000,4.000000,,,,0.000000,4.000000,4.000000,4.000000,4.000000,4.000000,,,,,,,,,,,,,,,,,,,,,,,,,
1577421186.694440,86.000000,0.000000,4156.410156,4231.794922,4085.128174,4140.512695,4186.666504,450.000000,4.000000,,,,0.000000,4.000000,4.000000,4.000000,4.000000,4.000000,,,,,,,,,,,,,,,,,,,,,,,,,
1577421186.702237,87.000000,0.000000,4191.282227,4250.769043,4121.538574,4155.897461,4227.179688,16209.000000,4.000000,,,,0.000000,4.000000,4.000000,4.000000,4.000000,4.000000,,,,,,,,,,,,,,,,,,,,,,,,,
1577421186.710134,88.000000,0.000000,4208.717773,4256.410156,4122.563965,4149.230957,4238.974121,450.000000,4.000000,,,,0.000000,4.000000,4.000000,4.000000,4.000000,4.000000,,,,,,,,,,,,,,,,,,,,,,,,,
1577421186.717931,89.000000,0.000000,4203.589844,4248.717773,4103.077148,4132.820313,4219.487305,450.000000,4.000000,,,,0.000000,4.000000,4.000000,4.000000,4.000000,4.000000,50.064106,24.378723,5.096140,6.163943,2.529143,7.003169,3.835871,1.997239,1.547104,1.535309,8.759328,6.075187,2.554235,3.444650,2.589149,3.660611,4.188949,2.924681,6.281064,3.730219,18.539190,11.192202,2.540992,6.340807,2.818830
1577421186.725827,90.000000,0.000000,4193.333496,4252.307617,4098.461426,4118.461426,4205.128418,450.000000,4.000000,,,,0.000000,4.000000,4.000000,4.000000,4.000000,4.000000,,,,,,,,,,,,,,,,,,,,,,,,,
1577421186.733624,91.000000,0.000000,4194.358887,4269.230957,4109.230957,4140.512695,4208.717773,16209.000000,4.000000,,,,0.000000,4.000000,4.000000,4.000000,4.000000,4.000000,,,,,,,,,,,,,,,,,,,,,,,,,
1577421186.741521,92.000000,0.000000,4194.871582,4269.743652,4104.102539,4150.256348,4208.205078,450.000000,4.000000,,,,0.000000,4.000000,4.000000,4.000000,4.000000,4.000000,,,,,,,,,,,,,,,,,,,,,,,,,
1577421186.749317,93.000000,0.000000,4182.563965,4252.820313,4086.666748,4132.820313,4196.410156,450.000000,4.000000,,,,0.000000,4.000000,4.000000,4.000000,4.000000,4.000000,,,,,,,,,,,,,,,,,,,,,,,,,
1577421186.757214,94.000000,0.000000,4169.230957,4238.974121,4080.000000,4130.769043,4187.692383,450.000000,4.000000,,,,0.000000,4.000000,4.000000,4.000000,4.000000,4.000000,,,,,,,,,,,,,,,,,,,,,,,,,
1577421186.765011,95.000000,0.000000,4156.410156,4227.179688,4068.205078,4127.179688,4175.897461,16209.000000,4.000000,,,,0.000000,4.000000,4.000000,4.000000,4.000000,4.000000,,,,,,,,,,,,,,,,,,,,,,,,,
1577421186.772908,96.000000,0.000000,4153.333496,4223.077148,4058.974365,4115.384766,4166.666504,450.000000,4.000000,,,,0.000000,4.000000,4.000000,4.000000,4.000000,4.000000,,,,,,,,,,,,,,,,,,,,,,,,,
1577421186.780704,97.000000,0.000000,4168.717773,4232.820313,4070.769287,4111.794922,4176.410156,450.000000,4.000000,,,,0.000000,4.000000,4.000000,4.000000,4.000000,4.000000,,,,,,,,,,,,,,,,,,,,,,,,,
1577421186.788501,98.000000,0.000000,4163.077148,4235.897461,4070.769287,4109.230957,4175.897461,450.000000,4.000000,,,,0.000000,4.000000,4.000000,4.000000,4.000000,4.000000,,,,,,,,,,,,,,,,,,,,,,,,,
1577421186.796198,99.000000,0.000000,4146.153809,4233.333496,4065.128174,4118.974121,4164.102539,16209.000000,4.000000,,,,0.000000,4.000000,4.000000,4.000000,4.000000,4.000000,,,,,,,,,,,,,,,,,,,,,,,,,
1577421186.804095,100.000000,0.000000,4175.897461,4250.256348,4093.846191,4160.000000,4192.820313,450.000000,4.000000,,,,0.000000,4.000000,4.000000,4.000000,4.000000,4.000000,,,,,,,,,,,,,,,,,,,,,,,,,
1577421186.811891,101.000000,0.000000,4214.358887,4268.205078,4120.512695,4178.974121,4228.717773,450.000000,4.000000,,,,0.000000,4.000000,4.000000,4.000000,4.000000,4.000000,,,,,,,,,,,,,,,,,,,,,,,,,
1577421186.819788,102.000000,0.000000,4202.563965,4263.589844,4107.179688,4158.974121,4219.487305,450.000000,4.000000,,,,0.000000,4.000000,4.000000,4.000000,4.000000,4.000000,,,,,,,,,,,,,,,,,,,,,,,,,
1577421186.827585,103.000000,0.000000,4168.205078,4251.794922,4078.461426,4140.512695,4189.743652,16209.000000,4.000000,,,,0.000000,4.000000,4.000000,4.000000,4.000000,4.000000,,,,,,,,,,,,,,,,,,,,,,,,,
1577421186.835481,104.000000,0.000000,4145.641113,4244.102539,4062.051270,4115.897461,4163.077148,450.000000,4.000000,,,,0.000000,4.000000,4.000000,4.000000,4.000000,4.000000,,,,,,,,,,,,,,,,,,,,,,,,,
1577421186.843378,105.000000,0.000000,4161.025879,4253.846191,4082.051270,4113.846191,4173.846191,450.000000,4.000000,,,,0.000000,4.000000,4.000000,4.000000,4.000000,4.000000,40.339722,21.664639,5.379966,6.449776,2.854053,6.547096,3.613246,2.021764,1.578043,1.728056,8.763544,5.564270,2.433821,3.725265,2.848731,3.609806,4.603127,2.941690,5.934836,3.702227,14.855935,10.386143,2.785021,6.713455,3.111035
1577421186.851175,106.000000,0.000000,4192.820313,4280.512695,4112.820313,4149.743652,4208.717773,450.000000,4.000000,,,,0.000000,4.000000,4.000000,4.000000,4.000000,4.000000,,,,,,,,,,,,,,,,,,,,,,,,,
1577421186.858972,107.000000,0.000000,4171.794922,4278.461426,4087.179443,4146.153809,4187.692383,16209.000000,4.000000,,,,0.000000,4.000000,4.000000,4.000000,4.000000,4.000000,,,,,,,,,,,,,,,,,,,,,,,,,
1577421186.866869,108.000000,0.000000,4137.948730,4257.436035,4054.871826,4106.153809,4155.384766,450.000000,4.000000,,,,0.000000,4.000000,4.000000,4.000000,4.000000,4.000000,,,,,,,,,,,,,,,,,,,,,,,,,
1577421186.874666,109.000000,0.000000,4178.461426,4284.615234,4096.410156,4128.205078,4197.436035,450.000000,4.000000,,,,0.000000,4.000000,4.000000,4.000000,4.000000,4.000000,,,,,,,,,,,,,,,,,,,,,,,,,
1577421186.882562,110.000000,0.000000,4228.205078,4332.307617,4141.025879,4187.179688,4242.563965,450.000000,4.000000,,,,0.000000,4.000000,4.000000,4.000000,4.000000,4.000000,,,,,,,,,,,,,,,,,,,,,,,,,
1577421186.890359,111.000000,0.000000,4211.794922,4326.153809,4126.153809,4181.025879,4221.538574,16209.000000,4.000000,,,,0.000000,4.000000,4.000000,4.000000,4.000000,4.000000,,,,,,,,,,,,,,,,,,,,,,,,,
1577421186.898256,112.000000,0.000000,4164.615234,4285.128418,4092.820557,4116.410156,4173.333496,450.000000,4.000000,,,,0.000000,4.000000,4.000000,4.000000,4.000000,4.000000,,,,,,,,,,,,,,,,,,,,,,,,,
1577421186.906153,113.000000,0.000000,4134.871582,4269.230957,4079.487061,4083.076904,4146.666504,450.000000,4.000000,,,,0.000000,4.000000,4.000000,4.000000,4.000000,4.000000,,,,,,,,,,,,,,,,,,,,,,,,,
1577421186.913949,114.000000,0.000000,4159.487305,4295.897461,4104.615234,4138.461426,4172.307617,450.000000,4.000000,,,,0.000000,4.000000,4.000000,4.000000,4.000000,4.000000,,,,,,,,,,,,,,,,,,,,,,,,,
1577421186.921746,115.000000,0.000000,4195.384766,4306.153809,4127.179688,4185.128418,4203.077148,16209.000000,4.000000,,,,0.000000,4.000000,4.000000,4.000000,4.000000,4.000000,,,,,,,,,,,,,,,,,,,,,,,,,
1577421186.929643,116.000000,0.000000,4193.333496,4287.179688,4123.077148,4160.512695,4205.641113,450.000000,4.000000,,,,0.000000,4.000000,4.000000,4.000000,4.000000,4.000000,,,,,,,,,,,,,,,,,,,,,,,,,
1577421186.937439,117.000000,0.000000,4192.820313,4300.000000,4124.615234,4156.410156,4205.641113,450.000000,4.000000,,,,0.000000,4.000000,4.000000,4.000000,4.000000,4.000000,,,,,,,,,,,,,,,,,,,,,,,,,
1577421186.945136,118.000000,0.000000,4211.794922,4321.025879,4131.794922,4167.179688,4215.897461,450.000000,4.000000,,,,0.000000,4.000000,4.000000,4.000000,4.000000,4.000000,,,,,,,,,,,,,,,,,,,,,,,,,
1577421186.953033,119.000000,0.000000,4223.589844,4308.717773,4133.333496,4149.230957,4227.179688,16209.000000,4.000000,,,,0.000000,4.000000,4.000000,4.000000,4.000000,4.000000,,,,,,,,,,,,,,,,,,,,,,,,,
1577421186.960830,120.000000,0.000000,4220.512695,4291.794922,4134.871582,4157.948730,4224.615234,450.000000,4.000000,,,,0.000000,4.000000,4.000000,4.000000,4.000000,4.000000,,,,,,,,,,,,,,,,,,,,,,,,,
1577421186.968627,121.000000,0.000000,4212.307617,4295.384766,4132.820313,4180.000000,4213.846191,450.000000,4.000000,,,,0.000000,4.000000,4.000000,4.000000,4.000000,4.000000,36.758842,18.972847,5.574997,6.355927,3.105394,6.567748,3.533909,1.900629,1.551917,1.854118,9.378159,4.860083,2.405618,3.807827,2.997289,3.582715,4.980494,2.838698,5.508026,3.632404,14.288723,9.545973,3.215249,6.668391,3.310863
1577421186.976323,122.000000,0.000000,4205.641113,4302.563965,4131.794922,4148.205078,4202.051270,450.000000,4.000000,,,,0.000000,4.000000,4.000000,4.000000,4.000000,4.000000,,,,,,,,,,,,,,,,,,,,,,,,,
1577421186.984220,123.000000,0.000000,4200.000000,4303.077148,4135.897461,4121.025879,4192.307617,16209.000000,4.000000,,,,0.000000,4.000000,4.000000,4.000000,4.000000,4.000000,,,,,,,,,,,,,,,,,,,,,,,,,
1577421186.992017,124.000000,0.000000,4189.743652,4312.307617,4132.820313,4130.769043,4187.179688,450.000000,4.000000,,,,0.000000,4.000000,4.000000,4.000000,4.000000,4.000000,,,,,,,,,,,,,,,,,,,,,,,,,
1577421186.999914,125.000000,0.000000,4186.666504,4334.871582,4133.846191,4116.410156,4186.666504,450.000000,4.000000,,,,0.000000,4.000000,4.000000,4.000000,4.000000,4.000000,,,,,,,,,,,,,,,,,,,,,,,,,
1577421187.007710,126.000000,0.000000,4185.128418,4343.077148,4133.333496,4109.230957,4182.563965,450.000000,4.000000,,,,0.000000,4.000000,4.000000,4.000000,4.000000,4.000000,,,,,,,,,,,,,,,,,,,,,,,,,
1577421187.015607,127.000000,0.000000,4167.179688,4336.410156,4120.512695,4133.846191,4167.692383,235.000000,4.000000,,,,0.000000,4.000000,4.000000,4.000000,4.000000,4.000000,,,,,,,,,,,,,,,,,,,,,,,,,
1577421187.023404,0.000000,0.000000,4158.461426,4342.563965,4120.512695,4126.666504,4158.974121,450.000000,4.000000,,,,0.000000,4.000000,4.000000,4.000000,4.000000,4.000000,,,,,,,,,,,,,,,,,,,,,,,,,
1577421187.031300,1.000000,0.000000,4172.820313,4360.512695,4140.000000,4105.128418,4168.717773,450.000000,4.000000,,,,0.000000,4.000000,4.000000,4.000000,4.000000,4.000000,,,,,,,,,,,,,,,,,,,,,,,,,
1577421187.039097,2.000000,0.000000,4195.897461,4383.077148,4162.051270,4142.563965,4188.205078,16209.000000,4.000000,,,,0.000000,4.000000,4.000000,4.000000,4.000000,4.000000,,,,,,,,,,,,,,,,,,,,,,,,,
1577421187.046994,3.000000,0.000000,4202.051270,4395.384766,4165.641113,4162.563965,4193.846191,450.000000,4.000000,,,,0.000000,4.000000,4.000000,4.000000,4.000000,4.000000,,,,,,,,,,,,,,,,,,,,,,,,,
1577421187.054791,4.000000,0.000000,4198.461426,4384.615234,4157.948730,4125.641113,4192.820313,16186.000000,4.000000,,,,0.000000,4.000000,4.000000,4.000000,4.000000,4.000000,,,,,,,,,,,,,,,,,,,,,,,,,
1577421187.062687,5.000000,0.000000,4190.256348,4359.487305,4148.717773,4116.922852,4181.025879,450.000000,4.000000,,,,0.000000,4.000000,4.000000,4.000000,4.000000,4.000000,,,,,,,,,,,,,,,,,,,,,,,,,
1577421187.070484,6.000000,0.000000,4200.000000,4360.000000,4155.897461,4152.820313,4192.307617,16168.000000,4.000000,,,,0.000000,4.000000,4.000000,4.000000,4.000000,4.000000,,,,,,,,,,,,,,,,,,,,,,,,,
1577421187.078381,7.000000,0.000000,4228.205078,4383.077148,4177.948730,4176.410156,4226.153809,450.000000,4.000000,,,,0.000000,4.000000,4.000000,4.000000,4.000000,4.000000,,,,,,,,,,,,,,,,,,,,,,,,,
1577421187.086177,8.000000,0.000000,4222.051270,4365.128418,4173.333496,4158.974121,4216.410156,450.000000,4.000000,,,,0.000000,4.000000,4.000000,4.000000,4.000000,4.000000,,,,,,,,,,,,,,,,,,,,,,,,,
1577421187.094074,9.000000,0.000000,4203.589844,4337.948730,4160.000000,4141.025879,4189.743652,16160.000000,4.000000,,,,0.000000,4.000000,4.000000,4.000000,4.000000,4.000000,32.240234,16.324842,5.538221,5.906194,3.260475,7.055682,3.717777,1.720266,1.495960,1.899830,10.147614,4.181067,2.555237,3.672322,3.052258,3.637804,5.355527,2.636992,5.167693,3.571655,14.330740,8.861574,3.789032,6.256950,3.417624
1577421187.101971,10.000000,0.000000,4204.102539,4353.333496,4169.230957,4127.179688,4187.692383,450.000000,4.000000,,,,0.000000,4.000000,4.000000,4.000000,4.000000,4.000000,,,,,,,,,,,,,,,,,,,,,,,,,
1577421187.109767,11.000000,0.000000,4207.179688,4361.538574,4183.589844,4124.615234,4196.410156,16209.000000,4.000000,,,,0.000000,4.000000,4.000000,4.000000,4.000000,4.000000,,,,,,,,,,,,,,,,,,,,,,,,,
1577421187.117664,12.000000,0.000000,4193.333496,4333.846191,4174.358887,4135.897461,4184.615234,450.000000,4.000000,,,,0.000000,4.000000,4.000000,4.000000,4.000000,4.000000,,,,,,,,,,,,,,,,,,,,,,,,,
1577421187.125461,13.000000,0.000000,4149.230957,4304.615234,4135.384766,4102.051270,4133.333496,450.000000,4.000000,,,,0.000000,4.000000,4.000000,4.000000,4.000000,4.000000,,,,,,,,,,,,,,,,,,,,,,,,,
1577421187.133258,14.000000,0.000000,4149.743652,4330.256348,4150.256348,4100.000000,4140.512695,450.000000,4.000000,,,,0.000000,4.000000,4.000000,4.000000,4.000000,4.000000,,,,,,,,,,,,,,,,,,,,,,,,,
1577421187.140955,15.000000,0.000000,4214.871582,4381.538574,4224.102539,4165.128418,4213.846191,16209.000000,4.000000,,,,0.000000,4.000000,4.000000,4.000000,4.000000,4.000000,,,,,,,,,,,,,,,,,,,,,,,,,
1577421187.148851,16.000000,0.000000,4226.153809,4380.000000,4233.846191,4170.769043,4220.512695,0.000000,4.000000,,,,0.000000,4.000000,4.000000,4.000000,4.000000,4.000000,,,,,,,,,,,,,,,,,,,,,,,,,
1577421187.156648,17.000000,0.000000,4187.692383,4365.128418,4215.897461,4149.743652,4188.205078,0.000000,4.000000,,,,0.000000,4.000000,4.000000,4.000000,4.000000,4.000000,,,,,,,,,,,,,,,,,,,,,,,,,
1577421187.164545,18.000000,0.000000,4192.307617,4384.615234,4244.615234,4168.717773,4204.615234,0.000000,4.000000,,,,0.000000,4.000000,4.000000,4.000000,4.000000,4.000000,,,,,,,,,,,,,,,,,,,,,,,,,
1577421187.172341,19.000000,0.000000,4205.128418,4390.256348,4240.000000,4146.153809,4209.743652,0.000000,4.000000,,,,0.000000,4.000000,4.000000,4.000000,4.000000,4.000000,,,,,,,,,,,,,,,,,,,,,,,,,
1577421187.180238,20.000000,0.000000,4185.641113,4369.743652,4193.333496,4108.205078,4173.333496,0.000000,4.000000,,,,0.000000,4.000000,4.000000,4.000000,4.000000,4.000000,,,,,,,,,,,,,,,,,,,,,,,,,
1577421187.188035,21.000000,0.000000,4182.563965,4368.717773,4192.307617,4127.179688,4165.641113,0.000000,4.000000,,,,0.000000,4.000000,4.000000,4.000000,4.000000,4.000000,,,,,,,,,,,,,,,,,,,,,,,,,
1577421187.195931,22.000000,0.000000,4197.436035,4387.179688,4210.769043,4141.025879,4176.922852,0.000000,4.000000,,,,0.000000,4.000000,4.000000,4.000000,4.000000,4.000000,,,,,,,,,,,,,,,,,,,,,,,,,
1577421187.203728,23.000000,0.000000,4187.692383,4388.205078,4198.974121,4122.563965,4152.820313,0.000000,4.000000,,,,0.000000,4.000000,4.000000,4.000000,4.000000,4.000000,,,,,,,,,,,,,,,,,,,,,,,,,
1577421187.211625,24.000000,0.000000,4186.153809,4374.871582,4198.974121,4132.820313,4148.205078,0.000000,4.000000,,,,0.000000,4.000000,4.000000,4.000000,4.000000,4.000000,,,,,,,,,,,,,,,,,,,,,,,,,
1577421187.219422,25.000000,0.000000,4213.846191,4384.102539,4219.487305,4138.974121,4180.512695,0.000000,4.000000,,,,0.000000,4.000000,4.000000,4.000000,4.000000,4.000000,24.772045,14.074141,5.392476,5.208034,3.330650,7.777861,4.137241,1.598459,1.430336,1.884563,10.733459,3.719950,2.858371,3.348813,3.052227,3.765290,5.712854,2.451150,5.005449,3.572232,13.720564,8.468054,4.458653,5.602692,3.454351
1577421187.227318,26.000000,0.000000,4222.051270,4406.153809,4219.487305,4113.846191,4188.717773,0.000000,4.000000,,,,0.000000,4.000000,4.000000,4.000000,4.000000,4.000000,,,,,,,,,,,,,,,,,,,,,,,,,
1577421187.235115,27.000000,0.000000,4204.615234,4402.563965,4201.025879,4120.000000,4168.205078,0.000000,4.000000,,,,0.000000,4.000000,4.000000,4.000000,4.000000,4.000000,,,,,,,,,,,,,,,,,,,,,,,,,
1577421187.243012,28.000000,0.000000,4196.922852,4381.025879,4192.307617,4141.538574,4153.846191,0.000000,4.000000,,,,0.000000,4.000000,4.000000,4.000000,4.000000,4.000000,,,,,,,,,,,,,,,,,,,,,,,,,
1577421187.250809,29.000000,0.000000,4202.563965,4375.384766,4191.282227,4133.846191,4156.410156,0.000000,4.000000,,,,0.000000,4.000000,4.000000,4.000000,4.000000,4.000000,,,,,,,,,,,,,,,,,,,,,,,,,
1577421187.258705,30.000000,0.000000,4205.128418,4385.641113,4190.256348,4129.743652,4160.000000,0.000000,4.000000,,,,0.000000,4.000000,4.000000,4.000000,4.000000,4.000000,,,,,,,,,,,,,,,,,,,,,,,,,
1577421187.266502,31.000000,0.000000,4210.256348,4383.589844,4201.025879,4134.358887,4169.230957,0.000000,4.000000,,,,0.000000,4.000000,4.000000,4.000000,4.000000,4.000000,,,,,,,,,,,,,,,,,,,,,,,,,
1577421187.274399,32.000000,0.000000,4233.333496,4384.102539,4233.846191,4144.615234,4197.436035,0.000000,4.000000,,,,0.000000,4.000000,4.000000,4.000000,4.000000,4.000000,,,,,,,,,,,,,,,,,,,,,,,,,
1577421187.282295,33.000000,0.000000,4241.025879,4396.922852,4253.333496,4170.256348,4203.589844,0.000000,4.000000,,,,0.000000,4.000000,4.000000,4.000000,4.000000,4.000000,,,,,,,,,,,,,,,,,,,,,,,,,
1577421187.290092,34.000000,0.000000,4206.666504,4393.846191,4238.461426,4171.282227,4170.256348,0.000000,4.000000,,,,0.000000,4.000000,4.000000,4.000000,4.000000,4.000000,,,,,,,,,,,,,,,,,,,,,,,,,
1577421187.297889,35.000000,0.000000,4198.461426,4393.846191,4243.589844,4164.615234,4167.692383,0.000000,4.000000,,,,0.000000,4.000000,4.000000,4.000000,4.000000,4.000000,,,,,,,,,,,,,,,,,,,,,,,,,
1577421187.305586,36.000000,0.000000,4224.102539,4403.077148,4269.230957,4180.512695,4202.051270,0.000000,4.000000,,,,0.000000,4.000000,4.000000,4.000000,4.000000,4.000000,,,,,,,,,,,,,,,,,,,,,,,,,
1577421187.313382,37.000000,0.000000,4216.922852,4389.230957,4257.436035,4156.922852,4199.487305,0.000000,4.000000,,,,0.000000,4.000000,4.000000,4.000000,4.000000,4.000000,,,,,,,,,,,,,,,,,,,,,,,,,
1577421187.321079,38.000000,0.000000,4197.948730,4374.871582,4236.922852,4122.563965,4177.948730,0.000000,4.000000,,,,0.000000,4.000000,4.000000,4.000000,4.000000,4.000000,,,,,,,,,,,,,,,,,,,,,,,,,
1577421187.328976,39.000000,0.000000,4204.615234,4381.538574,4236.410156,4149.230957,4186.153809,0.000000,4.000000,,,,0.000000,4.000000,4.000000,4.000000,4.000000,4.000000,,,,,,,,,,,,,,,,,,,,,,,,,
1577421187.336773,40.000000,0.000000,4215.384766,4390.769043,4232.820313,4169.230957,4197.436035,0.000000,4.000000,,,,0.000000,4.000000,4.000000,4.000000,4.000000,4.000000,,,,,,,,,,,,,,,,,,,,,,,,,
1577421187.344669,41.000000,0.000000,4221.025879,4391.794922,4220.512695,4154.358887,4193.846191,0.000000,4.000000,,,,0.000000,4.000000,4.000000,4.000000,4.000000,4.000000,17.689142,12.659950,5.266075,4.425234,3.351095,8.568273,4.625885,1.620237,1.373779,1.849257,10.906633,3.582794,3.191240,2.917581,3.035196,3.926591,6.016048,2.439683,4.996004,3.665843,12.709415,8.435529,5.143709,4.853882,3.457148
1577421187.352466,42.000000,0.000000,4224.102539,4381.538574,4210.769043,4161.025879,4196.410156,0.000000,4.000000,,,,0.000000,4.000000,4.000000,4.000000,4.000000,4.000000,,,,,,,,,,,,,,,,,,,,,,,,,
1577421187.360363,43.000000,0.000000,4218.461426,4364.615234,4200.512695,4143.077148,4196.922852,0.000000,4.000000,,,,0.000000,4.000000,4.000000,4.000000,4.000000,4.000000,,,,,,,,,,,,,,,,,,,,,,,,,
1577421187.368160,44.000000,0.000000,4207.179688,4365.128418,4187.692383,4108.717773,4181.025879,0.000000,4.000000,,,,0.000000,4.000000,4.000000,4.000000,4.000000,4.000000,,,,,,,,,,,,,,,,,,,,,,,,,
1577421187.376056,45.000000,0.000000,4198.974121,4365.128418,4175.897461,4127.179688,4170.256348,0.000000,4.000000,,,,0.000000,4.000000,4.000000,4.000000,4.000000,4.000000,,,,,,,,,,,,,,,,,,,,,,,,,
1577421187.383853,46.000000,0.000000,4193.846191,4340.512695,4167.692383,4143.077148,4167.692383,0.000000,4.000000,,,,0.000000,4.000000,4.000000,4.000000,4.000000,4.000000,,,,,,,,,,,,,,,,,,,,,,,,,
1577421187.391650,47.000000,0.000000,4213.333496,4335.384766,4192.307617,4135.897461,4189.743652,0.000000,4.000000,,,,0.000000,4.000000,4.000000,4.000000,4.000000,4.000000,,,,,,,,,,,,,,,,,,,,,,,,,
1577421187.399347,48.000000,0.000000,4264.102539,4357.436035,4243.589844,4172.307617,4238.461426,0.000000,4.000000,,,,0.000000,4.000000,4.000000,4.000000,4.000000,4.000000,,,,,,,,,,,,,,,,,,,,,,,,,
1577421187.407244,49.000000,0.000000,4280.000000,4354.871582,4251.282227,4199.487305,4250.769043,0.000000,4.000000,,,,0.000000,4.000000,4.000000,4.000000,4.000000,4.000000,,,,,,,,,,,,,,,,,,,,,,,,,
1577421187.415041,50.000000,0.000000,4247.692383,4341.538574,4212.820313,4158.461426,4222.051270,0.000000,4.000000,,,,0.000000,4.000000,4.000000,4.000000,4.000000,4.000000,,,,,,,,,,,,,,,,,,,,,,,,,
1577421187.422838,51.000000,0.000000,4211.794922,4337.436035,4181.025879,4117.436035,4189.743652,0.000000,4.000000,,,,0.000000,4.000000,4.000000,4.000000,4.000000,4.000000,,,,,,,,,,,,,,,,,,,,,,,,,
1577421187.430635,52.000000,0.000000,4190.256348,4323.077148,4165.641113,4116.922852,4165.128418,0.000000,4.000000,,,,0.000000,4.000000,4.000000,4.000000,4.000000,4.000000,,,,,,,,,,,,,,,,,,,,,,,,,
1577421187.438531,53.000000,0.000000,4212.307617,4337.436035,4182.563965,4153.846191,4180.000000,0.000000,4.000000,,,,0.000000,4.000000,4.000000,4.000000,4.000000,4.000000,,,,,,,,,,,,,,,,,,,,,,,,,
1577421187.446328,54.000000,0.000000,4250.769043,4364.102539,4211.282227,4184.102539,4212.820313,0.000000,4.000000,,,,0.000000,4.000000,4.000000,4.000000,4.000000,4.000000,,,,,,,,,,,,,,,,,,,,,,,,,
1577421187.454225,55.000000,0.000000,4247.692383,4354.358887,4212.307617,4163.077148,4211.794922,0.000000,4.000000,,,,0.000000,4.000000,4.000000,4.000000,4.000000,4.000000,,,,,,,,,,,,,,,,,,,,,,,,,
1577421187.462022,56.000000,0.000000,4234.358887,4353.846191,4210.256348,4136.410156,4200.512695,0.000000,4.000000,,,,0.000000,4.000000,4.000000,4.000000,4.000000,4.000000,,,,,,,,,,,,,,,,,,,,,,,,,
1577421187.469818,57.000000,0.000000,4235.384766,4379.487305,4213.846191,4147.179688,4201.025879,0.000000,4.000000,,,,0.000000,4.000000,4.000000,4.000000,4.000000,4.000000,12.218018,11.992996,5.236013,3.691106,3.358316,9.492535,4.974376,1.804922,1.340778,1.837209,10.600841,3.787965,3.458100,2.492110,3.022677,4.071181,6.256703,2.696216,5.024939,3.848204,11.497256,8.685541,5.766061,4.125994,3.458285
1577421187.477615,58.000000,0.000000,4220.512695,4381.538574,4202.563965,4161.538574,4185.641113,0.000000,4.000000,,,,0.000000,4.000000,4.000000,4.000000,4.000000,4.000000,,,,,,,,,,,,,,,,,,,,,,,,,
1577421187.485312,59.000000,0.000000,4206.153809,4373.333496,4196.410156,4148.205078,4173.333496,0.000000,4.000000,,,,0.000000,4.000000,4.000000,4.000000,4.000000,4.000000,,,,,,,,,,,,,,,,,,,,,,,,,
1577421187.493109,60.000000,0.000000,4229.743652,4393.333496,4216.410156,4163.077148,4200.000000,0.000000,4.000000,,,,0.000000,4.000000,4.000000,4.000000,4.000000,4.000000,,,,,,,,,,,,,,,,,,,,,,,,,
1577421187.500806,61.000000,0.000000,4250.256348,4406.666504,4230.256348,4188.205078,4218.974121,0.000000,4.000000,,,,0.000000,4.000000,4.000000,4.000000,4.000000,4.000000,,,,,,,,,,,,,,,,,,,,,,,,,
1577421187.508702,62.000000,0.000000,4226.153809,4376.922852,4205.641113,4149.743652,4189.743652,0.000000,4.000000,,,,0.000000,4.000000,4.000000,4.000000,4.000000,4.000000,,,,,,,,,,,,,,,,,,,,,,,,,
1577421187.516499,63.000000,0.000000,4206.153809,4362.051270,4185.641113,4129.743652,4172.820313,0.000000,4.000000,,,,0.000000,4.000000,4.000000,4.000000,4.000000,4.000000,,,,,,,,,,,,,,,,,,,,,,,,,
1577421187.524296,64.000000,0.000000,4238.461426,4395.384766,4209.230957,4181.538574,4204.102539,450.000000,4.000000,,,,0.000000,4.000000,4.000000,4.000000,4.000000,4.000000,,,,,,,,,,,,,,,,,,,,,,,,,
1577421187.531993,65.000000,0.000000,4247.692383,4394.358887,4208.717773,4187.692383,4210.769043,450.000000,4.000000,,,,0.000000,4.000000,4.000000,4.000000,4.000000,4.000000,,,,,,,,,,,,,,,,,,,,,,,,,
1577421187.539889,66.000000,0.000000,4234.358887,4378.974121,4190.769043,4157.948730,4197.436035,16220.000000,4.000000,,,,0.000000,4.000000,4.000000,4.000000,4.000000,4.000000,,,,,,,,,,,,,,,,,,,,,,,,,
1577421187.547686,67.000000,0.000000,4218.974121,4368.205078,4173.333496,4153.846191,4184.102539,450.000000,4.000000,,,,0.000000,4.000000,4.000000,4.000000,4.000000,4.000000,,,,,,,,,,,,,,,,,,,,,,,,,
1577421187.555583,68.000000,0.000000,4218.974121,4367.692383,4171.794922,4181.538574,4198.974121,16196.000000,4.000000,,,,0.000000,4.000000,4.000000,4.000000,4.000000,4.000000,,,,,,,,,,,,,,,,,,,,,,,,,
1577421187.563380,69.000000,0.000000,4299.487305,4429.230957,4245.641113,4191.794922,4243.077148,450.000000,4.000000,,,,0.000000,4.000000,4.000000,4.000000,4.000000,4.000000,,,,,,,,,,,,,,,,,,,,,,,,,
1577421187.571276,70.000000,0.000000,4118.974121,4269.230957,4064.102539,4028.718018,4082.051270,16171.000000,4.000000,,,,0.000000,4.000000,4.000000,4.000000,4.000000,4.000000,,,,,,,,,,,,,,,,,,,,,,,,,
1577421187.579073,71.000000,0.000000,4167.692383,4326.666504,4109.743652,4175.384766,4210.769043,450.000000,4.000000,,,,0.000000,4.000000,4.000000,4.000000,4.000000,4.000000,,,,,,,,,,,,,,,,,,,,,,,,,
1577421187.586970,72.000000,0.000000,4486.153809,4573.846191,4416.922852,4291.794922,4393.846191,450.000000,4.000000,,,,0.000000,4.000000,4.000000,4.000000,4.000000,4.000000,,,,,,,,,,,,,,,,,,,,,,,,,
1577421187.594766,73.000000,0.000000,4215.897461,4316.410156,4150.256348,3993.333252,4074.358887,16193.000000,4.000000,,,,0.000000,4.000000,4.000000,4.000000,4.000000,4.000000,8.929273,11.609209,5.281777,3.107978,3.363474,10.459946,5.016516,2.085141,1.333181,1.866723,10.046218,4.335489,3.622909,2.193853,3.009193,4.177382,6.466150,3.214794,4.967845,4.063878,10.289018,9.060781,6.246248,3.514326,3.467048
1577421187.602663,74.000000,0.000000,4167.179688,4295.384766,4093.846191,4171.282227,4181.025879,450.000000,4.000000,,,,0.000000,4.000000,4.000000,4.000000,4.000000,4.000000,,,,,,,,,,,,,,,,,,,,,,,,,
1577421187.610460,75.000000,0.000000,4502.563965,4575.897461,4420.512695,4368.717773,4462.563965,16241.000000,4.000000,,,,0.000000,4.000000,4.000000,4.000000,4.000000,4.000000,,,,,,,,,,,,,,,,,,,,,,,,,
1577421187.618357,76.000000,0.000000,4270.256348,4358.461426,4205.641113,4050.256348,4163.589844,450.000000,4.000000,,,,0.000000,4.000000,4.000000,4.000000,4.000000,4.000000,,,,,,,,,,,,,,,,,,,,,,,,,
1577421187.626153,77.000000,0.000000,4012.820557,4166.153809,3954.358887,4075.384521,4061.538574,450.000000,4.000000,,,,0.000000,4.000000,4.000000,4.000000,4.000000,4.000000,,,,,,,,,,,,,,,,,,,,,,,,,
1577421187.634050,78.000000,0.000000,4304.615234,4442.051270,4241.025879,4356.410156,4348.205078,450.000000,4.000000,,,,0.000000,4.000000,4.000000,4.000000,4.000000,4.000000,,,,,,,,,,,,,,,,,,,,,,,,,
1577421187.641847,79.000000,0.000000,4289.230957,4420.512695,4254.871582,4128.717773,4193.333496,16241.000000,4.000000,,,,0.000000,4.000000,4.000000,4.000000,4.000000,4.000000,,,,,,,,,,,,,,,,,,,,,,,,,
1577421187.649743,80.000000,0.000000,4067.179443,4245.128418,4054.358887,4021.025635,4034.358887,450.000000,4.000000,,,,0.000000,4.000000,4.000000,4.000000,4.000000,4.000000,,,,,,,,,,,,,,,,,,,,,,,,,
1577421187.657640,81.000000,0.000000,4261.025879,4419.487305,4223.589844,4250.769043,4258.461426,450.000000,4.000000,,,,0.000000,4.000000,4.000000,4.000000,4.000000,4.000000,,,,,,,,,,,,,,,,,,,,,,,,,
1577421187.665437,82.000000,0.000000,4234.871582,4376.922852,4190.769043,4118.461426,4171.282227,450.000000,4.000000,,,,0.000000,4.000000,4.000000,4.000000,4.000000,4.000000,,,,,,,,,,,,,,,,,,,,,,,,,
1577421187.673234,83.000000,0.000000,4155.897461,4308.205078,4120.000000,4087.179443,4119.487305,16241.000000,4.000000,,,,0.000000,4.000000,4.000000,4.000000,4.000000,4.000000,,,,,,,,,,,,,,,,,,,,,,,,,
1577421187.680931,84.000000,0.000000,4257.436035,4388.205078,4210.256348,4209.230957,4225.641113,450.000000,4.000000,,,,0.000000,4.000000,4.000000,4.000000,4.000000,4.000000,,,,,,,,,,,,,,,,,,,,,,,,,
1577421187.688828,85.000000,0.000000,4259.487305,4384.102539,4201.538574,4196.922852,4217.436035,450.000000,4.000000,,,,0.000000,4.000000,4.000000,4.000000,4.000000,4.000000,,,,,,,,,,,,,,,,,,,,,,,,,
1577421187.696625,86.000000,0.000000,4240.512695,4371.794922,4181.538574,4171.282227,4201.538574,450.000000,4.000000,,,,0.000000,4.000000,4.000000,4.000000,4.000000,4.000000,,,,,,,,,,,,,,,,,,,,,,,,,
1577421187.704521,87.000000,0.000000,4198.974121,4338.461426,4133.333496,4128.717773,4163.077148,16241.000000,4.000000,,,,0.000000,4.000000,4.000000,4.000000,4.000000,4.000000,,,,,,,,,,,,,,,,,,,,,,,,,
1577421187.712318,88.000000,0.000000,4175.384766,4308.717773,4089.743652,4138.974121,4158.974121,450.000000,4.000000,,,,0.000000,4.000000,4.000000,4.000000,4.000000,4.000000,,,,,,,,,,,,,,,,,,,,,,,,,
1577421187.720215,89.000000,0.000000,4333.846191,4429.743652,4236.922852,4246.666504,4289.743652,450.000000,4.000000,,,,0.000000,4.000000,4.000000,4.000000,4.000000,4.000000,7.327547,11.067532,5.310760,2.772871,3.393462,11.590360,4.690182,2.333599,1.338107,1.959269,9.519824,5.153691,3.733854,2.137672,3.016141,4.216506,6.653389,3.854661,4.793041,4.268209,9.037689,9.374801,6.506332,3.117837,3.502126
1577421187.728011,90.000000,0.000000,4224.102539,4311.794922,4130.769043,4074.358887,4150.769043,450.000000,4.000000,,,,0.000000,4.000000,4.000000,4.000000,4.000000,4.000000,,,,,,,,,,,,,,,,,,,,,,,,,
1577421187.735908,91.000000,0.000000,3970.769287,4107.179688,3874.871826,4004.102539,4001.538574,16241.000000,4.000000,,,,0.000000,4.000000,4.000000,4.000000,4.000000,4.000000,,,,,,,,,,,,,,,,,,,,,,,,,
1577421187.743705,92.000000,0.000000,4441.025879,4505.128418,4319.487305,4352.820313,4372.307617,450.000000,4.000000,,,,0.000000,4.000000,4.000000,4.000000,4.000000,4.000000,,,,,,,,,,,,,,,,,,,,,,,,,
1577421187.751602,93.000000,0.000000,4414.358887,4430.256348,4304.615234,4053.333252,4168.205078,450.000000,4.000000,,,,0.000000,4.000000,4.000000,4.000000,4.000000,4.000000,,,,,,,,,,,,,,,,,,,,,,,,,
1577421187.759398,94.000000,0.000000,4062.564209,4143.077148,3960.512939,3969.230713,4002.564209,450.000000,4.000000,,,,0.000000,4.000000,4.000000,4.000000,4.000000,4.000000,,,,,,,,,,,,,,,,,,,,,,,,,
