Timestamp,EEG.Counter,EEG.Interpolated,EEG.AF3,EEG.T7,EEG.Pz,EEG.T8,EEG.AF4,EEG.RawCq,EEG.Battery,MarkerIndex,MarkerType,MarkerValueInt,EEG.MarkerHardware,CQ.AF3,CQ.T7,CQ.Pz,CQ.T8,CQ.AF4,MOT.CounterMems,MOT.InterpolatedMems,MOT.Q0,MOT.Q1,MOT.Q2,MOT.Q3,MOT.AccX,MOT.AccY,MOT.AccZ,MOT.MagX,MOT.MagY,MOT.MagZ,POW.AF3.Theta,POW.AF3.Alpha,POW.AF3.BetaL,POW.AF3.BetaH,POW.AF3.Gamma,POW.T7.Theta,POW.T7.Alpha,POW.T7.BetaL,POW.T7.BetaH,POW.T7.Gamma,POW.Pz.Theta,POW.Pz.Alpha,POW.Pz.BetaL,POW.Pz.BetaH,POW.Pz.Gamma,POW.T8.Theta,POW.T8.Alpha,POW.T8.BetaL,POW.T8.BetaH,POW.T8.Gamma,POW.AF4.Theta,POW.AF4.Alpha,POW.AF4.BetaL,POW.AF4.BetaH,POW.AF4.Gamma
1577376209,90,0,4238.461426,4810.769043,4355.897461,4167.692383,4063.076904,450,4,,,,0,4,0,0,4,1,45,0,0.640901,0.487793,0.518799,-0.286621,0.917006,-0.238773,0.026856,-16.633129,-52.813503,47.770958,,,,,,,,,,,,,,,,,,,,,,,,,
1577376209,91,0,4260.512695,4881.025879,4358.461426,4179.487305,4039.487061,106,4,,,,0,4,0,0,4,1,,,,,,,,,,,,,,,,,,,,,,,,,,,,,,,,,,,,,
1577376209,92,0,4274.871582,4918.974121,4296.410156,4204.615234,4031.281982,450,4,,,,0,4,0,0,4,1,46,0,0.643742,0.488037,0.513672,-0.289063,0.931655,-0.221683,0.012696,-16.883907,-52.736088,47.719276,,,,,,,,,,,,,,,,,,,,,,,,,
1577376209,93,0,4215.897461,4871.282227,4309.743652,4181.538574,4045.641113,450,4,,,,0,4,0,0,4,1,,,,,,,,,,,,,,,,,,,,,,,,,,,,,,,,,,,,,
1577376209,94,0,4224.102539,4876.410156,4330.256348,4183.589844,4111.282227,450,4,,,,0,4,0,0,4,1,47,0,0.647081,0.487793,0.508301,-0.291504,0.953628,-0.19971,-0.020508,-15.434778,-52.845863,47.612949,,,,,,,,,,,,,,,,,,,,,,,,,
1577376209,95,0,4250.256348,4908.205078,4328.717773,4202.05127,4097.436035,106,4,,,,0,4,0,0,4,1,,,,,,,,,,,,,,,,,,,,,,,,,,,,,,,,,,,,,
1577376209,96,0,4247.179688,4869.230957,4339.487305,4197.94873,4097.436035,450,4,,,,0,4,0,0,4,1,48,0,0.650648,0.487549,0.502686,-0.293701,0.937026,-0.208988,-0.042481,-15.865207,-52.884842,47.397621,,,,,,,,,,,,,,,,,,,,,,,,,
1577376209,97,0,4256.922852,4832.820313,4295.897461,4201.025879,4067.179443,450,4,,,,0,4,0,0,4,1,,,,,,,,,,,,,,,,,,,,,,,,,,,,,,,,,,,,,
1577376209,98,0,4222.05127,4883.077148,4294.871582,4180.512695,3975.384521,450,4,,,,0,4,0,0,4,1,49,0,0.654618,0.487061,0.496826,-0.295654,0.938491,-0.207034,-0.042481,-14.517948,-53.099373,47.203827,,,,,,,,,,,,,,,,,,,,,,,,,
1577376209,99,0,4212.307617,4916.410156,4316.922852,4177.436035,4014.871826,106,4,,,,0,4,0,0,4,1,,,,,,,,,,,,,,,,,,,,,,,,,,,,,,,,,,,,,
1577376209,100,0,4208.717773,4880.512695,4313.846191,4195.384766,4103.589844,450,4,,,,0,4,0,0,4,1,50,0,0.658323,0.486572,0.491211,-0.297607,0.93019,-0.199222,-0.055177,-13.245599,-53.053188,46.909782,,,,,,,,,,,,,,,,,,,,,,,,,
1577376209,101,0,4186.153809,4850.769043,4321.538574,4188.205078,4153.846191,450,4,,,,0,4,0,0,4,1,,,,,,,,,,,,,,,,,,,,,,,,,,,,,,,,,,,,,
1577376209,102,0,4195.384766,4878.974121,4295.897461,4183.589844,4089.230713,450,4,,,,0,4,0,0,4,1,51,0,0.662711,0.485596,0.485352,-0.299072,0.920424,-0.206546,-0.078126,-13.894946,-53.01162,46.824585,,,,,,,,,,,,,,,,,,,,,,,,,
1577376209,103,0,4191.282227,4907.692383,4301.025879,4191.794922,3957.94873,106,4,,,,0,4,0,0,4,1,,,,,,,,,,,,,9.667437,4.88764,5.394121,16.494677,7.841872,2.678718,1.484528,1.782653,3.867786,9.251573,0.443689,0.226115,0.377371,5.746436,7.412222,0.840378,5.389637,5.391973,10.533158,5.763483,2.753559,3.334847,4.281208,99.190056,18.597149
1577376209,104,0,4212.307617,4870.769043,4321.538574,4212.307617,3980.512939,450,4,,,,0,4,0,0,4,1,52,0,0.654618,0.487061,0.496826,-0.295654,0.938491,-0.207034,-0.042481,-12.625082,-52.974213,46.74791,,,,,,,,,,,,,,,,,,,,,,,,,
1577376209,105,0,4207.179688,4845.641113,4291.282227,4207.179688,4081.538574,450,4,,,,0,4,0,0,4,1,,,,,,,,,,,,,,,,,,,,,,,,,,,,,,,,,,,,,
1577376209,106,0,4136.410156,4877.94873,4295.384766,4170.256348,4123.077148,450,4,,,,0,4,0,0,4,1,53,0,0.662711,0.485596,0.485352,-0.299072,0.920424,-0.206546,-0.078126,-13.336481,-52.940544,46.678902,,,,,,,,,,,,,,,,,,,,,,,,,
1577376209,107,0,4141.025879,4887.179688,4311.282227,4172.820313,4134.871582,106,4,,,,0,4,0,0,4,1,,,,,,,,,,,,,,,,,,,,,,,,,,,,,,,,,,,,,
1577376209,108,0,4190.256348,4864.615234,4323.589844,4200,4076.923096,450,4,,,,0,4,0,0,4,1,54,0,0.667127,0.484375,0.479736,-0.300293,0.929213,-0.186526,-0.093751,-13.916924,-52.970055,46.55698,,,,,,,,,,,,,,,,,,,,,,,,,
1577376209,109,0,4161.025879,4871.794922,4324.102539,4179.487305,4000.512939,450,4,,,,0,4,0,0,4,1,,,,,,,,,,,,,,,,,,,,,,,,,,,,,,,,,,,,,
1577376209,110,0,4036.923096,4886.153809,4283.589844,4083.589844,3997.94873,450,4,,,,0,4,0,0,4,1,55,0,0.671743,0.483154,0.473877,-0.30127,0.939467,-0.215335,-0.124025,-14.678586,-53.056435,46.327618,,,,,,,,,,,,,,,,,,,,,,,,,
1577376209,111,1,4035.44165,4882.336426,4288.945801,4081.880371,4010.199463,411.777771,4,,,,0,4,0,0,4,1,,,,,,,,,,,,,,,,,,,,,,,,,,,,,,,,,,,,,
1577376209,112,1,4033.960205,4878.518555,4294.301758,4080.170898,4022.450195,373.555542,4,,,,0,4,0,0,4,1,56,1,0,0.482373,0.468945,-0.30166,0.944155,-0.228031,0,0,0,0,,,,,,,,,,,,,,,,,,,,,,,,,
1577376209,113,1,4032.478516,4874.700684,4299.658203,4078.461426,4034.700928,335.333344,4,,,,0,4,0,0,4,1,,,,,,,,,,,,,,,,,,,,,,,,,,,,,,,,,,,,,
1577376209,114,1,4030.99707,4870.883301,4305.01416,4076.752197,4046.95166,297.111115,4,,,,0,4,0,0,4,1,57,1,0,0.481592,0.464014,-0.302051,0.948843,-0.240726,0,0,0,0,,,,,,,,,,,,,,,,,,,,,,,,,
1577376209,115,1,4029.515625,4867.06543,4310.370605,4075.042725,4059.202393,258.888885,4,,,,0,4,0,0,4,1,,,,,,,,,,,,,,,,,,,,,,,,,,,,,,,,,,,,,
1577376209,116,1,4028.03418,4863.248047,4315.726563,4073.333252,4071.452881,220.666672,4,,,,0,4,0,0,4,1,58,1,0,0.480811,0.459082,-0.302441,0.95353,-0.253422,0,0,0,0,,,,,,,,,,,,,,,,,,,,,,,,,
1577376209,117,1,4026.552734,4859.430176,4321.08252,4071.624023,4083.703613,182.444443,4,,,,0,4,0,0,4,1,,,,,,,,,,,,,,,,,,,,,,,,,,,,,,,,,,,,,
1577376209,118,1,4025.071289,4855.612305,4326.438965,4069.914551,4095.954346,144.222229,4,,,,0,4,0,0,4,1,59,1,0,0.480029,0.45415,-0.302832,0.958218,-0.266117,0,0,0,0,,,,,,,,,,,,,,,,,,,,,,,,,
1577376209,119,0,4023.589844,4851.794922,4331.794922,4068.205078,4108.205078,106,4,,,,0,4,0,0,4,1,,,,,,,,,,,,,10.548552,5.997237,5.33002,16.416609,8.046524,4.005641,2.119437,1.895789,4.704316,9.336848,0.58694,0.338424,0.431079,5.63045,7.337609,0.848307,5.47112,5.541306,10.71402,5.642581,3.746721,4.401181,4.807219,95.103523,19.212666
1577376209,120,0,4038.461426,4900.512695,4307.692383,4081.538574,4077.94873,450,4,,,,0,4,0,0,4,1,60,0,0.690348,0.479248,0.449219,-0.303223,0.962905,-0.278813,-0.198734,-15.124819,-53.253803,46.121193,,,,,,,,,,,,,,,,,,,,,,,,,
1577376209,121,0,4053.846191,4880,4313.333496,4100.512695,3991.281982,450,4,,,,0,4,0,0,4,1,,,,,,,,,,,,,,,,,,,,,,,,,,,,,,,,,,,,,
1577376209,122,0,4064.615479,4854.871582,4333.333496,4112.820313,4011.281982,450,4,,,,0,4,0,0,4,1,61,0,0.69285,0.479736,0.444824,-0.303223,0.943374,-0.31104,-0.208988,-15.466613,-53.491253,45.815781,,,,,,,,,,,,,,,,,,,,,,,,,
1577376209,123,0,4028.205078,4873.846191,4318.461426,4088.205078,4078.974365,106,4,,,,0,4,0,0,4,1,,,,,,,,,,,,,,,,,,,,,,,,,,,,,,,,,,,,,
1577376209,124,0,3986.666748,4907.692383,4328.205078,4054.871826,4128.205078,450,4,,,,0,4,0,0,4,1,62,0,0.694963,0.480957,0.440186,-0.303223,0.962417,-0.340337,-0.214359,-15.893859,-53.704956,45.600723,,,,,,,,,,,,,,,,,,,,,,,,,
1577376209,125,0,4019.487061,4904.615234,4327.179688,4082.05127,4130.256348,450,4,,,,0,4,0,0,4,1,,,,,,,,,,,,,,,,,,,,,,,,,,,,,,,,,,,,,
1577376209,126,0,4055.384521,4870.769043,4335.897461,4093.846191,4041.025635,450,4,,,,0,4,0,0,4,1,63,0,0.696682,0.48291,0.435303,-0.303223,0.966323,-0.340337,-0.214359,-16.39801,-53.897289,45.466988,,,,,,,,,,,,,,,,,,,,,,,,,
1577376209,127,0,4064.102539,4852.820313,4346.153809,4075.384521,3992.307617,239,4,,,,0,4,0,0,4,1,,,,,,,,,,,,,,,,,,,,,,,,,,,,,,,,,,,,,
1577376209,0,0,4040,4874.871582,4311.282227,4045.128174,4056.410156,450,4,,,,0,4,0,0,4,1,0,0,0.698018,0.485352,0.43042,-0.303223,0.937026,-0.349126,-0.209476,-14.87784,-54.070389,45.286812,,,,,,,,,,,,,,,,,,,,,,,,,
1577376209,1,0,4003.076904,4878.461426,4319.487305,4026.666748,4147.692383,450,4,,,,0,4,0,0,4,1,,,,,,,,,,,,,,,,,,,,,,,,,,,,,,,,,,,,,
1577376209,2,0,4021.025635,4871.282227,4339.487305,4058.974365,4142.05127,16201,4,,,,0,4,0,0,4,1,1,0,0.69969,0.487549,0.425537,-0.302734,0.932143,-0.347662,-0.210452,-13.509687,-54.106548,45.00502,,,,,,,,,,,,,,,,,,,,,,,,,
1577376209,3,0,4038.461426,4896.922852,4348.717773,4066.153809,4072.820557,450,4,,,,0,4,0,0,4,1,,,,,,,,,,,,,,,,,,,,,,,,,,,,,,,,,,,,,
1577376209,4,0,4032.820557,4900,4350.256348,4048.205078,4067.692383,0,4,,,,0,4,0,0,4,1,2,0,0.700919,0.489746,0.421143,-0.30249,0.917983,-0.344244,-0.191897,-12.278349,-54.139091,44.811226,,,,,,,,,,,,,,,,,,,,,,,,,
1577376209,5,0,4020,4873.846191,4311.282227,4017.94873,4032.307617,450,4,,,,0,4,0,0,4,1,,,,,,,,,,,,,,,,,,,,,,,,,,,,,,,,,,,,,
1577376209,6,0,4009.230713,4880,4324.615234,3986.153809,4026.666748,0,4,,,,0,4,0,0,4,1,3,0,0.702584,0.491211,0.416992,-0.302002,0.897475,-0.343755,-0.187991,-12.964606,-54.288013,44.696625,,,,,,,,,,,,,,,,,,,,,,,,,
1577376209,7,0,4040,4895.384766,4349.230957,4018.461426,4114.871582,450,4,,,,0,4,0,0,4,1,,,,,,,,,,,,,10.989051,7.436457,4.926031,15.83585,7.809284,5.301917,2.801266,1.976482,5.529463,9.354349,0.733347,0.453572,0.468565,5.411425,7.166787,1.19998,5.636096,5.549287,10.448055,5.183009,4.763761,5.312661,5.391262,91.981163,19.238392
1577376209,8,0,4038.461426,4873.333496,4343.589844,4032.820557,4123.077148,450,4,,,,0,4,0,0,4,1,4,0,0.70452,0.492188,0.413086,-0.30127,0.887221,-0.351568,-0.172854,-13.701868,-54.481853,44.593483,,,,,,,,,,,,,,,,,,,,,,,,,
1577376209,9,0,4023.076904,4848.205078,4349.743652,4025.128174,4120.512695,16165,4,,,,0,4,0,0,4,1,,,,,,,,,,,,,,,,,,,,,,,,,,,,,,,,,,,,,
1577376209,10,0,4060.512939,4864.102539,4322.563965,4058.461426,4083.589844,450,4,,,,0,4,0,0,4,1,5,0,0.706522,0.492676,0.409424,-0.300781,0.882338,-0.376471,-0.178714,-14.245772,-54.536682,44.500656,,,,,,,,,,,,,,,,,,,,,,,,,
1577376209,11,0,4083.076904,4914.358887,4331.282227,4084.102539,4020,97,4,,,,0,4,0,0,4,1,,,,,,,,,,,,,,,,,,,,,,,,,,,,,,,,,,,,,
1577376209,12,0,4092.820557,4922.05127,4349.743652,4076.923096,4070.769287,450,4,,,,0,4,0,0,4,1,6,0,0.708359,0.493164,0.406006,-0.300293,0.898939,-0.3794,-0.184085,-14.735287,-54.705658,44.297482,,,,,,,,,,,,,,,,,,,,,,,,,
1577376209,13,0,4080.512939,4864.102539,4333.846191,4015.897461,4135.384766,450,4,,,,0,4,0,0,4,1,,,,,,,,,,,,,,,,,,,,,,,,,,,,,,,,,,,,,
1577376209,14,0,4062.564209,4846.153809,4347.692383,3991.794922,4181.538574,450,4,,,,0,4,0,0,4,1,7,0,0.710277,0.493652,0.402588,-0.299561,0.902358,-0.390143,-0.170413,-15.235665,-54.797924,44.174442,,,,,,,,,,,,,,,,,,,,,,,,,
1577376209,15,0,4108.205078,4877.436035,4332.307617,4051.281982,4145.641113,97,4,,,,0,4,0,0,4,1,,,,,,,,,,,,,,,,,,,,,,,,,,,,,,,,,,,,,
1577376209,16,0,4144.615234,4893.846191,4333.333496,4060,4001.538574,0,4,,,,0,4,0,0,4,1,8,0,0.712718,0.493896,0.398682,-0.298584,0.916518,-0.419928,-0.173342,-15.566376,-54.940773,44.063702,,,,,,,,,,,,,,,,,,,,,,,,,
1577376209,17,0,4146.153809,4876.922852,4352.307617,4035.897461,3990.256348,0,4,,,,0,4,0,0,4,1,,,,,,,,,,,,,,,,,,,,,,,,,,,,,,,,,,,,,
1577376209,18,0,4131.794922,4893.333496,4328.717773,4029.743652,4125.641113,0,4,,,,0,4,0,0,4,1,9,0,0.71533,0.494385,0.394287,-0.297363,0.884291,-0.435554,-0.166506,-14.069553,-55.129158,44.023853,,,,,,,,,,,,,,,,,,,,,,,,,
1577376209,19,0,4093.846191,4933.846191,4336.922852,4009.743652,4230.256348,0,4,,,,0,4,0,0,4,1,,,,,,,,,,,,,,,,,,,,,,,,,,,,,,,,,,,,,
1577376209,20,0,4115.384766,4885.641113,4332.820313,4012.820557,4164.615234,0,4,,,,0,4,0,0,4,1,10,0,0.717432,0.495117,0.389893,-0.296875,0.856458,-0.446296,-0.167971,-14.516874,-55.238884,43.928177,,,,,,,,,,,,,,,,,,,,,,,,,
1577376209,21,0,4160,4843.077148,4358.974121,4027.179443,4014.358887,0,4,,,,0,4,0,0,4,1,,,,,,,,,,,,,,,,,,,,,,,,,,,,,,,,,,,,,
1577376209,22,0,4189.743652,4881.025879,4351.282227,4037.435791,4016.923096,0,4,,,,0,4,0,0,4,1,11,0,0.719765,0.495361,0.385254,-0.296875,0.877943,-0.465339,-0.171878,-14.859648,-55.277824,43.901878,,,,,,,,,,,,,,,,,,,,,,,,,
1577376209,23,0,4180.512695,4895.384766,4294.871582,4012.307617,4098.974121,0,4,,,,0,4,0,0,4,1,,,,,,,,,,,,,11.352569,9.101492,4.400614,14.833122,7.252258,6.148603,3.292874,1.996456,6.081572,9.376925,0.832293,0.541023,0.486271,5.07574,6.947642,2.139529,5.942168,5.324114,9.719797,4.517587,5.511703,5.89035,6.028183,90.538048,18.771389
1577376209,24,0,4107.179688,4924.615234,4397.436035,3973.846191,4161.025879,0,4,,,,0,4,0,0,4,1,12,0,0.72209,0.495605,0.380371,-0.297119,0.872572,-0.460945,-0.187015,-15.287775,-55.372688,44.057659,,,,,,,,,,,,,,,,,,,,,,,,,
1577376209,25,0,4242.05127,4912.820313,4358.974121,4123.077148,4294.358887,0,4,,,,0,4,0,0,4,1,,,,,,,,,,,,,,,,,,,,,,,,,,,,,,,,,,,,,
1577376209,26,0,4178.461426,4818.461426,4314.358887,4045.128174,3831.794922,0,4,,,,0,4,0,0,4,1,13,0,0.724466,0.495605,0.375244,-0.297852,0.864759,-0.449226,-0.19678,-15.613274,-55.338432,44.018414,,,,,,,,,,,,,,,,,,,,,,,,,
1577376209,27,0,3973.333252,4941.025879,4561.025879,3881.538574,4218.461426,0,4,,,,0,4,0,0,4,1,,,,,,,,,,,,,,,,,,,,,,,,,,,,,,,,,,,,,
1577376210,28,0,4581.538574,4857.436035,4066.666748,4402.563965,4732.307617,0,4,,,,0,4,0,0,4,1,14,0,0.727289,0.495361,0.369873,-0.298096,0.871107,-0.412116,-0.190921,-15.906222,-55.487049,43.80365,,,,,,,,,,,,,,,,,,,,,,,,,
1577376210,29,0,4252.820313,4663.077148,3660,4020,2398.461426,0,4,,,,0,4,0,0,4,1,,,,,,,,,,,,,,,,,,,,,,,,,,,,,,,,,,,,,
1577376210,30,0,3617.94873,4956.922852,4119.487305,3555.384521,2614.358887,0,4,,,,0,4,0,0,4,1,15,0,0.730604,0.495117,0.364014,-0.297607,0.852552,-0.416999,-0.187015,-16.229692,-55.620804,43.729992,,,,,,,,,,,,,,,,,,,,,,,,,
1577376210,31,0,4383.077148,4929.743652,3062.05127,4331.282227,4730.256348,0,4,,,,0,4,0,0,4,1,,,,,,,,,,,,,,,,,,,,,,,,,,,,,,,,,,,,,
1577376210,32,0,4274.358887,4765.641113,2223.589844,4172.820313,3753.333252,0,4,,,,0,4,0,0,4,1,16,0,0.724466,0.495605,0.375244,-0.297852,0.864759,-0.449226,-0.19678,-16.401184,-55.68137,43.484253,,,,,,,,,,,,,,,,,,,,,,,,,
1577376210,33,0,3945.128174,4925.641113,2804.615479,3897.435791,3737.94873,0,4,,,,0,4,0,0,4,1,,,,,,,,,,,,,,,,,,,,,,,,,,,,,,,,,,,,,
1577376210,34,0,4286.153809,4888.205078,2542.05127,4212.820313,4338.461426,0,4,,,,0,4,0,0,4,1,17,0,0.730604,0.495117,0.364014,-0.297607,0.852552,-0.416999,-0.187015,-16.675158,-55.795692,43.442532,,,,,,,,,,,,,,,,,,,,,,,,,
1577376210,35,0,4172.820313,4873.333496,2449.230713,4098.974121,4060.512939,0,4,,,,0,4,0,0,4,1,,,,,,,,,,,,,,,,,,,,,,,,,,,,,,,,,,,,,
1577376210,36,0,4162.563965,4885.128418,2590.769287,4104.615234,4203.589844,0,4,,,,0,4,0,0,4,1,18,0,0.734503,0.494385,0.35791,-0.296631,0.830579,-0.416022,-0.208499,-16.802103,-55.838768,43.22554,,,,,,,,,,,,,,,,,,,,,,,,,
1577376210,37,0,4182.05127,4863.589844,2433.333252,4103.077148,4142.563965,0,4,,,,0,4,0,0,4,1,,,,,,,,,,,,,,,,,,,,,,,,,,,,,,,,,,,,,
1577376210,38,0,4164.102539,4895.897461,2520,4087.179443,4176.922852,0,4,,,,0,4,0,0,4,1,19,0,0.738635,0.493164,0.352051,-0.29541,0.833997,-0.420905,-0.227543,-16.856537,-55.997166,43.149876,,,,,,,,,,,,,,,,,,,,,,,,,
1577376210,39,0,4184.102539,4881.025879,2451.281982,4118.974121,4207.179688,0,4,,,,0,4,0,0,4,1,,,,,,,,,,,,,11.952094,10.7394,3.934326,13.555418,6.572409,6.248382,3.422628,1.938071,6.216702,9.397135,1.048165,0.67673,0.523132,4.637253,6.698072,4.203696,6.385316,4.801367,8.641706,3.83292,5.793551,6.396534,6.894773,90.707733,18.140038
1577376210,40,0,4155.897461,4891.794922,2467.692383,4098.461426,4176.922852,0,4,,,,0,4,0,0,4,1,20,0,0.743049,0.491211,0.34668,-0.293945,0.823743,-0.426764,-0.244633,-17.02516,-56.139725,42.962151,,,,,,,,,,,,,,,,,,,,,,,,,
1577376210,41,0,4174.871582,4891.794922,2477.94873,4118.461426,4229.230957,0,4,,,,0,4,0,0,4,1,,,,,,,,,,,,,,,,,,,,,,,,,,,,,,,,,,,,,
1577376210,42,0,4166.666504,4851.794922,2431.794922,4116.922852,4198.461426,0,4,,,,0,4,0,0,4,1,21,0,0.747453,0.489014,0.341309,-0.292725,0.797864,-0.461921,-0.290044,-17.117105,-56.20821,42.673565,,,,,,,,,,,,,,,,,,,,,,,,,
1577376210,43,0,4164.615234,4853.846191,2471.281982,4123.077148,4219.487305,0,4,,,,0,4,0,0,4,1,,,,,,,,,,,,,,,,,,,,,,,,,,,,,,,,,,,,,
1577376210,44,0,4182.563965,4893.333496,2441.538574,4144.102539,4255.897461,0,4,,,,0,4,0,0,4,1,22,0,0.75215,0.486084,0.336182,-0.291504,0.802258,-0.493172,-0.302251,-17.080225,-56.389481,42.533466,,,,,,,,,,,,,,,,,,,,,,,,,
1577376210,45,0,4188.717773,4891.794922,2438.974365,4144.615234,4247.179688,0,4,,,,0,4,0,0,4,1,,,,,,,,,,,,,,,,,,,,,,,,,,,,,,,,,,,,,
1577376210,46,0,4208.717773,4860.512695,2457.435791,4156.922852,4277.436035,0,4,,,,0,4,0,0,4,1,23,0,0.756631,0.48291,0.331299,-0.290771,0.768566,-0.518074,-0.330083,-16.987217,-56.432991,42.28775,,,,,,,,,,,,,,,,,,,,,,,,,
1577376210,47,0,4212.307617,4871.794922,2448.718018,4162.05127,4270.769043,0,4,,,,0,4,0,0,4,1,,,,,,,,,,,,,,,,,,,,,,,,,,,,,,,,,,,,,
1577376210,48,0,4174.871582,4875.897461,2480.512939,4126.666504,4228.717773,0,4,,,,0,4,0,0,4,1,24,0,0.760787,0.479492,0.327148,-0.290283,0.792493,-0.532723,-0.376959,-17.023142,-56.711414,41.827343,,,,,,,,,,,,,,,,,,,,,,,,,
1577376210,49,0,4150.769043,4845.641113,2495.897461,4103.589844,4215.897461,0,4,,,,0,4,0,0,4,1,,,,,,,,,,,,,,,,,,,,,,,,,,,,,,,,,,,,,
1577376210,50,0,4155.384766,4861.538574,2466.666748,4110.256348,4201.025879,0,4,,,,0,4,0,0,4,1,25,0,0.764642,0.47583,0.323486,-0.290283,0.771984,-0.504402,-0.392584,-16.935843,-56.722733,41.472794,,,,,,,,,,,,,,,,,,,,,,,,,
1577376210,51,0,4162.05127,4910.256348,2465.641113,4125.641113,4220,0,4,,,,0,4,0,0,4,1,,,,,,,,,,,,,,,,,,,,,,,,,,,,,,,,,,,,,
1577376210,52,0,4162.05127,4900,2508.205078,4133.846191,4243.077148,0,4,,,,0,4,0,0,4,1,26,0,0.768288,0.471924,0.320557,-0.290283,0.776867,-0.498054,-0.41651,-16.917088,-56.912365,41.213512,,,,,,,,,,,,,,,,,,,,,,,,,
1577376210,53,0,4148.205078,4849.230957,2513.333252,4114.871582,4206.666504,0,4,,,,0,4,0,0,4,1,,,,,,,,,,,,,,,,,,,,,,,,,,,,,,,,,,,,,
1577376210,54,0,4145.128418,4851.794922,2547.692383,4108.717773,4208.717773,0,4,,,,0,4,0,0,4,1,27,0,0.771732,0.467773,0.318359,-0.290283,0.807141,-0.483894,-0.457038,-16.900209,-57.202663,40.860531,,,,,,,,,,,,,,,,,,,,,,,,,
1577376210,55,0,4165.641113,4905.641113,2549.743652,4132.307617,4232.820313,0,4,,,,0,4,0,0,4,1,,,,,,,,,,,,,13.164477,12.050001,3.644599,12.268847,6.756341,5.572731,3.157866,1.812972,5.978479,9.42796,20.235018,5.673363,2.101929,4.487884,7.406337,7.375595,6.872884,4.075045,7.484194,3.969942,8.957852,10.943749,10.497288,94.464745,24.271118
1577376210,56,0,4148.205078,4900,2506.666748,4116.410156,4200,0,4,,,,0,4,0,0,4,1,28,0,0.77445,0.464111,0.316895,-0.290527,0.803235,-0.477058,-0.457527,-16.825203,-57.344303,36.834293,,,,,,,,,,,,,,,,,,,,,,,,,
1577376210,57,0,4112.820313,4838.974121,2573.333252,4083.589844,4190.769043,0,4,,,,0,4,0,0,4,1,,,,,,,,,,,,,,,,,,,,,,,,,,,,,,,,,,,,,
1577376210,58,0,4124.615234,4862.563965,2563.589844,4084.615479,4185.128418,0,4,,,,0,4,0,0,4,1,29,0,0.777229,0.460449,0.31543,-0.290527,0.789075,-0.485359,-0.470222,-16.817513,-57.471779,37.03886,,,,,,,,,,,,,,,,,,,,,,,,,
1577376210,59,0,4135.897461,4934.871582,2587.179443,4092.307617,4192.820313,0,4,,,,0,4,0,0,4,1,,,,,,,,,,,,,,,,,,,,,,,,,,,,,,,,,,,,,
1577376210,60,0,4110.769043,4892.820313,2638.461426,4086.153809,4199.487305,0,4,,,,0,4,0,0,4,1,30,0,0.779548,0.45752,0.313965,-0.290527,0.779797,-0.491218,-0.480476,-16.930223,-57.706139,33.394791,,,,,,,,,,,,,,,,,,,,,,,,,
1577376210,61,0,4078.974365,4825.128418,2585.128174,4060,4133.846191,0,4,,,,0,4,0,0,4,1,,,,,,,,,,,,,,,,,,,,,,,,,,,,,,,,,,,,,
1577376210,62,0,4090.256348,4857.94873,2682.05127,4068.205078,4138.461426,0,4,,,,0,4,0,0,4,1,31,0,0.781179,0.455078,0.313232,-0.290771,0.785168,-0.490242,-0.483406,-16.971846,-57.857246,33.704048,,,,,,,,,,,,,,,,,,,,,,,,,
1577376210,63,0,4086.666748,4891.794922,2578.461426,4071.794922,4056.410156,0,4,,,,0,4,0,0,4,1,,,,,,,,,,,,,,,,,,,,,,,,,,,,,,,,,,,,,
1577376210,64,0,3991.281982,4935.897461,2720,4015.897461,4187.179688,450,4,,,,0,4,0,0,4,1,32,0,0.782425,0.453125,0.3125,-0.29126,0.792004,-0.483894,-0.511238,-16.889677,-57.993244,34.102013,,,,,,,,,,,,,,,,,,,,,,,,,
1577376210,65,0,4189.743652,4883.077148,2809.230713,4173.333496,4407.692383,450,4,,,,0,4,0,0,4,1,,,,,,,,,,,,,,,,,,,,,,,,,,,,,,,,,,,,,
1577376210,66,0,3996.410156,4808.717773,2465.641113,3966.153809,3512.820557,16140,4,,,,0,4,0,0,4,1,33,0,0.783419,0.451416,0.312256,-0.291504,0.785657,-0.483406,-0.525887,-16.87554,-58.115639,34.460178,,,,,,,,,,,,,,,,,,,,,,,,,
1577376210,67,0,3723.076904,5054.871582,3606.153809,3886.153809,4701.025879,450,4,,,,0,4,0,0,4,1,,,,,,,,,,,,,,,,,,,,,,,,,,,,,,,,,,,,,
1577376210,68,0,4430.769043,4941.538574,4349.230957,4509.743652,6072.307617,0,4,,,,0,4,0,0,4,1,34,0,0.783561,0.450684,0.3125,-0.291992,0.797375,-0.503426,-0.523445,-16.862816,-58.28561,34.722713,,,,,,,,,,,,,,,,,,,,,,,,,
1577376210,69,0,4131.794922,4749.743652,4126.666504,4049.743652,3593.333252,450,4,,,,0,4,0,1,4,1,,,,,,,,,,,,,,,,,,,,,,,,,,,,,,,,,,,,,
1577376210,70,0,3690.769287,4990.256348,4600.512695,3763.589844,3497.94873,129,4,,,,0,4,0,1,4,1,35,0,0.783459,0.450195,0.313232,-0.292236,0.817395,-0.49659,-0.539071,-16.911179,-58.378773,35.01881,,,,,,,,,,,,,,,,,,,,,,,,,
1577376210,71,0,4216.410156,4905.128418,4514.358887,4296.922852,4730.769043,450,4,,,,0,4,0,1,4,1,,,,,,,,,,,,,14.967408,12.74839,3.560265,11.425867,10.57132,4.441324,2.656536,1.698017,5.553688,9.620568,125.608513,33.003262,11.00115,5.9749,12.66866,11.229997,7.290419,3.490664,6.708551,7.281829,28.189362,30.575422,25.206785,108.276306,58.55344
1577376210,72,0,3991.281982,4845.128418,4309.743652,4018.974365,3745.128174,450,4,,,,0,4,0,1,4,1,36,0,0.782702,0.450684,0.313965,-0.292725,0.817884,-0.497078,-0.524422,-16.894892,-58.462616,35.10585,,,,,,,,,,,,,,,,,,,,,,,,,
1577376210,73,0,3901.025635,4916.922852,4400,3962.564209,3860.512939,16173,4,,,,0,4,0,1,4,1,,,,,,,,,,,,,,,,,,,,,,,,,,,,,,,,,,,,,
1577376210,74,0,4059.487061,4827.692383,4346.153809,4093.333252,4258.974121,450,4,,,,0,4,0,1,4,2,37,0,0.781507,0.451904,0.315186,-0.292725,0.817884,-0.520027,-0.534188,-16.940048,-58.538074,35.124374,,,,,,,,,,,,,,,,,,,,,,,,,
1577376210,75,0,3982.564209,4885.641113,4421.538574,4017.94873,4190.256348,295,4,,,,0,4,0,1,4,2,,,,,,,,,,,,,,,,,,,,,,,,,,,,,,,,,,,,,
1577376210,76,0,4021.538574,4900.512695,4389.743652,4083.589844,4074.358887,450,4,,,,0,4,0,1,4,2,38,0,0.779881,0.453369,0.31665,-0.293213,0.811048,-0.498543,-0.517586,-16.920874,-58.546173,35.380302,,,,,,,,,,,,,,,,,,,,,,,,,
1577376210,77,0,3949.230713,4861.025879,4380,4002.564209,3957.435791,450,4,,,,0,4,0,1,4,2,,,,,,,,,,,,,,,,,,,,,,,,,,,,,,,,,,,,,
1577376210,78,0,3935.897461,4896.410156,4389.743652,3980,4101.025879,450,4,,,,0,4,0,1,4,2,39,0,0.777911,0.455566,0.318115,-0.293457,0.822766,-0.504891,-0.499031,-16.963432,-58.613277,35.670456,,,,,,,,,,,,,,,,,,,,,,,,,
1577376210,79,0,3956.410156,4926.666504,4390.256348,4029.230713,4149.230957,295,4,,,,0,4,0,1,4,2,,,,,,,,,,,,,,,,,,,,,,,,,,,,,,,,,,,,,
1577376210,80,0,3957.94873,4875.897461,4402.563965,4010.769287,4087.692383,450,4,,,,0,4,0,1,4,2,40,0,0.775588,0.458008,0.319824,-0.293945,0.798352,-0.49073,-0.473152,-17.001734,-58.733486,35.87178,,,,,,,,,,,,,,,,,,,,,,,,,
1577376210,81,0,3986.666748,4847.692383,4410.769043,3998.974365,3995.897461,450,4,,,,0,4,0,1,4,2,,,,,,,,,,,,,,,,,,,,,,,,,,,,,,,,,,,,,
1577376210,82,0,3982.564209,4890.769043,4372.820313,3996.923096,3983.589844,450,4,,,,0,4,0,1,4,2,41,0,0.772864,0.460938,0.321533,-0.294678,0.80177,-0.474128,-0.457038,-17.155838,-58.722042,36.292229,,,,,,,,,,,,,,,,,,,,,,,,,
1577376210,83,0,3971.281982,4919.487305,4390.769043,3993.333252,4086.666748,295,4,,,,0,4,0,1,4,2,,,,,,,,,,,,,,,,,,,,,,,,,,,,,,,,,,,,,
1577376210,84,0,4005.641113,4925.128418,4403.077148,4028.718018,4149.743652,450,4,,,,0,4,0,1,4,2,42,0,0.770309,0.463867,0.322998,-0.295166,0.803235,-0.467781,-0.417975,-17.234715,-58.711746,36.431374,,,,,,,,,,,,,,,,,,,,,,,,,
1577376210,85,0,4011.281982,4911.794922,4396.410156,4017.435791,4071.794922,450,4,,,,0,4,0,1,4,2,,,,,,,,,,,,,,,,,,,,,,,,,,,,,,,,,,,,,
1577376210,86,0,3990.256348,4884.615234,4405.641113,3996.410156,4061.538574,450,4,,,,0,4,0,1,4,2,43,0,0.767732,0.466797,0.324463,-0.295654,0.789075,-0.450202,-0.40528,-17.485149,-58.642662,36.736053,,,,,,,,,,,,,,,,,,,,,,,,,
1577376210,87,0,4015.384521,4891.794922,4363.589844,4017.435791,4027.179443,295,4,,,,0,4,0,1,4,2,,,,,,,,,,,,,16.91156,12.720546,3.724189,11.396942,21.187313,3.35902,2.189813,1.691282,5.182415,10.243106,397.921265,111.575706,37.443001,11.047179,27.018818,14.57252,7.56248,3.457281,6.730609,16.457109,79.249893,79.366875,63.31179,139.163681,146.772324
1577376210,88,0,4038.974365,4906.666504,4377.436035,4014.871826,3977.94873,450,4,,,,0,4,0,1,4,2,44,0,0.765386,0.469482,0.325684,-0.296143,0.788586,-0.444343,-0.367193,-17.650726,-58.640301,36.950447,,,,,,,,,,,,,,,,,,,,,,,,,
1577376210,89,0,4051.281982,4869.230957,4403.589844,4022.564209,4080,450,4,,,,0,4,0,1,4,2,,,,,,,,,,,,,,,,,,,,,,,,,,,,,,,,,,,,,
1577376210,90,0,4020,4868.717773,4382.563965,4003.589844,4134.358887,450,4,,,,0,4,0,1,4,2,45,0,0.770309,0.463867,0.322998,-0.295166,0.803235,-0.467781,-0.417975,-17.739931,-58.518547,37.203217,,,,,,,,,,,,,,,,,,,,,,,,,
1577376210,91,0,3960.512939,4925.641113,4394.358887,3966.666748,4115.897461,295,4,,,,0,4,0,1,4,2,,,,,,,,,,,,,,,,,,,,,,,,,,,,,,,,,,,,,
1577376210,92,0,3954.871826,4927.692383,4371.794922,3960.512939,4062.564209,450,4,,,,0,4,0,1,4,2,46,0,0.765386,0.469482,0.325684,-0.296143,0.788586,-0.444343,-0.367193,-17.88003,-58.528599,37.370892,,,,,,,,,,,,,,,,,,,,,,,,,
1577376210,93,0,3958.461426,4905.128418,4371.794922,3941.538574,3976.923096,450,4,,,,0,4,0,1,4,2,,,,,,,,,,,,,,,,,,,,,,,,,,,,,,,,,,,,,
1577376210,94,0,3954.358887,4888.717773,4393.333496,3936.923096,3992.820557,450,4,,,,0,4,0,1,4,2,47,0,0.763476,0.471924,0.326416,-0.296387,0.758801,-0.444831,-0.343267,-17.946302,-58.477829,37.521801,,,,,,,,,,,,,,,,,,,,,,,,,
1577376210,95,0,3947.692383,4889.743652,4372.820313,3924.615479,4061.025635,295,4,,,,0,4,0,1,4,2,,,,,,,,,,,,,,,,,,,,,,,,,,,,,,,,,,,,,
1577376210,96,0,3944.615479,4909.743652,4383.077148,3915.384521,4123.589844,450,4,,,,0,4,0,1,4,2,48,0,0.761619,0.474121,0.326904,-0.297119,0.765637,-0.444831,-0.329595,-17.946133,-58.312504,37.597805,,,,,,,,,,,,,,,,,,,,,,,,,
1577376210,97,0,3964.615479,4876.410156,4384.615234,3942.05127,4124.102539,450,4,,,,0,4,0,1,4,2,,,,,,,,,,,,,,,,,,,,,,,,,,,,,,,,,,,,,
1577376210,98,0,3977.94873,4877.436035,4392.307617,3947.692383,3992.820557,450,4,,,,0,4,0,1,4,2,49,0,0.760313,0.475586,0.327148,-0.297852,0.786145,-0.45655,-0.333989,-17.94598,-58.402977,37.845654,,,,,,,,,,,,,,,,,,,,,,,,,
1577376210,99,0,4022.05127,4931.282227,4398.461426,3968.205078,3943.589844,295,4,,,,0,4,0,1,4,2,,,,,,,,,,,,,,,,,,,,,,,,,,,,,,,,,,,,,
1577376210,100,0,4035.384521,4889.230957,4368.717773,3979.487061,4045.641113,450,4,,,,0,4,0,1,4,2,50,0,0.759156,0.476807,0.327393,-0.298584,0.80177,-0.472663,-0.326665,-18.065475,-58.245136,38.248165,,,,,,,,,,,,,,,,,,,,,,,,,
1577376210,101,0,3970.769287,4862.563965,4389.230957,3958.461426,4178.974121,450,4,,,,0,4,0,1,4,2,,,,,,,,,,,,,,,,,,,,,,,,,,,,,,,,,,,,,
1577376210,102,0,3993.846191,4910.256348,4380,3982.05127,4147.692383,450,4,,,,0,4,0,1,4,2,51,0,0.757945,0.477783,0.327881,-0.299561,0.788098,-0.482918,-0.340337,-17.873941,-58.222713,38.430977,,,,,,,,,,,,,,,,,,,,,,,,,
1577376210,103,0,4037.94873,4902.563965,4404.102539,3977.94873,3990.256348,295,4,,,,0,4,0,1,4,2,,,,,,,,,,,,,18.316414,12.102858,4.181549,12.316786,40.590034,2.707208,2.015204,1.834104,5.02528,11.643955,910.173828,274.573853,95.515953,22.779579,53.386833,16.615971,7.74164,4.251298,7.732261,33.217918,169.732391,166.347458,136.008179,192.104645,310.80661
1577376210,104,0,4035.897461,4874.358887,4388.205078,3968.205078,4020.512939,450,4,,,,0,4,0,1,4,2,52,0,0.756836,0.478271,0.328613,-0.300781,0.79884,-0.500984,-0.351568,-17.940825,-58.082901,38.715141,,,,,,,,,,,,,,,,,,,,,,,,,
1577376210,105,0,4048.205078,4874.358887,4298.974121,3995.897461,4049.230713,450,4,,,,0,4,0,1,4,2,,,,,,,,,,,,,,,,,,,,,,,,,,,,,,,,,,,,,
1577376210,106,0,4011.281982,4887.179688,4394.358887,3967.692383,3984.102539,450,4,,,,0,4,0,1,4,2,53,0,0.755779,0.478516,0.329346,-0.302246,0.806165,-0.489754,-0.335454,-17.881388,-58.196335,38.851257,,,,,,,,,,,,,,,,,,,,,,,,,
1577376210,107,0,4050.769287,4918.461426,4363.589844,4005.641113,4056.923096,295,4,,,,0,4,0,1,4,2,,,,,,,,,,,,,,,,,,,,,,,,,,,,,,,,,,,,,
1577376210,108,0,4066.666748,4916.922852,4311.794922,4043.076904,4073.846191,450,4,,,,0,4,0,1,4,2,54,0,0.754725,0.47876,0.329834,-0.303955,0.796887,-0.479988,-0.332036,-17.887709,-58.059158,39.033573,,,,,,,,,,,,,,,,,,,,,,,,,
1577376210,109,0,3990.256348,4887.692383,4405.641113,3990.769287,4093.333252,450,4,,,,0,4,0,1,4,2,,,,,,,,,,,,,,,,,,,,,,,,,,,,,,,,,,,,,
1577376210,110,0,4039.487061,4881.025879,4297.436035,4013.333252,4041.025635,450,4,,,,0,4,0,1,4,2,55,0,0.753976,0.478516,0.330322,-0.305664,0.79884,-0.460456,-0.33106,-17.953215,-57.875889,39.317291,,,,,,,,,,,,,,,,,,,,,,,,,
1577376210,111,0,4068.205078,4901.025879,4260,4026.666748,3927.179443,295,4,,,,0,4,0,1,4,2,,,,,,,,,,,,,,,,,,,,,,,,,,,,,,,,,,,,,
1577376210,112,1,4070.655273,4905.526855,4271.453125,4030.028564,3947.008545,312.222229,4,,,,0,4,0,1,4,2,56,1,0,0.477881,0.330518,-0.307275,0.80763,-0.45362,0,0,0,0,,,,,,,,,,,,,,,,,,,,,,,,,
1577376210,113,1,4073.105469,4910.02832,4282.905762,4033.390381,3966.837646,329.444458,4,,,,0,4,0,1,4,2,,,,,,,,,,,,,,,,,,,,,,,,,,,,,,,,,,,,,
1577376210,114,1,4075.555664,4914.529785,4294.358887,4036.752197,3986.666748,346.666656,4,,,,0,4,0,1,4,2,57,1,0,0.477246,0.330713,-0.308887,0.816419,-0.446784,0,0,0,0,,,,,,,,,,,,,,,,,,,,,,,,,
1577376210,115,1,4078.005615,4919.03125,4305.812012,4040.114014,4006.495605,363.888885,4,,,,0,4,0,1,4,2,,,,,,,,,,,,,,,,,,,,,,,,,,,,,,,,,,,,,
1577376210,116,1,4080.455811,4923.532715,4317.265137,4043.47583,4026.324707,381.111115,4,,,,0,4,0,1,4,2,58,1,0,0.476611,0.330908,-0.310498,0.825208,-0.439948,0,0,0,0,,,,,,,,,,,,,,,,,,,,,,,,,
1577376210,117,1,4082.906006,4928.03418,4328.717773,4046.837646,4046.153809,398.333344,4,,,,0,4,0,1,4,2,,,,,,,,,,,,,,,,,,,,,,,,,,,,,,,,,,,,,
1577376210,118,1,4085.356201,4932.535645,4340.170898,4050.199463,4065.98291,415.555542,4,,,,0,4,0,1,4,2,59,1,0,0.475977,0.331104,-0.312109,0.833997,-0.433112,0,0,0,0,,,,,,,,,,,,,,,,,,,,,,,,,
1577376210,119,1,4087.806152,4937.037109,4351.624023,4053.561279,4085.812012,432.777771,4,,,,0,4,0,1,4,2,,,,,,,,,,,,,18.854179,11.271446,4.97098,13.987799,67.808159,2.616112,2.24928,2.117042,5.079979,14.017512,1674.081421,534.00531,193.31134,44.050671,90.176575,17.009199,7.945956,5.831653,9.519479,56.819981,290.320099,285.912689,243.509949,266.27832,552.683594
1577376210,120,0,4090.256348,4941.538574,4363.077148,4056.923096,4105.641113,450,4,,,,0,4,0,1,4,2,60,0,0.752244,0.475342,0.331299,-0.313721,0.842786,-0.426276,-0.356451,-18.191616,-57.77076,39.453007,,,,,,,,,,,,,,,,,,,,,,,,,
1577376210,121,0,4122.563965,4905.128418,4407.692383,4072.307617,4046.666748,450,4,,,,0,4,0,1,4,2,,,,,,,,,,,,,,,,,,,,,,,,,,,,,,,,,,,,,
1577376210,122,0,4144.102539,4866.666504,4345.641113,4099.487305,3984.615479,450,4,,,,0,4,0,1,4,2,61,0,0.752298,0.474609,0.331299,-0.314697,0.83888,-0.42237,-0.35938,-16.43227,-57.855591,39.694782,,,,,,,,,,,,,,,,,,,,,,,,,
1577376210,123,0,4090.256348,4892.820313,4329.743652,4076.923096,3984.102539,295,4,,,,0,4,0,1,4,2,,,,,,,,,,,,,,,,,,,,,,,,,,,,,,,,,,,,,
1577376210,124,0,4060,4914.358887,4404.102539,4074.871826,4056.410156,450,4,,,,0,4,0,1,4,2,62,0,0.752243,0.473877,0.331543,-0.315674,0.842298,-0.417975,-0.357916,-16.762949,-57.87212,39.852566,,,,,,,,,,,,,,,,,,,,,,,,,
1577376210,125,0,4120.512695,4872.820313,4438.974121,4107.692383,4083.076904,450,4,,,,0,4,0,1,4,2,,,,,,,,,,,,,,,,,,,,,,,,,,,,,,,,,,,,,
1577376210,126,0,4112.820313,4862.563965,4374.358887,4102.05127,4025.641113,450,4,,,,0,4,0,1,4,2,63,0,0.752397,0.473145,0.331543,-0.316406,0.834485,-0.438972,-0.355474,-17.000746,-57.887001,39.874939,,,,,,,,,,,,,,,,,,,,,,,,,
1577376210,127,0,4075.384521,4904.615234,4297.436035,4088.205078,4036.923096,239,4,,,,0,4,0,1,4,2,,,,,,,,,,,,,,,,,,,,,,,,,,,,,,,,,,,,,
1577376210,0,0,4098.461426,4916.410156,4306.666504,4087.179443,4051.281982,450,4,,,,0,4,0,1,4,2,0,0,0.752651,0.472412,0.331543,-0.316895,0.834974,-0.422858,-0.36231,-17.214764,-57.780758,40.07452,,,,,,,,,,,,,,,,,,,,,,,,,
1577376210,1,0,4133.333496,4874.358887,4422.563965,4105.128418,3962.564209,450,4,,,,0,4,0,1,4,2,,,,,,,,,,,,,,,,,,,,,,,,,,,,,,,,,,,,,
1577376210,2,0,4156.410156,4844.615234,4415.897461,4132.307617,3991.794922,16179,4,,,,0,4,0,1,4,2,1,0,0.75285,0.471924,0.331787,-0.316895,0.841321,-0.42237,-0.366217,-17.52701,-57.625328,40.313957,,,,,,,,,,,,,,,,,,,,,,,,,
1577376210,3,0,4098.461426,4888.717773,4334.358887,4095.384521,4105.641113,450,4,,,,0,4,0,1,4,2,,,,,,,,,,,,,,,,,,,,,,,,,,,,,,,,,,,,,
1577376210,4,0,4061.025635,4945.128418,4337.94873,4055.384521,4159.487305,0,4,,,,0,4,0,1,4,2,2,0,0.753098,0.471191,0.332031,-0.317139,0.836439,-0.435554,-0.364263,-17.808031,-57.545254,40.529453,,,,,,,,,,,,,,,,,,,,,,,,,
1577376210,5,0,4127.692383,4901.025879,4327.692383,4086.153809,4049.743652,450,4,,,,0,4,0,1,4,2,,,,,,,,,,,,,,,,,,,,,,,,,,,,,,,,,,,,,
1577376210,6,0,4127.692383,4827.179688,4377.436035,4096.922852,3923.076904,5,4,,,,0,4,0,0,4,2,3,0,0.753399,0.470703,0.332275,-0.316895,0.833021,-0.429694,-0.363287,-17.94132,-57.47319,40.663586,,,,,,,,,,,,,,,,,,,,,,,,,
1577376210,7,0,4108.205078,4865.641113,4388.205078,4096.922852,3962.564209,450,4,,,,0,4,0,0,4,2,,,,,,,,,,,,,18.470207,10.626088,5.969009,15.860936,97.908669,2.972098,2.820464,2.467372,5.204773,17.12414,2581.141846,858.757629,322.334503,74.481339,130.156464,15.719072,8.221071,7.804268,11.496241,83.121864,413.925018,414.471588,369.720703,351.044525,839.53595
1577376210,8,0,4116.410156,4933.333496,4320,4108.717773,4029.230713,450,4,,,,0,4,0,0,4,2,4,0,0.753591,0.470215,0.332764,-0.31665,0.830579,-0.435554,-0.36231,-16.207003,-57.348515,40.784302,,,,,,,,,,,,,,,,,,,,,,,,,
1577376210,9,0,4104.615234,4916.410156,4351.794922,4100.512695,4086.666748,16176,4,,,,0,4,0,0,4,2,,,,,,,,,,,,,,,,,,,,,,,,,,,,,,,,,,,,,
1577376210,10,0,4128.717773,4882.05127,4355.384766,4110.256348,4133.333496,450,4,,,,0,4,0,0,4,2,5,0,0.753832,0.469482,0.333252,-0.31665,0.819348,-0.426764,-0.371099,-14.646118,-57.415752,40.713501,,,,,,,,,,,,,,,,,,,,,,,,,
1577376210,11,0,4123.589844,4886.666504,4342.563965,4098.461426,4064.615479,164,4,,,,0,4,0,0,4,2,,,,,,,,,,,,,,,,,,,,,,,,,,,,,,,,,,,,,
1577376210,12,0,4110.769043,4896.410156,4354.871582,4090.256348,3990.769287,450,4,,,,0,4,0,0,4,2,6,0,0.75413,0.468994,0.333496,-0.316406,0.816419,-0.443854,-0.36817,-13.301137,-57.476269,40.64978,,,,,,,,,,,,,,,,,,,,,,,,,
1577376210,13,0,4127.179688,4892.307617,4316.410156,4114.358887,3981.025635,450,4,,,,0,4,0,0,4,2,,,,,,,,,,,,,,,,,,,,,,,,,,,,,,,,,,,,,
1577376210,14,0,4113.333496,4883.589844,4331.282227,4115.897461,4083.076904,450,4,,,,0,4,0,0,4,2,7,0,0.754422,0.468506,0.333984,-0.315918,0.827161,-0.435554,-0.374029,-14.004745,-57.411102,40.712063,,,,,,,,,,,,,,,,,,,,,,,,,
1577376210,15,0,4114.358887,4884.102539,4344.102539,4118.461426,4135.384766,164,4,,,,0,4,0,0,4,2,,,,,,,,,,,,,,,,,,,,,,,,,,,,,,,,,,,,,
1577376210,16,0,4121.025879,4899.487305,4337.436035,4108.717773,4066.666748,0,4,,,,0,4,0,0,4,2,8,0,0.754357,0.468262,0.334473,-0.315918,0.829114,-0.439948,-0.36231,-12.664086,-57.412266,40.588669,,,,,,,,,,,,,,,,,,,,,,,,,
1577376210,17,0,4121.538574,4898.974121,4350.256348,4113.846191,4053.846191,0,4,,,,0,4,0,0,4,2,,,,,,,,,,,,,,,,,,,,,,,,,,,,,,,,,,,,,
1577376210,18,0,4124.615234,4872.820313,4309.230957,4128.205078,4037.94873,0,4,,,,0,4,0,0,4,2,9,0,0.75413,0.468994,0.333496,-0.316406,0.816419,-0.443854,-0.36817,-13.4314,-57.413315,40.716881,,,,,,,,,,,,,,,,,,,,,,,,,
1577376210,19,0,4129.743652,4880,4302.563965,4109.743652,4020,0,4,,,,0,4,0,0,4,2,,,,,,,,,,,,,,,,,,,,,,,,,,,,,,,,,,,,,
1577376210,20,0,4154.871582,4902.05127,4341.025879,4122.05127,4090.256348,0,4,,,,0,4,0,0,4,2,10,0,0.754357,0.468262,0.334473,-0.315918,0.829114,-0.439948,-0.36231,-12.148076,-57.414257,40.593006,,,,,,,,,,,,,,,,,,,,,,,,,
1577376210,21,0,4153.333496,4901.025879,4342.563965,4114.358887,4117.94873,0,4,,,,0,4,0,0,4,2,,,,,,,,,,,,,,,,,,,,,,,,,,,,,,,,,,,,,
1577376210,22,0,4125.128418,4883.077148,4341.025879,4097.94873,4119.487305,0,4,,,,0,4,0,0,4,2,11,0,0.754756,0.467773,0.334717,-0.31543,0.814466,-0.440436,-0.36817,-13.026806,-57.355293,40.481518,,,,,,,,,,,,,,,,,,,,,,,,,
1577376210,23,0,4112.820313,4874.871582,4339.487305,4109.743652,4088.205078,0,4,,,,0,4,0,0,4,2,,,,,,,,,,,,,17.676453,10.423192,6.850497,17.232725,123.232452,3.57017,3.498122,2.800055,5.194125,20.22687,3421.018555,1174.156372,454.999878,108.849846,162.579483,13.889791,8.485366,9.456611,12.917232,105.533096,506.005096,517.242859,484.882507,426.783203,1105.968384
1577376210,24,0,4148.717773,4899.487305,4341.538574,4122.563965,4017.94873,0,4,,,,0,4,0,0,4,2,12,0,0.754901,0.467529,0.334961,-0.315186,0.819837,-0.437507,-0.35938,-11.78394,-57.362038,40.38118,,,,,,,,,,,,,,,,,,,,,,,,,
1577376210,25,0,4151.282227,4881.538574,4360,4128.205078,4015.897461,0,4,,,,0,4,0,0,4,2,,,,,,,,,,,,,,,,,,,,,,,,,,,,,,,,,,,,,
1577376210,26,0,4100.512695,4857.94873,4370.256348,4093.333252,4087.692383,0,4,,,,0,4,0,0,4,2,13,0,0.755239,0.466797,0.335449,-0.314941,0.827649,-0.427253,-0.358404,-12.519638,-57.368111,40.410507,,,,,,,,,,,,,,,,,,,,,,,,,
1577376210,27,0,4122.563965,4897.436035,4369.743652,4098.974121,4169.230957,0,4,,,,0,4,0,0,4,2,,,,,,,,,,,,,,,,,,,,,,,,,,,,,,,,,,,,,
1577376210,28,0,4146.153809,4901.538574,4367.179688,4123.077148,4153.333496,0,4,,,,0,4,0,0,4,2,14,0,0.755534,0.466309,0.335693,-0.314697,0.823743,-0.407233,-0.356451,-13.241582,-57.253944,40.436901,,,,,,,,,,,,,,,,,,,,,,,,,
1577376211,29,0,4128.717773,4871.794922,4387.179688,4102.563965,4043.589844,0,4,,,,0,4,0,0,4,2,,,,,,,,,,,,,,,,,,,,,,,,,,,,,,,,,,,,,
1577376211,30,0,4152.820313,4878.974121,4394.358887,4114.358887,4005.128174,0,4,,,,0,4,0,0,4,2,15,0,0.755821,0.46582,0.336182,-0.314209,0.83888,-0.414557,-0.35108,-13.951146,-57.390453,40.580288,,,,,,,,,,,,,,,,,,,,,,,,,
1577376211,31,0,4163.077148,4889.743652,4369.230957,4125.128418,4084.615479,0,4,,,,0,4,0,0,4,2,,,,,,,,,,,,,,,,,,,,,,,,,,,,,,,,,,,,,
1577376211,32,0,4139.487305,4894.871582,4377.94873,4128.205078,4180,0,4,,,,0,4,0,0,4,2,16,0,0.756209,0.465332,0.33667,-0.313477,0.829602,-0.426764,-0.357427,-14.529939,-57.214237,40.649517,,,,,,,,,,,,,,,,,,,,,,,,,
1577376211,33,0,4131.282227,4901.538574,4385.641113,4136.410156,4177.94873,0,4,,,,0,4,0,0,4,2,,,,,,,,,,,,,,,,,,,,,,,,,,,,,,,,,,,,,
1577376211,34,0,4154.358887,4877.436035,4396.922852,4105.128418,4120.512695,0,4,,,,0,4,0,0,4,2,17,0,0.756595,0.464844,0.337158,-0.312744,0.837415,-0.409674,-0.349126,-13.256391,-57.055645,40.532383,,,,,,,,,,,,,,,,,,,,,,,,,
1577376211,35,0,4190.769043,4873.333496,4406.153809,4104.615234,4092.820557,0,4,,,,0,4,0,0,4,2,,,,,,,,,,,,,,,,,,,,,,,,,,,,,,,,,,,,,
1577376211,36,0,4178.974121,4914.358887,4359.487305,4115.897461,4032.820557,0,4,,,,0,4,0,0,4,2,18,0,0.757189,0.464355,0.337402,-0.311768,0.830579,-0.421393,-0.378424,-13.785028,-57.032539,40.307327,,,,,,,,,,,,,,,,,,,,,,,,,
1577376211,37,0,4149.230957,4909.743652,4357.94873,4092.820557,4047.692383,0,4,,,,0,4,0,0,4,2,,,,,,,,,,,,,,,,,,,,,,,,,,,,,,,,,,,,,
1577376211,38,0,4175.384766,4835.897461,4392.307617,4096.410156,4168.205078,0,4,,,,0,4,0,0,4,2,19,0,0.75768,0.463867,0.337646,-0.311035,0.828138,-0.423346,-0.355962,-12.526155,-57.191193,40.34404,,,,,,,,,,,,,,,,,,,,,,,,,
1577376211,39,0,4188.717773,4850.256348,4412.820313,4106.153809,4172.307617,0,4,,,,0,4,0,0,4,2,,,,,,,,,,,,,16.99202,10.641506,7.25064,17.4842,136.29921,4.246865,4.032643,3.038249,4.940531,22.346546,3956.573242,1388.428589,553.61969,138.228973,177.542679,12.132661,8.585655,10.133734,13.188385,117.488441,537.348938,562.508301,555.83844,471.845306,1276.923706
1577376211,40,0,4162.05127,4935.384766,4413.333496,4108.717773,4123.589844,0,4,,,,0,4,0,0,4,2,20,0,0.758121,0.463623,0.337891,-0.310059,0.827161,-0.421393,-0.363775,-11.452987,-57.034901,40.25745,,,,,,,,,,,,,,,,,,,,,,,,,
1577376211,41,0,4158.974121,4900,4360.512695,4104.615234,4095.384521,0,4,,,,0,4,0,0,4,2,,,,,,,,,,,,,,,,,,,,,,,,,,,,,,,,,,,,,
1577376211,42,0,4191.794922,4840.512695,4362.05127,4097.94873,4081.538574,0,4,,,,0,4,0,0,4,2,21,0,0.758709,0.463135,0.338135,-0.309082,0.830579,-0.429694,-0.372564,-12.22178,-56.954056,40.17952,,,,,,,,,,,,,,,,,,,,,,,,,
1577376211,43,0,4217.94873,4865.128418,4397.436035,4117.436035,4112.307617,0,4,,,,0,4,0,0,4,2,,,,,,,,,,,,,,,,,,,,,,,,,,,,,,,,,,,,,
1577376211,44,0,4186.153809,4909.230957,4395.384766,4110.769043,4134.358887,0,4,,,,0,4,0,0,4,2,22,0,0.758997,0.463135,0.338379,-0.308105,0.830091,-0.425788,-0.371588,-12.853878,-56.941109,36.221382,,,,,,,,,,,,,,,,,,,,,,,,,
1577376211,45,0,4153.846191,4932.307617,4403.077148,4099.487305,4181.025879,0,4,,,,0,4,0,0,4,2,,,,,,,,,,,,,,,,,,,,,,,,,,,,,,,,,,,,,
1577376211,46,0,4175.384766,4892.820313,4383.589844,4114.358887,4169.230957,0,4,,,,0,4,0,0,4,2,23,0,0.759433,0.462891,0.338623,-0.307129,0.834974,-0.429694,-0.367193,-13.482582,-56.809826,36.726505,,,,,,,,,,,,,,,,,,,,,,,,,
1577376211,47,0,4199.487305,4837.436035,4385.128418,4122.563965,4045.641113,0,4,,,,0,4,0,0,4,2,,,,,,,,,,,,,,,,,,,,,,,,,,,,,,,,,,,,,
1577376211,48,0,4201.538574,4863.077148,4403.077148,4122.563965,4029.230713,0,4,,,,0,4,0,0,4,2,24,0,0.759878,0.462646,0.338623,-0.306396,0.826673,-0.42237,-0.366217,-12.253954,-56.751488,37.1213,,,,,,,,,,,,,,,,,,,,,,,,,
1577376211,49,0,4175.897461,4892.307617,4382.05127,4102.05127,4123.589844,0,4,,,,0,4,0,0,4,2,,,,,,,,,,,,,,,,,,,,,,,,,,,,,,,,,,,,,
1577376211,50,0,4164.102539,4873.846191,4394.871582,4100,4209.230957,0,4,,,,0,4,0,0,4,2,25,0,0.760064,0.462646,0.338867,-0.305664,0.832532,-0.430671,-0.345708,-12.763205,-56.758801,37.416798,,,,,,,,,,,,,,,,,,,,,,,,,
1577376211,51,0,4187.179688,4888.717773,4398.974121,4113.333496,4187.692383,0,4,,,,0,4,0,0,4,2,,,,,,,,,,,,,,,,,,,,,,,,,,,,,,,,,,,,,
1577376211,52,0,4181.538574,4900.512695,4398.974121,4098.461426,4061.025635,0,4,,,,0,4,0,0,4,2,26,0,0.760358,0.462646,0.338867,-0.304932,0.829114,-0.430671,-0.358404,-13.400976,-56.825195,37.622932,,,,,,,,,,,,,,,,,,,,,,,,,
1577376211,53,0,4207.692383,4860.512695,4413.846191,4109.743652,4028.718018,0,4,,,,0,4,0,0,4,2,,,,,,,,,,,,,,,,,,,,,,,,,,,,,,,,,,,,,
1577376211,54,0,4231.282227,4868.205078,4387.179688,4109.743652,4114.358887,0,4,,,,0,4,0,0,4,2,27,0,0.7608,0.462402,0.338867,-0.304199,0.83595,-0.418952,-0.360357,-14.034785,-56.645691,37.928085,,,,,,,,,,,,,,,,,,,,,,,,,
1577376211,55,0,4174.871582,4928.717773,4392.307617,4078.461426,4171.282227,0,4,,,,0,4,0,0,4,2,,,,,,,,,,,,,16.603331,10.986206,6.99776,16.293571,133.020264,4.910895,4.247928,3.119796,4.473707,22.695145,4020.683838,1432.14978,586.407776,153.516541,170.340179,11.286768,8.372503,9.597192,12.116625,115.260696,498.232941,535.033508,560.006958,471.995026,1299.213623
1577376211,56,0,4167.179688,4896.922852,4411.282227,4090.256348,4165.128418,0,4,,,,0,4,0,0,4,2,28,0,0.760886,0.462402,0.339111,-0.303711,0.82179,-0.433112,-0.356939,-14.545399,-56.723396,38.023273,,,,,,,,,,,,,,,,,,,,,,,,,
1577376211,57,0,4209.230957,4856.410156,4422.563965,4111.794922,4126.153809,0,4,,,,0,4,0,0,4,2,,,,,,,,,,,,,,,,,,,,,,,,,,,,,,,,,,,,,
1577376211,58,0,4222.563965,4902.563965,4424.102539,4114.871582,4137.436035,0,4,,,,0,4,0,0,4,2,29,0,0.760874,0.462402,0.339355,-0.303467,0.817395,-0.435065,-0.35108,-15.124581,-56.793331,38.228577,,,,,,,,,,,,,,,,,,,,,,,,,
1577376211,59,0,4208.205078,4905.128418,4371.282227,4105.128418,4093.333252,0,4,,,,0,4,0,0,4,2,,,,,,,,,,,,,,,,,,,,,,,,,,,,,,,,,,,,,
1577376211,60,0,4201.538574,4853.846191,4372.307617,4104.615234,4027.179443,0,4,,,,0,4,0,0,4,2,30,0,0.760726,0.462646,0.339355,-0.303467,0.813977,-0.437995,-0.346685,-15.406584,-56.856274,38.353535,,,,,,,,,,,,,,,,,,,,,,,,,
1577376211,61,0,4241.025879,4851.794922,4406.153809,4132.307617,4096.410156,0,4,,,,0,4,0,0,4,2,,,,,,,,,,,,,,,,,,,,,,,,,,,,,,,,,,,,,
1577376211,62,0,4225.641113,4882.05127,4412.820313,4127.179688,4144.615234,0,4,,,,0,4,0,0,4,2,31,0,0.760617,0.462646,0.3396,-0.303467,0.829114,-0.43946,-0.347173,-15.780017,-56.972736,38.52581,,,,,,,,,,,,,,,,,,,,,,,,,
1577376211,63,0,4182.563965,4892.820313,4422.05127,4114.871582,4154.871582,0,4,,,,0,4,0,0,4,2,,,,,,,,,,,,,,,,,,,,,,,,,,,,,,,,,,,,,
1577376211,64,0,4221.025879,4910.769043,4389.230957,4135.384766,4130.769043,450,4,,,,0,4,0,0,4,2,32,0,0.76052,0.462646,0.3396,-0.303711,0.826185,-0.447761,-0.356451,-16.116108,-56.957924,38.680859,,,,,,,,,,,,,,,,,,,,,,,,,
1577376211,65,0,4255.897461,4924.102539,4382.05127,4149.230957,4030.769287,450,4,,,,0,4,0,0,4,2,,,,,,,,,,,,,,,,,,,,,,,,,,,,,,,,,,,,,
1577376211,66,0,4247.179688,4891.794922,4405.128418,4145.641113,4026.153809,16167,4,,,,0,4,0,0,4,2,33,0,0.760371,0.462891,0.3396,-0.303711,0.830579,-0.437018,-0.343755,-16.298958,-57.004406,38.760586,,,,,,,,,,,,,,,,,,,,,,,,,
1577376211,67,0,4217.436035,4881.538574,4400.512695,4125.641113,4103.589844,450,4,,,,0,4,0,0,4,2,,,,,,,,,,,,,,,,,,,,,,,,,,,,,,,,,,,,,
1577376211,68,0,4214.871582,4893.846191,4413.333496,4133.333496,4203.589844,0,4,,,,0,4,0,0,4,2,34,0,0.760371,0.462891,0.3396,-0.303711,0.826185,-0.426764,-0.351568,-16.702784,-57.106056,38.83234,,,,,,,,,,,,,,,,,,,,,,,,,
1577376211,69,0,4245.641113,4864.102539,4403.589844,4160.512695,4168.205078,450,4,,,,0,4,0,0,4,2,,,,,,,,,,,,,,,,,,,,,,,,,,,,,,,,,,,,,
1577376211,70,0,4224.102539,4864.102539,4404.102539,4141.025879,3982.05127,4,4,,,,0,4,0,0,4,2,35,0,0.760125,0.463135,0.3396,-0.303955,0.823255,-0.434089,-0.34815,-16.886782,-57.137726,38.77729,,,,,,,,,,,,,,,,,,,,,,,,,
1577376211,71,0,4226.666504,4908.205078,4417.436035,4125.641113,3970.769287,450,4,,,,0,4,0,0,4,2,,,,,,,,,,,,,16.393818,10.999929,6.150554,13.892101,114.621017,5.461706,4.092167,3.026175,3.892554,21.086321,3595.150879,1290.299194,541.928467,149.482315,143.597626,10.867908,7.728935,8.003743,10.016303,99.663849,402.849976,444.289246,496.494202,426.530487,1165.174683
1577376211,72,0,4244.102539,4913.846191,4390.769043,4134.358887,4095.897461,450,4,,,,0,4,0,0,4,2,36,0,0.760222,0.463135,0.3396,-0.303711,0.843275,-0.425299,-0.354009,-17.112196,-57.166229,38.847378,,,,,,,,,,,,,,,,,,,,,,,,,
1577376211,73,0,4215.897461,4906.153809,4401.025879,4149.230957,4188.205078,16175,4,,,,0,4,0,0,4,2,,,,,,,,,,,,,,,,,,,,,,,,,,,,,,,,,,,,,
1577376211,74,0,4227.179688,4893.333496,4415.384766,4169.230957,4143.589844,450,4,,,,0,4,0,0,4,2,37,0,0.760371,0.462891,0.3396,-0.303711,0.826185,-0.426764,-0.351568,-17.255253,-57.371326,38.970268,,,,,,,,,,,,,,,,,,,,,,,,,
1577376211,75,0,4235.897461,4865.128418,4421.025879,4164.102539,4006.153809,110,4,,,,0,4,0,0,4,1,,,,,,,,,,,,,,,,,,,,,,,,,,,,,,,,,,,,,
1577376211,76,0,4244.615234,4853.846191,4424.102539,4171.282227,4016.923096,450,4,,,,0,4,0,0,4,1,38,0,0.760222,0.463135,0.3396,-0.303711,0.843275,-0.425299,-0.354009,-17.443819,-57.376469,39.021057,,,,,,,,,,,,,,,,,,,,,,,,,
1577376211,77,0,4256.410156,4877.436035,4383.589844,4182.563965,4095.384521,450,4,,,,0,4,0,0,4,1,,,,,,,,,,,,,,,,,,,,,,,,,,,,,,,,,,,,,
1577376211,78,0,4218.461426,4918.974121,4388.717773,4169.743652,4074.358887,450,4,,,,0,4,0,0,4,1,39,0,0.760222,0.463135,0.3396,-0.303711,0.823743,-0.415045,-0.350103,-17.553713,-57.500729,39.126579,,,,,,,,,,,,,,,,,,,,,,,,,
1577376211,79,0,4213.333496,4903.077148,4412.820313,4172.820313,4086.666748,110,4,,,,0,4,0,0,4,1,,,,,,,,,,,,,,,,,,,,,,,,,,,,,,,,,,,,,
1577376211,80,0,4215.384766,4880,4425.641113,4179.487305,4134.871582,450,4,,,,0,4,0,0,4,1,40,0,0.760468,0.462891,0.3396,-0.303467,0.818372,-0.427253,-0.342779,-17.772249,-57.492931,39.22155,,,,,,,,,,,,,,,,,,,,,,,,,
1577376211,81,0,4217.436035,4896.410156,4421.025879,4198.461426,4165.641113,450,4,,,,0,4,0,0,4,1,,,,,,,,,,,,,,,,,,,,,,,,,,,,,,,,,,,,,
1577376211,82,0,4226.153809,4866.153809,4370.769043,4204.102539,4091.281982,450,4,,,,0,4,0,0,4,1,41,0,0.760457,0.462891,0.339844,-0.303223,0.826185,-0.443366,-0.339849,-17.909117,-57.485912,39.247211,,,,,,,,,,,,,,,,,,,,,,,,,
1577376211,83,0,4209.743652,4860.512695,4389.743652,4175.897461,4007.692383,110,4,,,,0,4,0,0,4,1,,,,,,,,,,,,,,,,,,,,,,,,,,,,,,,,,,,,,
1577376211,84,0,4238.974121,4908.205078,4419.487305,4194.871582,4044.615479,450,4,,,,0,4,0,0,4,1,42,0,0.760605,0.462646,0.339844,-0.303223,0.816419,-0.446296,-0.353033,-18.092112,-57.479595,39.389935,,,,,,,,,,,,,,,,,,,,,,,,,
1577376211,85,0,4229.230957,4896.410156,4394.871582,4214.358887,4093.333252,450,4,,,,0,4,0,0,4,1,,,,,,,,,,,,,,,,,,,,,,,,,,,,,,,,,,,,,
1577376211,86,0,4169.743652,4867.179688,4381.538574,4190.769043,4164.615234,450,4,,,,0,4,0,0,4,1,43,0,0.760593,0.462646,0.340088,-0.302979,0.822278,-0.438483,-0.354986,-18.196991,-57.593544,39.458569,,,,,,,,,,,,,,,,,,,,,,,,,
1577376211,87,0,4189.230957,4891.794922,4366.666504,4189.230957,4151.282227,110,4,,,,0,4,0,0,4,1,,,,,,,,,,,,,15.588853,10.347887,4.998198,10.833152,86.939911,5.759396,3.653934,2.780828,3.328136,18.048862,2815.760986,1009.39624,434.674805,127.272804,105.990906,10.386896,6.64219,5.867139,7.472353,75.604263,282.607208,319.83371,385.982635,349.850891,916.860413
1577376211,88,0,4232.820313,4903.589844,4410.769043,4207.179688,4003.589844,450,4,,,,0,4,0,0,4,1,44,0,0.760633,0.462402,0.340332,-0.302979,0.83595,-0.451667,-0.346197,-16.556738,-57.516647,39.580158,,,,,,,,,,,,,,,,,,,,,,,,,
1577376211,89,0,4242.05127,4866.666504,4423.589844,4226.666504,4002.05127,450,4,,,,0,4,0,0,4,1,,,,,,,,,,,,,,,,,,,,,,,,,,,,,,,,,,,,,
1577376211,90,0,4205.128418,4860.512695,4363.077148,4209.743652,4104.102539,450,4,,,,0,4,0,0,4,1,45,0,0.760769,0.462158,0.340576,-0.302734,0.829114,-0.437018,-0.348638,-16.815157,-57.626888,39.510139,,,,,,,,,,,,,,,,,,,,,,,,,
1577376211,91,0,4177.436035,4890.769043,4370.256348,4193.333496,4182.563965,110,4,,,,0,4,0,0,4,1,,,,,,,,,,,,,,,,,,,,,,,,,,,,,,,,,,,,,
1577376211,92,0,4194.358887,4882.05127,4391.794922,4221.025879,4157.94873,450,4,,,,0,4,0,0,4,1,46,0,0.760672,0.462158,0.340576,-0.302979,0.823743,-0.437507,-0.354986,-16.928102,-57.606476,39.566757,,,,,,,,,,,,,,,,,,,,,,,,,
1577376211,93,0,4190.256348,4877.94873,4407.179688,4210.256348,4068.205078,450,4,,,,0,4,0,0,4,1,,,,,,,,,,,,,,,,,,,,,,,,,,,,,,,,,,,,,
1577376211,94,0,4201.538574,4910.769043,4362.563965,4205.641113,4054.358887,450,4,,,,0,4,0,0,4,1,47,0,0.76082,0.461914,0.340576,-0.302979,0.819348,-0.437995,-0.347662,-17.149384,-57.707733,39.677525,,,,,,,,,,,,,,,,,,,,,,,,,
1577376211,95,0,4202.563965,4900.512695,4321.538574,4220,4059.487061,110,4,,,,0,4,0,0,4,1,,,,,,,,,,,,,,,,,,,,,,,,,,,,,,,,,,,,,
1577376211,96,0,4168.717773,4834.358887,4429.230957,4202.05127,4076.923096,450,4,,,,0,4,0,0,4,1,48,0,0.760929,0.461914,0.340332,-0.302979,0.819837,-0.441413,-0.353033,-17.288721,-57.679234,39.537956,,,,,,,,,,,,,,,,,,,,,,,,,
1577376211,97,0,4182.563965,4829.230957,4460.512695,4206.666504,4148.717773,450,4,,,,0,4,0,0,4,1,,,,,,,,,,,,,,,,,,,,,,,,,,,,,,,,,,,,,
1577376211,98,0,4198.461426,4897.94873,4371.794922,4196.410156,4155.384766,450,4,,,,0,4,0,0,4,1,49,0,0.760929,0.461914,0.340332,-0.302979,0.828626,-0.443854,-0.354009,-17.414125,-57.593773,35.643974,,,,,,,,,,,,,,,,,,,,,,,,,
1577376211,99,1,4203.397461,4894.422852,4377.179688,4197.5,4142.756348,450,4,,,,0,4,0,0,4,1,,,,,,,,,,,,,,,,,,,,,,,,,,,,,,,,,,,,,
1577376211,100,1,4208.333496,4890.897461,4382.563965,4198.589844,4130.128418,450,4,,,,0,4,0,0,4,1,50,1,0,0.461792,0.340454,-0.303101,0.829602,-0.440192,0,0,0,0,,,,,,,,,,,,,,,,,,,,,,,,,
1577376211,101,1,4213.269043,4887.371582,4387.94873,4199.679688,4117.5,450,4,,,,0,4,0,0,4,1,,,,,,,,,,,,,,,,,,,,,,,,,,,,,,,,,,,,,
1577376211,102,1,4218.205078,4883.846191,4393.333496,4200.769043,4104.871582,450,4,,,,0,4,0,0,4,1,51,1,0,0.46167,0.340576,-0.303223,0.830579,-0.43653,0,0,0,0,,,,,,,,,,,,,,,,,,,,,,,,,
1577376211,103,1,4223.141113,4880.320313,4398.717773,4201.858887,4092.243652,450,4,,,,0,4,0,0,4,1,,,,,,,,,,,,,13.606869,8.952832,3.881544,7.834828,57.791096,5.681517,3.084151,2.446498,2.914222,14.534719,1911.266113,675.82666,298.399933,93.99044,68.242279,9.306283,5.262486,3.793992,5.089784,49.862251,170.808594,197.075806,260.762726,263.402863,626.461365
1577376211,104,1,4228.077148,4876.794922,4404.102539,4202.94873,4079.615479,450,4,,,,0,4,0,0,4,1,52,1,0,0.461548,0.340698,-0.303345,0.831556,-0.432868,0,0,0,0,,,,,,,,,,,,,,,,,,,,,,,,,
1577376211,105,1,4233.012695,4873.269043,4409.487305,4204.038574,4066.987061,450,4,,,,0,4,0,0,4,1,,,,,,,,,,,,,,,,,,,,,,,,,,,,,,,,,,,,,
1577376211,106,0,4237.94873,4869.743652,4414.871582,4205.128418,4054.358887,450,4,,,,0,4,0,0,4,1,53,0,0.760813,0.461426,0.34082,-0.303467,0.832532,-0.429206,-0.36231,-15.732529,-57.576668,36.087208,,,,,,,,,,,,,,,,,,,,,,,,,
1577376211,107,0,4246.153809,4910.256348,4424.102539,4206.153809,4073.333252,110,4,,,,0,4,0,0,4,1,,,,,,,,,,,,,,,,,,,,,,,,,,,,,,,,,,,,,
1577376211,108,0,4251.794922,4884.102539,4352.307617,4191.282227,4115.384766,450,4,,,,0,4,0,0,4,1,54,0,0.760863,0.461182,0.34082,-0.303711,0.817395,-0.445808,-0.353033,-16.133183,-57.561279,36.486118,,,,,,,,,,,,,,,,,,,,,,,,,
1577376211,109,0,4262.05127,4835.897461,4392.820313,4185.641113,4181.538574,450,4,,,,0,4,0,0,4,1,,,,,,,,,,,,,,,,,,,,,,,,,,,,,,,,,,,,,
1577376211,110,0,4276.410156,4855.384766,4402.05127,4209.743652,4203.589844,450,4,,,,0,4,0,0,4,1,55,0,0.760656,0.461182,0.341064,-0.303955,0.836927,-0.420905,-0.349615,-16.433956,-57.726871,36.845135,,,,,,,,,,,,,,,,,,,,,,,,,
1577376211,111,0,4264.615234,4923.077148,4385.641113,4185.641113,4107.692383,110,4,,,,0,4,0,0,4,1,,,,,,,,,,,,,,,,,,,,,,,,,,,,,,,,,,,,,
1577376211,112,0,4292.307617,4918.974121,4396.922852,4200,4063.076904,450,4,,,,0,4,0,0,4,1,56,0,0.760695,0.460938,0.341309,-0.303955,0.834974,-0.422858,-0.360357,-16.824284,-57.636642,37.168251,,,,,,,,,,,,,,,,,,,,,,,,,
1577376211,113,0,4328.717773,4861.025879,4357.94873,4226.666504,4113.333496,450,4,,,,0,4,0,0,4,1,,,,,,,,,,,,,,,,,,,,,,,,,,,,,,,,,,,,,
1577376211,114,0,4297.94873,4867.179688,4365.641113,4184.615234,4197.94873,450,4,,,,0,4,0,0,4,1,57,0,0.760733,0.460693,0.341553,-0.303955,0.82179,-0.438483,-0.357916,-17.055946,-57.675068,37.399239,,,,,,,,,,,,,,,,,,,,,,,,,
1577376211,115,0,4291.282227,4896.410156,4392.820313,4171.794922,4218.974121,110,4,,,,0,4,0,0,4,1,,,,,,,,,,,,,,,,,,,,,,,,,,,,,,,,,,,,,
1577376211,116,0,4329.743652,4917.436035,4407.692383,4185.128418,4157.94873,450,4,,,,0,4,0,0,4,1,58,0,0.760623,0.460693,0.341797,-0.303955,0.81593,-0.441413,-0.36524,-17.384073,-57.590023,37.607128,,,,,,,,,,,,,,,,,,,,,,,,,
1577376211,117,0,4357.436035,4903.077148,4409.230957,4197.436035,4138.461426,450,4,,,,0,4,0,0,4,1,,,,,,,,,,,,,,,,,,,,,,,,,,,,,,,,,,,,,
1577376211,118,0,4344.615234,4861.025879,4353.333496,4190.769043,4113.333496,450,4,,,,0,4,0,0,4,1,59,0,0.760771,0.460449,0.341797,-0.303955,0.833997,-0.423346,-0.360357,-17.440128,-57.513481,37.854046,,,,,,,,,,,,,,,,,,,,,,,,,
1577376211,119,0,4320.512695,4897.436035,4356.922852,4171.282227,4108.717773,110,4,,,,0,4,0,0,4,1,,,,,,,,,,,,,10.566911,7.035508,3.006871,5.469895,33.670193,5.1669,2.532825,2.116351,2.752719,11.457579,1103.79895,377.313049,170.633545,59.272484,38.494625,7.533141,3.869987,2.222943,3.252894,28.244308,89.007256,102.614975,151.433411,187.684326,365.589569
1577376211,120,0,4342.05127,4917.436035,4394.871582,4195.897461,4176.922852,450,4,,,,0,4,0,0,4,1,60,0,0.760809,0.460205,0.342041,-0.303955,0.833509,-0.429694,-0.347173,-17.550392,-57.444592,38.016457,,,,,,,,,,,,,,,,,,,,,,,,,
1577376211,121,0,4343.589844,4869.230957,4399.487305,4203.589844,4178.461426,450,4,,,,0,4,0,0,4,1,,,,,,,,,,,,,,,,,,,,,,,,,,,,,,,,,,,,,
1577376211,122,0,4316.922852,4885.128418,4405.641113,4179.487305,4178.974121,450,4,,,,0,4,0,0,4,1,61,0,0.760859,0.459961,0.342041,-0.304199,0.819348,-0.425788,-0.353521,-17.709444,-57.502224,38.342072,,,,,,,,,,,,,,,,,,,,,,,,,
1577376211,123,0,4340,4925.641113,4369.230957,4167.179688,4175.897461,110,4,,,,0,4,0,0,4,1,,,,,,,,,,,,,,,,,,,,,,,,,,,,,,,,,,,,,
1577376211,124,0,4372.307617,4907.179688,4367.179688,4157.94873,4116.410156,450,4,,,,0,4,0,0,4,1,62,0,0.760897,0.459717,0.342285,-0.304199,0.827161,-0.432135,-0.349615,-17.792776,-57.554092,38.515491,,,,,,,,,,,,,,,,,,,,,,,,,
1577376211,125,0,4391.794922,4885.128418,4393.846191,4175.384766,4112.820313,450,4,,,,0,4,0,0,4,1,,,,,,,,,,,,,,,,,,,,,,,,,,,,,,,,,,,,,
1577376211,126,0,4375.897461,4870.256348,4378.461426,4189.230957,4160,450,4,,,,0,4,0,0,4,1,63,0,0.760947,0.459473,0.342285,-0.304443,0.820813,-0.431159,-0.354009,-17.867775,-57.600773,38.671574,,,,,,,,,,,,,,,,,,,,,,,,,
1577376211,127,0,4344.102539,4878.974121,4390.256348,4196.410156,4239.487305,239,4,,,,0,4,0,0,4,1,,,,,,,,,,,,,,,,,,,,,,,,,,,,,,,,,,,,,
1577376211,0,0,4361.538574,4913.333496,4396.410156,4209.230957,4234.871582,450,4,,,,0,4,0,0,4,1,0,0,0.760947,0.459473,0.342285,-0.304443,0.825696,-0.434577,-0.349615,-18.054905,-57.642784,38.752232,,,,,,,,,,,,,,,,,,,,,,,,,
1577376211,1,0,4379.487305,4902.05127,4408.205078,4185.128418,4097.436035,450,4,,,,0,4,0,0,4,1,,,,,,,,,,,,,,,,,,,,,,,,,,,,,,,,,,,,,
1577376211,2,0,4383.589844,4886.666504,4409.743652,4173.846191,4060,16144,4,,,,0,4,0,0,4,1,1,0,0.760996,0.459229,0.342285,-0.304688,0.825208,-0.435065,-0.358404,-18.163506,-57.560966,38.824821,,,,,,,,,,,,,,,,,,,,,,,,,
1577376211,3,0,4372.820313,4912.307617,4362.563965,4164.615234,4165.128418,450,4,,,,0,4,0,0,4,1,,,,,,,,,,,,,,,,,,,,,,,,,,,,,,,,,,,,,
1577376211,4,0,4350.769043,4909.230957,4370.769043,4147.692383,4280.512695,0,4,,,,0,4,0,0,4,1,2,0,0.760947,0.459473,0.342285,-0.304443,0.820813,-0.431159,-0.354009,-18.380877,-57.487331,38.890152,,,,,,,,,,,,,,,,,,,,,,,,,
1577376211,5,0,4358.461426,4872.307617,4395.897461,4166.666504,4226.153809,450,4,,,,0,4,0,0,4,1,,,,,,,,,,,,,,,,,,,,,,,,,,,,,,,,,,,,,
1577376211,6,0,4358.974121,4865.128418,4409.230957,4183.589844,4088.718018,1,4,,,,0,4,0,0,4,1,3,0,0.760996,0.459229,0.342285,-0.304688,0.825208,-0.435065,-0.358404,-18.456881,-57.421059,38.948952,,,,,,,,,,,,,,,,,,,,,,,,,
1577376211,7,0,4385.641113,4886.153809,4411.794922,4195.384766,4115.384766,450,4,,,,0,4,0,0,4,1,,,,,,,,,,,,,7.265098,4.922104,2.371025,3.945927,17.527208,4.269678,2.095203,1.868773,2.892411,9.293144,526.69989,168.152557,77.482857,31.299938,19.691998,5.579866,2.72371,1.277863,2.048295,13.578609,41.235535,45.257309,75.014236,133.874985,178.381821
1577376211,8,0,4415.384766,4902.563965,4365.128418,4196.922852,4150.769043,450,4,,,,0,4,0,0,4,1,4,0,0.761144,0.458984,0.342285,-0.304688,0.822766,-0.429206,-0.359869,-18.465469,-57.361412,38.942055,,,,,,,,,,,,,,,,,,,,,,,,,
1577376211,9,0,4375.384766,4915.384766,4371.282227,4186.153809,4109.230957,16153,4,,,,0,4,0,0,4,1,,,,,,,,,,,,,,,,,,,,,,,,,,,,,,,,,,,,,
1577376211,10,0,4364.102539,4888.717773,4399.487305,4188.717773,4176.410156,450,4,,,,0,4,0,0,4,1,5,0,0.761193,0.45874,0.342285,-0.304932,0.827649,-0.432624,-0.365728,-18.652645,-57.367546,39.055481,,,,,,,,,,,,,,,,,,,,,,,,,
1577376211,11,0,4391.282227,4864.102539,4405.128418,4198.461426,4220,128,4,,,,0,4,0,0,4,1,,,,,,,,,,,,,,,,,,,,,,,,,,,,,,,,,,,,,
1577376211,12,0,4391.794922,4853.846191,4413.333496,4221.025879,4191.282227,450,4,,,,0,4,0,0,4,1,6,0,0.76134,0.458496,0.342285,-0.304932,0.828626,-0.427741,-0.357427,-16.907011,-57.373066,39.157562,,,,,,,,,,,,,,,,,,,,,,,,,
1577376211,13,0,4370.256348,4860,4374.358887,4216.410156,4150.769043,450,4,,,,0,4,0,0,4,1,,,,,,,,,,,,,,,,,,,,,,,,,,,,,,,,,,,,,
1577376211,14,0,4365.128418,4913.333496,4370.769043,4200,4102.563965,450,4,,,,0,4,0,0,4,1,7,0,0.761352,0.458496,0.342041,-0.305176,0.827161,-0.429206,-0.354009,-17.070587,-57.437851,39.189621,,,,,,,,,,,,,,,,,,,,,,,,,
1577376211,15,0,4396.922852,4916.922852,4398.974121,4222.563965,4114.358887,128,4,,,,0,4,0,0,4,1,,,,,,,,,,,,,,,,,,,,,,,,,,,,,,,,,,,,,
1577376211,16,0,4351.282227,4873.846191,4397.94873,4207.179688,4151.282227,0,4,,,,0,4,0,0,4,1,8,0,0.761499,0.458252,0.342041,-0.305176,0.828138,-0.421393,-0.35938,-17.457066,-57.615788,39.218472,,,,,,,,,,,,,,,,,,,,,,,,,
1577376211,17,0,4284.102539,4874.358887,4405.641113,4171.794922,4207.692383,0,4,,,,0,4,0,0,4,1,,,,,,,,,,,,,,,,,,,,,,,,,,,,,,,,,,,,,
1577376211,18,0,4333.846191,4889.743652,4390.256348,4198.974121,4195.384766,0,4,,,,0,4,0,0,4,1,9,0,0.761646,0.458008,0.342041,-0.305176,0.825696,-0.41944,-0.368658,-17.62545,-57.656296,39.184624,,,,,,,,,,,,,,,,,,,,,,,,,
1577376211,19,0,4386.153809,4885.128418,4403.589844,4235.897461,4070.256348,0,4,,,,0,4,0,0,4,1,,,,,,,,,,,,,,,,,,,,,,,,,,,,,,,,,,,,,
1577376211,20,0,4393.846191,4883.077148,4422.05127,4239.487305,4047.692383,0,4,,,,0,4,0,0,4,1,10,0,0.761793,0.457764,0.342041,-0.305176,0.836439,-0.411139,-0.356451,-17.776997,-57.573128,39.273788,,,,,,,,,,,,,,,,,,,,,,,,,
1577376211,21,0,4382.05127,4896.922852,4381.025879,4221.025879,4109.743652,0,4,,,,0,4,0,0,4,1,,,,,,,,,,,,,,,,,,,,,,,,,,,,,,,,,,,,,
1577376211,22,0,4355.897461,4912.820313,4378.461426,4227.692383,4217.436035,0,4,,,,0,4,0,0,4,1,11,0,0.761939,0.45752,0.342041,-0.305176,0.833021,-0.427741,-0.365728,-17.913389,-57.55809,39.354042,,,,,,,,,,,,,,,,,,,,,,,,,
1577376211,23,0,4352.820313,4903.589844,4398.461426,4246.153809,4219.487305,0,4,,,,0,4,0,0,4,1,,,,,,,,,,,,,4.558591,3.065688,1.857183,3.188372,8.73059,3.154448,1.779523,1.739425,3.317608,8.020744,196.017838,55.378685,25.543913,13.845941,10.044843,3.846971,1.983135,0.816416,1.372943,5.537612,17.830067,18.152346,32.092777,102.499931,71.884216
1577376211,24,0,4353.333496,4867.179688,4422.05127,4231.282227,4074.358887,0,4,,,,0,4,0,0,4,1,12,0,0.762074,0.457275,0.342285,-0.304932,0.828138,-0.420905,-0.375006,-18.155773,-57.60437,39.426266,,,,,,,,,,,,,,,,,,,,,,,,,
1577376211,25,0,4389.743652,4870.769043,4423.077148,4237.94873,4060.512939,0,4,,,,0,4,0,0,4,1,,,,,,,,,,,,,,,,,,,,,,,,,,,,,,,,,,,,,
1577376211,26,0,4385.128418,4894.871582,4370.769043,4246.153809,4111.282227,0,4,,,,0,4,0,0,4,1,13,0,0.762318,0.457031,0.342285,-0.304688,0.820325,-0.435065,-0.36231,-18.433733,-57.526394,39.551083,,,,,,,,,,,,,,,,,,,,,,,,,
1577376211,27,0,4308.205078,4891.282227,4382.05127,4228.205078,4112.820313,0,4,,,,0,4,0,0,4,1,,,,,,,,,,,,,,,,,,,,,,,,,,,,,,,,,,,,,
1577376211,28,0,4315.897461,4893.333496,4411.794922,4231.794922,4142.05127,0,4,,,,0,4,0,0,4,1,14,0,0.762562,0.456787,0.342285,-0.304443,0.822766,-0.434089,-0.367681,-18.624083,-57.516029,39.543789,,,,,,,,,,,,,,,,,,,,,,,,,
1577376212,29,0,4337.94873,4914.358887,4411.794922,4226.153809,4147.179688,0,4,,,,0,4,0,0,4,1,,,,,,,,,,,,,,,,,,,,,,,,,,,,,,,,,,,,,
1577376212,30,0,4325.641113,4909.743652,4409.230957,4227.692383,4148.205078,0,4,,,,0,4,0,0,4,1,15,0,0.762708,0.456543,0.342285,-0.304443,0.839368,-0.43653,-0.375006,-18.675766,-57.506702,39.477409,,,,,,,,,,,,,,,,,,,,,,,,,
1577376212,31,0,4334.871582,4886.666504,4378.461426,4244.102539,4121.538574,0,4,,,,0,4,0,0,4,1,,,,,,,,,,,,,,,,,,,,,,,,,,,,,,,,,,,,,
1577376212,32,0,4341.025879,4905.128418,4389.743652,4246.153809,4046.153809,0,4,,,,0,4,0,0,4,1,16,0,0.762952,0.456299,0.342285,-0.304199,0.826185,-0.435554,-0.373541,-18.662466,-57.558121,39.5373,,,,,,,,,,,,,,,,,,,,,,,,,
1577376212,33,0,4364.615234,4903.077148,4405.641113,4260.512695,4086.153809,0,4,,,,0,4,0,0,4,1,,,,,,,,,,,,,,,,,,,,,,,,,,,,,,,,,,,,,
1577376212,34,0,4332.820313,4859.487305,4395.897461,4250.256348,4166.153809,0,4,,,,0,4,0,0,4,1,17,0,0.763085,0.456055,0.342529,-0.303955,0.826185,-0.428229,-0.361822,-18.650496,-57.604401,39.411751,,,,,,,,,,,,,,,,,,,,,,,,,
1577376212,35,0,4277.94873,4880,4398.974121,4236.410156,4196.922852,0,4,,,,0,4,0,0,4,1,,,,,,,,,,,,,,,,,,,,,,,,,,,,,,,,,,,,,
1577376212,36,0,4300.512695,4908.717773,4381.025879,4267.692383,4132.820313,0,4,,,,0,4,0,0,4,1,18,0,0.763231,0.455811,0.342529,-0.303955,0.820813,-0.431159,-0.361822,-18.759354,-57.646049,39.478207,,,,,,,,,,,,,,,,,,,,,,,,,
1577376212,37,0,4317.436035,4862.05127,4404.615234,4286.153809,4032.820557,0,4,,,,0,4,0,0,4,1,,,,,,,,,,,,,,,,,,,,,,,,,,,,,,,,,,,,,
1577376212,38,0,4296.922852,4830.769043,4388.205078,4276.410156,4047.179443,0,4,,,,0,4,0,0,4,1,19,0,0.763328,0.455811,0.342529,-0.303711,0.830579,-0.436042,-0.372076,-17.003048,-57.683537,39.478199,,,,,,,,,,,,,,,,,,,,,,,,,
1577376212,39,0,4243.589844,4905.641113,4357.436035,4243.077148,4089.743652,0,4,,,,0,4,0,0,4,1,,,,,,,,,,,,,2.632457,1.833469,1.390684,2.969128,4.899041,2.049622,1.530125,1.691131,3.965749,7.322578,50.390434,11.627085,5.259637,5.927412,5.987023,2.611389,1.641966,0.645488,1.069167,2.134421,7.501081,8.239642,13.392282,87.686104,27.35927
1577376212,40,0,4214.358887,4929.230957,4421.538574,4226.666504,4166.666504,0,4,,,,0,4,0,0,4,1,20,0,0.763474,0.455566,0.342529,-0.303711,0.823743,-0.418952,-0.356451,-17.157021,-57.896721,39.597824,,,,,,,,,,,,,,,,,,,,,,,,,
1577376212,41,0,4246.153809,4846.666504,4418.974121,4249.230957,4178.461426,0,4,,,,0,4,0,0,4,1,,,,,,,,,,,,,,,,,,,,,,,,,,,,,,,,,,,,,
1577376212,42,0,4248.205078,4875.384766,4378.974121,4246.153809,4057.435791,0,4,,,,0,4,0,0,4,1,21,0,0.763571,0.455566,0.342529,-0.303467,0.830091,-0.424811,-0.363775,-17.534855,-57.968952,39.705486,,,,,,,,,,,,,,,,,,,,,,,,,
1577376212,43,0,4255.897461,4934.871582,4343.589844,4257.94873,4020.512939,0,4,,,,0,4,0,0,4,1,,,,,,,,,,,,,,,,,,,,,,,,,,,,,,,,,,,,,
1577376212,44,0,4265.128418,4872.307617,4343.077148,4277.94873,4058.974365,0,4,,,,0,4,0,0,4,1,22,0,0.763778,0.455566,0.342285,-0.303223,0.834485,-0.430671,-0.356451,-15.841186,-57.974148,39.742569,,,,,,,,,,,,,,,,,,,,,,,,,
1577376212,45,0,4237.94873,4864.615234,4440.512695,4265.128418,4152.820313,0,4,,,,0,4,0,0,4,1,,,,,,,,,,,,,,,,,,,,,,,,,,,,,,,,,,,,,
1577376212,46,0,4250.256348,4914.871582,4442.05127,4280.512695,4197.436035,0,4,,,,0,4,0,0,4,1,23,0,0.763874,0.455566,0.342285,-0.302979,0.821302,-0.427253,-0.359869,-16.111343,-57.978825,39.716125,,,,,,,,,,,,,,,,,,,,,,,,,
1577376212,47,0,4278.974121,4906.153809,4363.077148,4278.461426,4119.487305,0,4,,,,0,4,0,0,4,1,,,,,,,,,,,,,,,,,,,,,,,,,,,,,,,,,,,,,
1577376212,48,0,4293.846191,4896.922852,4315.384766,4262.563965,4097.436035,0,4,,,,0,4,0,0,4,1,24,0,0.764117,0.455322,0.342285,-0.302734,0.823743,-0.431647,-0.375494,-16.474115,-57.8634,39.632511,,,,,,,,,,,,,,,,,,,,,,,,,
1577376212,49,0,4273.333496,4887.179688,4318.461426,4258.974121,4114.871582,0,4,,,,0,4,0,0,4,1,,,,,,,,,,,,,,,,,,,,,,,,,,,,,,,,,,,,,
1577376212,50,0,4217.436035,4877.94873,4421.538574,4240,4083.076904,0,4,,,,0,4,0,0,4,1,25,0,0.764104,0.455322,0.342529,-0.30249,0.816907,-0.437507,-0.360357,-16.680981,-57.938969,39.676891,,,,,,,,,,,,,,,,,,,,,,,,,
1577376212,51,0,4209.230957,4887.692383,4452.820313,4251.282227,4107.179688,0,4,,,,0,4,0,0,4,1,,,,,,,,,,,,,,,,,,,,,,,,,,,,,,,,,,,,,
1577376212,52,0,4203.589844,4877.436035,4369.230957,4250.256348,4148.717773,0,4,,,,0,4,0,0,4,1,26,0,0.764188,0.455322,0.342773,-0.302002,0.846693,-0.431159,-0.375494,-16.926975,-57.887344,39.776646,,,,,,,,,,,,,,,,,,,,,,,,,
1577376212,53,0,4181.538574,4856.922852,4306.666504,4238.974121,4173.846191,0,4,,,,0,4,0,0,4,1,,,,,,,,,,,,,,,,,,,,,,,,,,,,,,,,,,,,,
1577376212,54,0,4182.563965,4870.256348,4319.487305,4241.025879,4114.871582,0,4,,,,0,4,0,0,4,1,27,0,0.764416,0.455078,0.343018,-0.301514,0.836927,-0.417975,-0.364263,-15.294092,-57.960518,39.80661,,,,,,,,,,,,,,,,,,,,,,,,,
1577376212,55,0,4196.922852,4896.410156,4429.743652,4229.743652,4050.256348,0,4,,,,0,4,0,0,4,1,,,,,,,,,,,,,1.631249,1.339776,1.030627,3.09123,3.753852,1.174711,1.299167,1.650282,4.701514,6.843092,7.392499,1.388906,1.11936,3.795269,4.813967,1.92262,1.58411,0.630397,1.024288,1.292583,4.031765,5.912422,8.291924,81.764839,17.773878
1577376212,56,0,4220,4896.922852,4437.94873,4253.333496,4093.846191,0,4,,,,0,4,0,0,4,1,28,0,0.764499,0.455078,0.343262,-0.301025,0.835462,-0.420417,-0.35938,-15.678775,-57.966557,39.654133,,,,,,,,,,,,,,,,,,,,,,,,,
1577376212,57,0,4212.307617,4920.512695,4349.743652,4248.717773,4112.820313,0,4,,,,0,4,0,0,4,1,,,,,,,,,,,,,,,,,,,,,,,,,,,,,,,,,,,,,
1577376212,58,0,4197.436035,4902.563965,4355.897461,4221.025879,4155.897461,0,4,,,,0,4,0,0,4,1,29,0,0.764595,0.455078,0.343262,-0.300781,0.828138,-0.434089,-0.355962,-16.144619,-58.031807,39.756165,,,,,,,,,,,,,,,,,,,,,,,,,
1577376212,59,0,4209.230957,4849.230957,4367.692383,4239.487305,4188.717773,0,4,,,,0,4,0,0,4,1,,,,,,,,,,,,,,,,,,,,,,,,,,,,,,,,,,,,,
1577376212,60,0,4209.230957,4882.05127,4402.563965,4228.205078,4099.487305,0,4,,,,0,4,0,0,4,1,30,0,0.764416,0.455078,0.343018,-0.301514,0.836927,-0.417975,-0.364263,-16.504065,-57.970901,39.847992,,,,,,,,,,,,,,,,,,,,,,,,,
1577376212,61,0,4204.615234,4902.563965,4411.794922,4216.410156,4054.358887,0,4,,,,0,4,0,0,4,1,,,,,,,,,,,,,,,,,,,,,,,,,,,,,,,,,,,,,
1577376212,62,0,4199.487305,4888.717773,4357.436035,4214.871582,4094.871826,0,4,,,,0,4,0,0,4,1,31,0,0.764595,0.455078,0.343262,-0.300781,0.828138,-0.434089,-0.355962,-16.887381,-58.035717,39.930637,,,,,,,,,,,,,,,,,,,,,,,,,
1577376212,63,0,4193.846191,4921.538574,4382.05127,4210.769043,4188.205078,0,4,,,,0,4,0,0,4,1,,,,,,,,,,,,,,,,,,,,,,,,,,,,,,,,,,,,,
1577376212,64,0,4207.179688,4915.897461,4395.384766,4237.94873,4209.230957,450,4,,,,0,4,0,0,4,1,32,0,0.764678,0.455078,0.343506,-0.300293,0.823255,-0.424323,-0.354498,-17.17255,-57.974419,40.00502,,,,,,,,,,,,,,,,,,,,,,,,,
1577376212,65,0,4220,4881.538574,4395.384766,4233.846191,4136.410156,450,4,,,,0,4,0,0,4,1,,,,,,,,,,,,,,,,,,,,,,,,,,,,,,,,,,,,,
1577376212,66,0,4235.384766,4891.282227,4405.641113,4238.974121,4102.563965,16189,4,,,,0,4,0,0,4,1,33,0,0.764869,0.455078,0.343506,-0.299805,0.831067,-0.430671,-0.35108,-17.369387,-57.979069,40.012146,,,,,,,,,,,,,,,,,,,,,,,,,
1577376212,67,0,4226.153809,4890.256348,4351.794922,4245.128418,4063.589844,450,4,,,,0,4,0,0,4,1,,,,,,,,,,,,,,,,,,,,,,,,,,,,,,,,,,,,,
1577376212,68,0,4190.256348,4895.384766,4356.922852,4209.230957,4067.179443,0,4,,,,0,4,0,0,4,1,34,0,0.765074,0.455078,0.343262,-0.299561,0.828138,-0.435554,-0.349615,-15.692264,-58.043068,40.018562,,,,,,,,,,,,,,,,,,,,,,,,,
1577376212,69,0,4196.922852,4892.307617,4390.769043,4210.769043,4181.025879,450,4,,,,0,4,0,0,4,1,,,,,,,,,,,,,,,,,,,,,,,,,,,,,,,,,,,,,
1577376212,70,0,4198.974121,4863.077148,4402.563965,4208.205078,4195.384766,2,4,,,,0,4,0,0,4,1,35,0,0.76517,0.455078,0.343262,-0.299316,0.83595,-0.434089,-0.356451,-15.977313,-57.981037,39.96452,,,,,,,,,,,,,,,,,,,,,,,,,
1577376212,71,0,4181.538574,4901.025879,4407.179688,4186.666504,4143.589844,450,4,,,,0,4,0,0,4,1,,,,,,,,,,,,,1.280024,1.590692,0.827886,3.421473,3.445748,0.634124,1.099367,1.557964,5.335067,6.35773,3.69624,0.5274,1.27489,3.510762,4.603358,1.526996,1.691307,0.683032,1.150461,1.229758,3.702409,5.948277,8.562784,77.62384,18.041954
1577376212,72,0,4189.743652,4914.871582,4353.846191,4189.743652,4105.128418,450,4,,,,0,4,0,0,4,1,36,0,0.765156,0.455078,0.343506,-0.299072,0.819348,-0.447761,-0.361822,-16.353489,-57.925209,39.975697,,,,,,,,,,,,,,,,,,,,,,,,,
1577376212,73,0,4199.487305,4860,4352.820313,4199.487305,4092.307617,16193,4,,,,0,4,0,0,4,1,,,,,,,,,,,,,,,,,,,,,,,,,,,,,,,,,,,,,
1577376212,74,0,4210.769043,4858.974121,4391.282227,4204.615234,4125.641113,450,4,,,,0,4,0,0,4,1,37,0,0.765301,0.454834,0.343506,-0.299072,0.828626,-0.447272,-0.354498,-16.692047,-58.054409,39.985756,,,,,,,,,,,,,,,,,,,,,,,,,
1577376212,75,0,4201.538574,4909.230957,4386.666504,4182.563965,4145.128418,126,4,,,,0,4,0,0,4,1,,,,,,,,,,,,,,,,,,,,,,,,,,,,,,,,,,,,,
1577376212,76,0,4195.384766,4920.512695,4389.743652,4187.179688,4196.410156,450,4,,,,0,4,0,0,4,1,38,0,0.765301,0.454834,0.343506,-0.299072,0.814954,-0.43653,-0.350103,-16.877119,-58.110874,40.054626,,,,,,,,,,,,,,,,,,,,,,,,,
1577376212,77,0,4226.153809,4898.461426,4370.769043,4216.922852,4196.922852,450,4,,,,0,4,0,0,4,1,,,,,,,,,,,,,,,,,,,,,,,,,,,,,,,,,,,,,
1577376212,78,0,4235.384766,4887.692383,4378.461426,4202.05127,4081.538574,450,4,,,,0,4,0,0,4,1,39,0,0.765336,0.45459,0.34375,-0.299072,0.831067,-0.428229,-0.355474,-17.103498,-57.982246,40.116608,,,,,,,,,,,,,,,,,,,,,,,,,
1577376212,79,0,4244.615234,4874.358887,4395.897461,4196.922852,4057.94873,126,4,,,,0,4,0,0,4,1,,,,,,,,,,,,,,,,,,,,,,,,,,,,,,,,,,,,,
1577376212,80,0,4250.256348,4882.563965,4369.230957,4207.692383,4140.512695,450,4,,,,0,4,0,0,4,1,40,0,0.765336,0.45459,0.34375,-0.299072,0.822766,-0.435065,-0.355962,-17.247425,-58.165558,40.112576,,,,,,,,,,,,,,,,,,,,,,,,,
1577376212,81,0,4220,4903.077148,4379.487305,4206.153809,4240.512695,450,4,,,,0,4,0,0,4,1,,,,,,,,,,,,,,,,,,,,,,,,,,,,,,,,,,,,,
1577376212,82,0,4213.846191,4870.256348,4384.102539,4205.128418,4212.820313,450,4,,,,0,4,0,0,4,1,41,0,0.765432,0.45459,0.34375,-0.298828,0.826673,-0.435554,-0.355474,-17.376959,-58.091278,40.108948,,,,,,,,,,,,,,,,,,,,,,,,,
1577376212,83,0,4238.974121,4838.974121,4385.641113,4193.846191,4068.205078,126,4,,,,0,4,0,0,4,1,,,,,,,,,,,,,,,,,,,,,,,,,,,,,,,,,,,,,
1577376212,84,0,4270.256348,4886.153809,4394.871582,4191.794922,4049.230713,450,4,,,,0,4,0,0,4,1,42,0,0.765432,0.45459,0.34375,-0.298828,0.817395,-0.425788,-0.356451,-17.49354,-58.024426,40.28513,,,,,,,,,,,,,,,,,,,,,,,,,
1577376212,85,0,4264.102539,4928.717773,4360.512695,4190.769043,4164.102539,450,4,,,,0,4,0,0,4,1,,,,,,,,,,,,,,,,,,,,,,,,,,,,,,,,,,,,,
1577376212,86,0,4231.794922,4894.358887,4372.820313,4194.871582,4220,450,4,,,,0,4,0,0,4,1,43,0,0.765432,0.45459,0.34375,-0.298828,0.816907,-0.425788,-0.349615,-17.897539,-58.024071,40.383877,,,,,,,,,,,,,,,,,,,,,,,,,
1577376212,87,0,4252.307617,4875.384766,4399.487305,4219.487305,4186.153809,126,4,,,,0,4,0,0,4,1,,,,,,,,,,,,,1.209777,2.594866,0.774013,3.885835,3.280605,0.433935,0.9884,1.409958,5.707357,5.890039,2.238128,0.359595,1.47572,3.740096,4.735092,1.287705,1.934202,0.773818,1.401405,1.22136,4.119129,6.390173,9.530546,73.375465,18.178429
1577376212,88,0,4257.436035,4889.230957,4397.94873,4218.461426,4147.179688,450,4,,,,0,4,0,0,4,1,44,0,0.765577,0.454346,0.34375,-0.298828,0.829602,-0.430671,-0.363287,-17.962061,-58.023754,40.353119,,,,,,,,,,,,,,,,,,,,,,,,,
1577376212,89,0,4242.563965,4863.077148,4398.461426,4215.384766,4172.307617,450,4,,,,0,4,0,0,4,1,,,,,,,,,,,,,,,,,,,,,,,,,,,,,,,,,,,,,
1577376212,90,0,4256.410156,4858.974121,4371.282227,4217.436035,4135.384766,450,4,,,,0,4,0,0,4,1,45,0,0.765577,0.454346,0.34375,-0.298828,0.830579,-0.442878,-0.357427,-18.259394,-57.844025,40.325436,,,,,,,,,,,,,,,,,,,,,,,,,
1577376212,91,0,4263.077148,4900,4383.589844,4207.179688,4071.281982,126,4,,,,0,4,0,0,4,1,,,,,,,,,,,,,,,,,,,,,,,,,,,,,,,,,,,,,
1577376212,92,0,4276.922852,4904.102539,4402.05127,4209.230957,4131.282227,450,4,,,,0,4,0,0,4,1,46,0,0.765612,0.454102,0.343994,-0.298828,0.833509,-0.424811,-0.364263,-18.467176,-57.682266,40.300522,,,,,,,,,,,,,,,,,,,,,,,,,
1577376212,93,0,4266.153809,4876.922852,4395.384766,4205.128418,4175.384766,450,4,,,,0,4,0,0,4,1,,,,,,,,,,,,,,,,,,,,,,,,,,,,,,,,,,,,,
1577376212,94,0,4245.128418,4873.846191,4405.641113,4208.717773,4192.820313,450,4,,,,0,4,0,0,4,1,47,0,0.765707,0.454102,0.343994,-0.298584,0.828626,-0.42237,-0.349615,-16.740089,-57.5965,40.397732,,,,,,,,,,,,,,,,,,,,,,,,,
1577376212,95,0,4261.025879,4890.256348,4379.487305,4216.922852,4166.153809,126,4,,,,0,4,0,0,4,1,,,,,,,,,,,,,,,,,,,,,,,,,,,,,,,,,,,,,
1577376212,96,0,4264.102539,4915.384766,4384.615234,4219.487305,4056.410156,450,4,,,,0,4,0,0,4,1,48,0,0.765707,0.454102,0.343994,-0.298584,0.813977,-0.436042,-0.353521,-16.980171,-57.51931,40.425404,,,,,,,,,,,,,,,,,,,,,,,,,
1577376212,97,0,4270.256348,4912.307617,4404.615234,4227.179688,4054.358887,450,4,,,,0,4,0,0,4,1,,,,,,,,,,,,,,,,,,,,,,,,,,,,,,,,,,,,,
1577376212,98,0,4256.410156,4870.769043,4379.487305,4206.153809,4137.436035,450,4,,,,0,4,0,0,4,1,49,0,0.765852,0.453857,0.343994,-0.298584,0.828626,-0.431159,-0.357916,-17.256062,-57.390022,40.390491,,,,,,,,,,,,,,,,,,,,,,,,,
1577376212,99,0,4236.410156,4863.589844,4391.794922,4203.589844,4226.666504,126,4,,,,0,4,0,0,4,1,,,,,,,,,,,,,,,,,,,,,,,,,,,,,,,,,,,,,
1577376212,100,0,4270.256348,4895.897461,4391.794922,4223.077148,4200.512695,450,4,,,,0,4,0,0,4,1,50,0,0.765852,0.453857,0.343994,-0.298584,0.831556,-0.435065,-0.363775,-17.444548,-57.45311,40.359074,,,,,,,,,,,,,,,,,,,,,,,,,
1577376212,101,0,4293.333496,4915.897461,4389.230957,4207.179688,4041.025635,450,4,,,,0,4,0,0,4,1,,,,,,,,,,,,,,,,,,,,,,,,,,,,,,,,,,,,,
1577376212,102,0,4307.179688,4871.282227,4400.512695,4214.358887,4024.102539,450,4,,,,0,4,0,0,4,1,51,0,0.765997,0.453613,0.343994,-0.298584,0.837415,-0.434577,-0.371099,-17.674,-57.450073,40.510239,,,,,,,,,,,,,,,,,,,,,,,,,
1577376212,103,0,4282.563965,4839.487305,4377.436035,4229.230957,4121.538574,126,4,,,,0,4,0,0,4,1,,,,,,,,,,,,,1.523976,4.303254,0.870202,4.440765,3.224718,0.483121,1.003692,1.257815,5.753394,5.560247,1.685355,0.303626,1.513788,4.524314,5.196588,1.147449,2.321152,0.912674,1.716035,1.212473,4.433719,6.644144,9.889405,70.088249,17.628641
1577376212,104,0,4235.384766,4905.641113,4387.179688,4225.641113,4213.333496,450,4,,,,0,4,0,0,4,1,52,0,0.766092,0.453613,0.343994,-0.29834,0.821302,-0.430182,-0.369146,-17.820692,-57.566975,40.466846,,,,,,,,,,,,,,,,,,,,,,,,,
1577376212,105,0,4274.358887,4911.794922,4403.077148,4251.282227,4173.846191,450,4,,,,0,4,0,0,4,1,,,,,,,,,,,,,,,,,,,,,,,,,,,,,,,,,,,,,
1577376212,106,0,4295.897461,4838.974121,4416.410156,4249.743652,4030.769287,450,4,,,,0,4,0,0,4,1,53,0,0.766236,0.453369,0.343994,-0.29834,0.827161,-0.426764,-0.367193,-18.072344,-57.492737,40.427792,,,,,,,,,,,,,,,,,,,,,,,,,
1577376212,107,0,4279.487305,4871.794922,4417.436035,4226.666504,4051.281982,126,4,,,,0,4,0,0,4,1,,,,,,,,,,,,,,,,,,,,,,,,,,,,,,,,,,,,,
1577376212,108,0,4288.717773,4937.94873,4367.692383,4221.538574,4131.282227,450,4,,,,0,4,0,0,4,1,54,0,0.766126,0.453369,0.344238,-0.29834,0.833021,-0.433112,-0.355474,-16.324926,-57.545551,40.452457,,,,,,,,,,,,,,,,,,,,,,,,,
1577376212,109,0,4279.487305,4909.743652,4373.333496,4219.487305,4096.410156,450,4,,,,0,4,0,0,4,1,,,,,,,,,,,,,,,,,,,,,,,,,,,,,,,,,,,,,
1577376212,110,0,4270.769043,4864.615234,4401.025879,4222.05127,4111.282227,450,4,,,,0,4,0,0,4,1,55,0,0.766222,0.453369,0.344238,-0.298096,0.842298,-0.436042,-0.358892,-14.752249,-57.712719,40.414841,,,,,,,,,,,,,,,,,,,,,,,,,
1577376212,111,0,4246.666504,4867.179688,4407.692383,4210.769043,4156.922852,126,4,,,,0,4,0,0,4,1,,,,,,,,,,,,,,,,,,,,,,,,,,,,,,,,,,,,,
1577376212,112,0,4249.230957,4896.922852,4411.282227,4228.205078,4172.307617,450,4,,,,0,4,0,0,4,1,56,0,0.766256,0.453125,0.344482,-0.298096,0.833997,-0.443366,-0.366705,-15.310746,-57.504276,40.4408,,,,,,,,,,,,,,,,,,,,,,,,,
1577376212,113,0,4282.05127,4902.05127,4371.794922,4250.769043,4116.922852,450,4,,,,0,4,0,0,4,1,,,,,,,,,,,,,,,,,,,,,,,,,,,,,,,,,,,,,
1577376212,114,0,4272.820313,4878.974121,4381.538574,4233.333496,4047.179443,450,4,,,,0,4,0,0,4,1,57,0,0.766351,0.453125,0.344482,-0.297852,0.828626,-0.430182,-0.358892,-13.899302,-57.496124,40.344536,,,,,,,,,,,,,,,,,,,,,,,,,
1577376212,115,0,4293.333496,4872.820313,4406.153809,4253.333496,4074.358887,126,4,,,,0,4,0,0,4,1,,,,,,,,,,,,,,,,,,,,,,,,,,,,,,,,,,,,,
1577376212,116,0,4273.846191,4884.615234,4398.461426,4261.538574,4118.974121,450,4,,,,0,4,0,0,4,1,58,0,0.766222,0.453369,0.344238,-0.298096,0.842298,-0.436042,-0.358892,-12.569187,-57.668232,40.317711,,,,,,,,,,,,,,,,,,,,,,,,,
1577376212,117,0,4223.077148,4884.102539,4391.282227,4236.922852,4186.666504,450,4,,,,0,4,0,0,4,1,,,,,,,,,,,,,,,,,,,,,,,,,,,,,,,,,,,,,
1577376212,118,0,4250.256348,4868.717773,4354.871582,4249.743652,4165.128418,450,4,,,,0,4,0,0,4,1,59,0,0.766351,0.453125,0.344482,-0.297852,0.828626,-0.430182,-0.358892,-11.431899,-57.643684,40.233753,,,,,,,,,,,,,,,,,,,,,,,,,
1577376212,119,0,4257.436035,4873.333496,4405.128418,4256.410156,4013.846191,126,4,,,,0,4,0,0,4,1,,,,,,,,,,,,,2.229321,6.499654,1.130022,4.988624,3.221136,0.662035,1.132049,1.172321,5.503336,5.422832,1.430198,0.27861,1.354168,5.767395,5.926857,1.090504,2.848974,1.123514,1.99023,1.188857,4.342813,6.347651,9.234067,68.594864,16.624949
1577376212,120,0,4251.794922,4884.102539,4418.974121,4254.358887,4014.871826,450,4,,,,0,4,0,0,4,1,60,0,0.766336,0.453125,0.344727,-0.297607,0.813977,-0.433112,-0.361822,-12.202801,-57.62159,40.098377,,,,,,,,,,,,,,,,,,,,,,,,,
1577376212,121,0,4247.179688,4908.205078,4353.846191,4238.974121,4102.563965,450,4,,,,0,4,0,0,4,1,,,,,,,,,,,,,,,,,,,,,,,,,,,,,,,,,,,,,
1577376212,122,0,4218.461426,4915.384766,4376.410156,4215.384766,4171.282227,450,4,,,,0,4,0,0,4,1,61,0,0.766192,0.453369,0.344727,-0.297607,0.832532,-0.423835,-0.361334,-11.102152,-57.721336,39.97654,,,,,,,,,,,,,,,,,,,,,,,,,
1577376212,123,0,4221.025879,4854.358887,4371.282227,4225.128418,4166.666504,126,4,,,,0,4,0,0,4,1,,,,,,,,,,,,,,,,,,,,,,,,,,,,,,,,,,,,,
1577376212,124,0,4229.230957,4857.436035,4384.615234,4220,4071.281982,450,4,,,,0,4,0,0,4,1,62,0,0.766336,0.453125,0.344727,-0.297607,0.830579,-0.424811,-0.36817,-10.111567,-57.751293,39.986515,,,,,,,,,,,,,,,,,,,,,,,,,
1577376212,125,0,4247.692383,4916.410156,4382.05127,4221.025879,4041.538574,450,4,,,,0,4,0,0,4,1,,,,,,,,,,,,,,,,,,,,,,,,,,,,,,,,,,,,,
1577376212,126,0,4248.205078,4889.743652,4315.897461,4223.077148,4053.333252,450,4,,,,0,4,0,0,4,1,63,0,0.766336,0.453125,0.344727,-0.297607,0.819837,-0.431647,-0.363287,-9.160226,-57.897884,39.875862,,,,,,,,,,,,,,,,,,,,,,,,,
1577376212,127,0,4217.94873,4874.358887,4369.743652,4198.461426,4096.410156,239,4,,,,0,4,0,0,4,1,,,,,,,,,,,,,,,,,,,,,,,,,,,,,,,,,,,,,
1577376212,0,0,4224.615234,4912.820313,4413.333496,4208.717773,4145.128418,450,4,,,,0,4,0,0,4,1,0,0,0.766226,0.453125,0.344971,-0.297607,0.844251,-0.436042,-0.363775,-8.363834,-57.970005,39.776276,,,,,,,,,,,,,,,,,,,,,,,,,
1577376212,1,0,4225.128418,4920.512695,4370.769043,4205.641113,4110.256348,450,4,,,,0,4,0,0,4,1,,,,,,,,,,,,,,,,,,,,,,,,,,,,,,,,,,,,,
1577376212,2,0,4224.102539,4875.384766,4323.077148,4188.717773,4116.410156,16183,4,,,,0,4,0,0,4,1,1,0,0.766226,0.453125,0.344971,-0.297607,0.825696,-0.420905,-0.358404,-9.381727,-57.855461,39.925907,,,,,,,,,,,,,,,,,,,,,,,,,
1577376212,3,0,4225.128418,4848.205078,4299.487305,4196.410156,4102.563965,450,4,,,,0,4,0,0,4,1,,,,,,,,,,,,,,,,,,,,,,,,,,,,,,,,,,,,,
1577376212,4,0,4201.025879,4882.05127,4384.102539,4195.384766,4037.94873,0,4,,,,0,4,0,0,4,1,2,0,0.766211,0.453125,0.345215,-0.297363,0.834974,-0.425299,-0.360357,-8.623,-57.692562,40.000763,,,,,,,,,,,,,,,,,,,,,,,,,
1577376212,5,0,4217.94873,4888.205078,4393.333496,4215.897461,4078.974365,450,4,,,,0,4,0,0,4,1,,,,,,,,,,,,,,,,,,,,,,,,,,,,,,,,,,,,,
1577376212,6,0,4228.205078,4858.461426,4343.077148,4216.922852,4151.794922,0,4,,,,0,4,0,0,4,1,3,0,0.766306,0.453125,0.345215,-0.297119,0.837415,-0.437018,-0.349615,-7.880331,-57.845024,40.127945,,,,,,,,,,,,,,,,,,,,,,,,,
1577376212,7,0,4205.641113,4870.769043,4378.974121,4201.025879,4206.666504,450,4,,,,0,4,0,0,4,1,,,,,,,,,,,,,3.167642,8.69144,1.544976,5.399535,3.192558,0.882786,1.327286,1.198271,5.055501,5.462354,1.220692,0.244394,1.058786,7.171011,6.80087,1.078342,3.380766,1.415875,2.123258,1.140586,3.817546,5.564244,7.704959,68.887405,15.634426
1577376212,8,0,4212.307617,4904.102539,4355.897461,4209.743652,4147.692383,450,4,,,,0,4,0,0,4,1,4,0,0.76629,0.453125,0.345459,-0.296875,0.839368,-0.427741,-0.351568,-9.00639,-57.922428,40.062965,,,,,,,,,,,,,,,,,,,,,,,,,
1577376212,9,0,4229.743652,4902.05127,4346.666504,4207.692383,4028.718018,16205,4,,,,0,4,0,0,4,1,,,,,,,,,,,,,,,,,,,,,,,,,,,,,,,,,,,,,
1577376212,10,0,4235.897461,4858.974121,4372.307617,4218.974121,4048.718018,450,4,,,,0,4,0,0,4,1,5,0,0.766385,0.453125,0.345459,-0.296631,0.824231,-0.436042,-0.36524,-9.960027,-57.872463,40.004482,,,,,,,,,,,,,,,,,,,,,,,,,
1577376212,11,0,4212.307617,4843.589844,4348.205078,4197.94873,4112.820313,115,4,,,,0,4,0,0,4,1,,,,,,,,,,,,,,,,,,,,,,,,,,,,,,,,,,,,,
1577376212,12,0,4192.820313,4899.487305,4356.410156,4171.282227,4181.538574,450,4,,,,0,4,0,0,4,1,6,0,0.766464,0.453125,0.345703,-0.296143,0.817395,-0.435065,-0.359869,-10.878116,-57.887306,40.131294,,,,,,,,,,,,,,,,,,,,,,,,,
1577376212,13,0,4210.256348,4903.589844,4362.05127,4209.743652,4198.461426,450,4,,,,0,4,0,0,4,1,,,,,,,,,,,,,,,,,,,,,,,,,,,,,,,,,,,,,
1577376212,14,0,4209.743652,4834.871582,4362.05127,4207.692383,4091.281982,450,4,,,,0,4,0,0,4,1,7,0,0.766448,0.453125,0.345947,-0.295898,0.825696,-0.435554,-0.369146,-11.644581,-57.601589,40.125793,,,,,,,,,,,,,,,,,,,,,,,,,
1577376212,15,0,4205.641113,4860,4366.153809,4191.282227,4040.512939,115,4,,,,0,4,0,0,4,1,,,,,,,,,,,,,,,,,,,,,,,,,,,,,,,,,,,,,
1577376212,16,0,4214.358887,4932.307617,4342.05127,4187.692383,4103.589844,0,4,,,,0,4,0,0,4,1,8,0,0.76667,0.452881,0.346191,-0.29541,0.828138,-0.433112,-0.353033,-12.394215,-57.763153,40.18066,,,,,,,,,,,,,,,,,,,,,,,,,
1577376212,17,0,4214.871582,4908.205078,4362.05127,4178.461426,4194.358887,0,4,,,,0,4,0,0,4,1,,,,,,,,,,,,,,,,,,,,,,,,,,,,,,,,,,,,,
1577376212,18,0,4207.692383,4848.205078,4374.358887,4191.794922,4197.94873,0,4,,,,0,4,0,0,4,1,9,0,0.766748,0.452881,0.346436,-0.294922,0.829602,-0.433112,-0.361822,-13.248331,-57.788925,40.230038,,,,,,,,,,,,,,,,,,,,,,,,,
1577376212,19,0,4198.974121,4863.589844,4369.230957,4177.436035,4125.641113,0,4,,,,0,4,0,0,4,1,,,,,,,,,,,,,,,,,,,,,,,,,,,,,,,,,,,,,
1577376212,20,0,4222.563965,4909.230957,4381.025879,4181.538574,4116.922852,0,4,,,,0,4,0,0,4,1,10,0,0.766842,0.452881,0.346436,-0.294678,0.82472,-0.444831,-0.355474,-12.043128,-57.871941,40.15485,,,,,,,,,,,,,,,,,,,,,,,,,
1577376212,21,0,4245.641113,4919.487305,4346.153809,4200.512695,4096.410156,0,4,,,,0,4,0,0,4,1,,,,,,,,,,,,,,,,,,,,,,,,,,,,,,,,,,,,,
1577376212,22,0,4232.307617,4895.897461,4343.077148,4189.230957,4081.538574,0,4,,,,0,4,0,0,4,1,11,0,0.766969,0.452637,0.34668,-0.294434,0.818372,-0.43653,-0.356451,-12.752908,-57.886837,40.146996,,,,,,,,,,,,,,,,,,,,,,,,,
1577376212,23,0,4226.666504,4847.179688,4374.358887,4189.743652,4159.487305,0,4,,,,0,4,0,0,4,1,,,,,,,,,,,,,4.171462,10.230212,2.022943,5.560803,3.074938,1.095644,1.538727,1.341216,4.531655,5.639763,1.017096,0.209529,0.727018,8.361021,7.633649,1.145452,3.744447,1.756709,2.066597,1.066985,3.122593,4.554324,5.798641,70.293327,15.132586
1577376212,24,0,4218.461426,4851.794922,4385.641113,4179.487305,4176.410156,0,4,,,,0,4,0,0,4,1,12,0,0.767063,0.452637,0.34668,-0.294189,0.816419,-0.4336,-0.353521,-13.451524,-57.900242,40.199738,,,,,,,,,,,,,,,,,,,,,,,,,
1577376212,25,0,4212.820313,4888.205078,4392.307617,4180.512695,4169.743652,0,4,,,,0,4,0,0,4,1,,,,,,,,,,,,,,,,,,,,,,,,,,,,,,,,,,,,,
1577376212,26,0,4216.410156,4905.641113,4359.487305,4185.641113,4146.666504,0,4,,,,0,4,0,0,4,1,13,0,0.767207,0.452393,0.34668,-0.294189,0.826185,-0.434089,-0.356939,-13.900832,-57.852493,40.187393,,,,,,,,,,,,,,,,,,,,,,,,,
1577376212,27,0,4225.641113,4924.615234,4363.077148,4173.333496,4091.794922,0,4,,,,0,4,0,0,4,1,,,,,,,,,,,,,,,,,,,,,,,,,,,,,,,,,,,,,
1577376212,28,0,4262.563965,4890.256348,4385.641113,4190.769043,4103.589844,0,4,,,,0,4,0,0,4,1,14,0,0.76719,0.452393,0.346924,-0.293945,0.833997,-0.424811,-0.361822,-14.424841,-57.809521,40.176285,,,,,,,,,,,,,,,,,,,,,,,,,
1577376212,29,0,4264.615234,4871.794922,4370.256348,4192.307617,4143.077148,0,4,,,,0,4,0,0,4,1,,,,,,,,,,,,,,,,,,,,,,,,,,,,,,,,,,,,,
1577376213,30,0,4211.794922,4908.205078,4383.077148,4176.410156,4212.307617,0,4,,,,0,4,0,0,4,1,15,0,0.767334,0.452148,0.346924,-0.293945,0.842298,-0.435065,-0.360845,-14.836633,-57.830658,40.106472,,,,,,,,,,,,,,,,,,,,,,,,,
1577376213,31,0,4185.128418,4882.05127,4375.897461,4170.769043,4205.641113,0,4,,,,0,4,0,0,4,1,,,,,,,,,,,,,,,,,,,,,,,,,,,,,,,,,,,,,
1577376213,32,0,4224.615234,4869.743652,4378.461426,4164.615234,4063.076904,0,4,,,,0,4,0,0,4,1,16,0,0.767428,0.452148,0.346924,-0.293701,0.827161,-0.447761,-0.351568,-15.446507,-57.730053,39.983822,,,,,,,,,,,,,,,,,,,,,,,,,
1577376213,33,0,4277.436035,4902.563965,4394.871582,4176.922852,4030.769287,0,4,,,,0,4,0,0,4,1,,,,,,,,,,,,,,,,,,,,,,,,,,,,,,,,,,,,,
1577376213,34,0,4247.692383,4870.256348,4364.102539,4163.589844,4152.820313,0,4,,,,0,4,0,0,4,1,17,0,0.767631,0.452148,0.34668,-0.293457,0.82179,-0.430182,-0.366705,-15.815948,-57.699322,39.993069,,,,,,,,,,,,,,,,,,,,,,,,,
1577376213,35,0,4204.102539,4864.615234,4373.846191,4150.769043,4245.641113,0,4,,,,0,4,0,0,4,1,,,,,,,,,,,,,,,,,,,,,,,,,,,,,,,,,,,,,
1577376213,36,0,4230.769043,4929.743652,4392.307617,4167.692383,4198.974121,0,4,,,,0,4,0,0,4,1,18,0,0.767581,0.452393,0.34668,-0.293213,0.823743,-0.438483,-0.362799,-14.294169,-57.671665,40.121021,,,,,,,,,,,,,,,,,,,,,,,,,
1577376213,37,0,4258.974121,4904.615234,4396.922852,4175.384766,4115.384766,0,4,,,,0,4,0,0,4,1,,,,,,,,,,,,,,,,,,,,,,,,,,,,,,,,,,,,,
1577376213,38,0,4274.871582,4824.615234,4403.589844,4190.769043,4117.94873,0,4,,,,0,4,0,0,4,1,19,0,0.767674,0.452393,0.34668,-0.292969,0.81886,-0.422858,-0.355474,-12.984383,-57.646774,40.11655,,,,,,,,,,,,,,,,,,,,,,,,,
1577376213,39,0,4267.692383,4860.512695,4366.666504,4174.871582,4090.769287,0,4,,,,0,4,0,0,4,1,,,,,,,,,,,,,4.848227,10.604381,2.419756,5.429711,2.84142,1.275479,1.70026,1.552359,4.030813,5.906125,0.849765,0.187256,0.449899,8.953988,8.193302,1.306152,3.827425,2.080549,1.842634,0.975565,2.452821,3.595208,4.079284,71.97271,15.368933
1577376213,40,0,4241.025879,4930.769043,4367.692383,4149.230957,4069.743652,0,4,,,,0,4,0,0,4,1,20,0,0.767911,0.452148,0.34668,-0.292725,0.821302,-0.425299,-0.36231,-13.659852,-57.803818,40.052708,,,,,,,,,,,,,,,,,,,,,,,,,
1577376213,41,0,4256.922852,4904.615234,4393.333496,4173.333496,4160.512695,0,4,,,,0,4,0,0,4,1,,,,,,,,,,,,,,,,,,,,,,,,,,,,,,,,,,,,,
1577376213,42,0,4255.897461,4868.717773,4407.692383,4183.077148,4187.692383,0,4,,,,0,4,0,0,4,1,21,0,0.767911,0.452148,0.34668,-0.292725,0.817395,-0.449226,-0.356939,-14.148143,-57.705894,40.114883,,,,,,,,,,,,,,,,,,,,,,,,,
1577376213,43,0,4237.94873,4886.666504,4412.307617,4168.717773,4167.692383,0,4,,,,0,4,0,0,4,1,,,,,,,,,,,,,,,,,,,,,,,,,,,,,,,,,,,,,
1577376213,44,0,4250.256348,4905.641113,4365.128418,4156.410156,4136.922852,0,4,,,,0,4,0,0,4,1,22,0,0.768004,0.452148,0.34668,-0.29248,0.828626,-0.436042,-0.356939,-14.767051,-57.557949,40.051208,,,,,,,,,,,,,,,,,,,,,,,,,
1577376213,45,0,4271.282227,4924.102539,4368.717773,4170.769043,4085.128174,0,4,,,,0,4,0,0,4,1,,,,,,,,,,,,,,,,,,,,,,,,,,,,,,,,,,,,,
1577376213,46,0,4305.128418,4902.563965,4402.563965,4207.692383,4109.230957,0,4,,,,0,4,0,0,4,1,23,0,0.767911,0.452148,0.34668,-0.292725,0.821302,-0.425299,-0.36231,-13.350162,-57.54443,40.053719,,,,,,,,,,,,,,,,,,,,,,,,,
1577376213,47,0,4280.512695,4842.563965,4395.384766,4190.769043,4151.794922,0,4,,,,0,4,0,0,4,1,,,,,,,,,,,,,,,,,,,,,,,,,,,,,,,,,,,,,
1577376213,48,0,4241.025879,4874.871582,4403.077148,4169.743652,4195.384766,0,4,,,,0,4,0,0,4,1,24,0,0.768004,0.452148,0.34668,-0.29248,0.828626,-0.436042,-0.356939,-14.048867,-57.412632,39.996159,,,,,,,,,,,,,,,,,,,,,,,,,
1577376213,49,0,4276.922852,4937.94873,4388.717773,4193.333496,4183.077148,0,4,,,,0,4,0,0,4,1,,,,,,,,,,,,,,,,,,,,,,,,,,,,,,,,,,,,,
1577376213,50,0,4276.922852,4895.384766,4393.846191,4196.922852,4051.794922,0,4,,,,0,4,0,0,4,1,25,0,0.76813,0.451904,0.346924,-0.292236,0.815442,-0.437995,-0.356939,-12.703796,-57.413643,40.004173,,,,,,,,,,,,,,,,,,,,,,,,,
1577376213,51,0,4280,4820,4414.358887,4202.563965,4028.718018,0,4,,,,0,4,0,0,4,1,,,,,,,,,,,,,,,,,,,,,,,,,,,,,,,,,,,,,
1577376213,52,0,4301.538574,4863.077148,4386.153809,4204.615234,4129.743652,0,4,,,,0,4,0,0,4,1,26,0,0.768113,0.451904,0.347168,-0.291992,0.814954,-0.45069,-0.357427,-11.493232,-57.474369,40.011387,,,,,,,,,,,,,,,,,,,,,,,,,
1577376213,53,0,4256.922852,4956.410156,4384.102539,4183.589844,4247.179688,0,4,,,,0,4,0,0,4,1,,,,,,,,,,,,,,,,,,,,,,,,,,,,,,,,,,,,,
1577376213,54,0,4239.487305,4903.589844,4392.820313,4187.179688,4193.333496,0,4,,,,0,4,0,0,4,1,27,0,0.768113,0.451904,0.347168,-0.291992,0.82472,-0.437995,-0.370611,-12.437447,-57.529022,40.017876,,,,,,,,,,,,,,,,,,,,,,,,,
1577376213,55,0,4274.871582,4830.256348,4409.743652,4198.974121,4010.256348,0,4,,,,0,4,0,0,4,1,,,,,,,,,,,,,5.028902,9.678144,2.5976,5.071957,2.523943,1.393012,1.766004,1.756246,3.612253,6.24854,0.735849,0.188146,0.286904,8.712949,8.266971,1.599046,3.60887,2.298534,1.525756,0.880788,2.013352,2.886648,2.92264,73.394714,16.237082
1577376213,56,0,4312.820313,4897.94873,4415.897461,4206.153809,4021.025635,0,4,,,,0,4,0,0,4,1,28,0,0.768003,0.451904,0.347412,-0.291992,0.820813,-0.441901,-0.363775,-13.107794,-57.578213,39.904087,,,,,,,,,,,,,,,,,,,,,,,,,
1577376213,57,0,4286.666504,4932.307617,4370.769043,4205.128418,4125.128418,0,4,,,,0,4,0,0,4,1,,,,,,,,,,,,,,,,,,,,,,,,,,,,,,,,,,,,,
1577376213,58,0,4231.282227,4868.717773,4377.436035,4206.666504,4131.794922,0,4,,,,0,4,0,0,4,1,29,0,0.767841,0.452148,0.347656,-0.291748,0.832044,-0.435554,-0.36231,-13.711106,-57.682297,39.981125,,,,,,,,,,,,,,,,,,,,,,,,,
1577376213,59,0,4263.589844,4853.846191,4407.179688,4228.717773,4151.794922,0,4,,,,0,4,0,0,4,1,,,,,,,,,,,,,,,,,,,,,,,,,,,,,,,,,,,,,
1577376213,60,0,4282.563965,4903.589844,4416.922852,4218.461426,4161.025879,0,4,,,,0,4,0,0,4,1,30,0,0.767952,0.452148,0.347412,-0.291748,0.810071,-0.423835,-0.352544,-14.074641,-57.596527,40.050457,,,,,,,,,,,,,,,,,,,,,,,,,
1577376213,61,0,4270.256348,4918.461426,4415.384766,4205.641113,4153.846191,0,4,,,,0,4,0,0,4,1,,,,,,,,,,,,,,,,,,,,,,,,,,,,,,,,,,,,,
1577376213,62,0,4284.615234,4873.846191,4370.769043,4217.94873,4100,0,4,,,,0,4,0,0,4,1,31,0,0.767841,0.452148,0.347656,-0.291748,0.825208,-0.425299,-0.34815,-14.521453,-57.638966,40.112854,,,,,,,,,,,,,,,,,,,,,,,,,
1577376213,63,0,4277.94873,4848.205078,4379.487305,4220.512695,4027.692383,0,4,,,,0,4,0,0,4,1,,,,,,,,,,,,,,,,,,,,,,,,,,,,,,,,,,,,,
1577376213,64,0,4301.025879,4894.871582,4414.358887,4242.563965,4071.794922,450,4,,,,0,4,0,0,4,1,32,0,0.767985,0.451904,0.347656,-0.291748,0.831556,-0.437995,-0.354009,-14.983399,-57.617344,40.1092,,,,,,,,,,,,,,,,,,,,,,,,,
1577376213,65,0,4291.282227,4943.589844,4413.333496,4238.461426,4150.769043,450,4,,,,0,4,0,0,4,1,,,,,,,,,,,,,,,,,,,,,,,,,,,,,,,,,,,,,
1577376213,66,0,4241.538574,4921.538574,4404.615234,4205.128418,4195.897461,16175,4,,,,0,4,0,0,4,1,33,0,0.768,0.45166,0.348145,-0.291504,0.829114,-0.423346,-0.360845,-13.544875,-57.538067,40.105907,,,,,,,,,,,,,,,,,,,,,,,,,
1577376213,67,0,4255.897461,4856.922852,4372.307617,4218.461426,4141.025879,450,4,,,,0,4,0,0,4,1,,,,,,,,,,,,,,,,,,,,,,,,,,,,,,,,,,,,,
1577376213,68,0,4281.025879,4829.230957,4393.333496,4244.615234,4020.512939,0,4,,,,0,4,0,0,4,1,34,0,0.768093,0.45166,0.348145,-0.29126,0.834485,-0.450202,-0.361822,-13.984848,-57.406906,40.102947,,,,,,,,,,,,,,,,,,,,,,,,,
1577376213,69,0,4306.666504,4853.846191,4395.384766,4249.743652,4026.666748,450,4,,,,0,4,0,0,4,1,,,,,,,,,,,,,,,,,,,,,,,,,,,,,,,,,,,,,
1577376213,70,0,4284.615234,4890.769043,4367.179688,4211.794922,4090.256348,0,4,,,,0,4,0,0,4,1,35,0,0.767982,0.45166,0.348389,-0.29126,0.819837,-0.437507,-0.357916,-14.440639,-57.528122,40.100281,,,,,,,,,,,,,,,,,,,,,,,,,
1577376213,71,0,4221.538574,4901.025879,4414.358887,4182.563965,4195.384766,450,4,,,,0,4,0,0,4,1,,,,,,,,,,,,,4.616689,7.760483,2.50742,4.64216,2.208353,1.431697,1.730038,1.913507,3.29421,6.697334,0.663683,0.21142,0.244979,7.704748,7.777829,2.025738,3.163305,2.346392,1.209287,0.803167,1.822577,2.455661,2.386615,74.36731,17.343695
1577376213,72,0,4231.282227,4902.05127,4421.025879,4216.922852,4172.820313,450,4,,,,0,4,0,0,4,1,36,0,0.768074,0.45166,0.348389,-0.291016,0.82179,-0.443854,-0.355962,-13.056392,-57.457767,40.097885,,,,,,,,,,,,,,,,,,,,,,,,,
1577376213,73,0,4253.846191,4909.743652,4397.436035,4235.384766,4011.281982,16187,4,,,,0,4,0,0,4,1,,,,,,,,,,,,,,,,,,,,,,,,,,,,,,,,,,,,,
1577376213,74,0,4269.230957,4892.307617,4367.179688,4247.692383,4014.358887,450,4,,,,0,4,0,0,4,1,37,0,0.768056,0.45166,0.348633,-0.290771,0.83595,-0.429694,-0.343755,-13.784474,-57.394451,39.976093,,,,,,,,,,,,,,,,,,,,,,,,,
1577376213,75,0,4265.128418,4896.922852,4353.846191,4255.384766,4081.025635,104,4,,,,0,4,0,0,4,1,,,,,,,,,,,,,,,,,,,,,,,,,,,,,,,,,,,,,
1577376213,76,0,4231.282227,4911.282227,4424.615234,4240,4142.563965,450,4,,,,0,4,0,0,4,1,38,0,0.768148,0.45166,0.348633,-0.290527,0.827161,-0.423346,-0.364752,-12.465842,-57.397282,39.9263,,,,,,,,,,,,,,,,,,,,,,,,,
1577376213,77,0,4239.487305,4850.769043,4428.205078,4256.410156,4169.743652,450,4,,,,0,4,0,0,4,1,,,,,,,,,,,,,,,,,,,,,,,,,,,,,,,,,,,,,
1577376213,78,0,4248.717773,4840.512695,4386.666504,4252.307617,4100,450,4,,,,0,4,0,0,4,1,39,0,0.768241,0.45166,0.348633,-0.290283,0.826185,-0.43653,-0.354986,-13.13335,-57.340012,40.001114,,,,,,,,,,,,,,,,,,,,,,,,,
1577376213,79,0,4261.025879,4929.743652,4341.538574,4243.589844,4078.974365,104,4,,,,0,4,0,0,4,1,,,,,,,,,,,,,,,,,,,,,,,,,,,,,,,,,,,,,
1577376213,80,0,4270.256348,4929.743652,4324.615234,4263.589844,4092.307617,450,4,,,,0,4,0,0,4,1,40,0,0.768366,0.451416,0.348877,-0.290039,0.835462,-0.435554,-0.35108,-13.674292,-57.467918,39.889,,,,,,,,,,,,,,,,,,,,,,,,,
1577376213,81,0,4244.102539,4857.94873,4429.743652,4263.589844,4056.923096,450,4,,,,0,4,0,0,4,1,,,,,,,,,,,,,,,,,,,,,,,,,,,,,,,,,,,,,
1577376213,82,0,4247.692383,4864.102539,4449.743652,4265.128418,4105.128418,450,4,,,,0,4,0,0,4,1,41,0,0.768458,0.451416,0.348877,-0.289795,0.832044,-0.433112,-0.352544,-14.220954,-57.463402,39.788101,,,,,,,,,,,,,,,,,,,,,,,,,
1577376213,83,0,4256.410156,4901.538574,4345.641113,4252.307617,4200,104,4,,,,0,4,0,0,4,1,,,,,,,,,,,,,,,,,,,,,,,,,,,,,,,,,,,,,
1577376213,84,0,4248.205078,4891.282227,4291.794922,4250.769043,4213.333496,450,4,,,,0,4,0,0,4,1,42,0,0.768674,0.451172,0.349121,-0.289307,0.825696,-0.436042,-0.346685,-14.653135,-57.459335,39.876736,,,,,,,,,,,,,,,,,,,,,,,,,
1577376213,85,0,4235.897461,4869.743652,4319.487305,4265.128418,4105.641113,450,4,,,,0,4,0,0,4,1,,,,,,,,,,,,,,,,,,,,,,,,,,,,,,,,,,,,,
1577376213,86,0,4224.102539,4868.717773,4431.282227,4242.563965,4047.179443,450,4,,,,0,4,0,0,4,1,43,0,0.768747,0.451172,0.349365,-0.288818,0.823255,-0.452644,-0.355474,-15.101913,-57.395863,39.89669,,,,,,,,,,,,,,,,,,,,,,,,,
1577376213,87,0,4254.358887,4866.666504,4448.205078,4253.846191,4097.436035,104,4,,,,0,4,0,0,4,1,,,,,,,,,,,,,3.790578,5.456204,2.216862,4.314108,2.011013,1.398551,1.626276,2.015693,3.085589,7.336511,0.605618,0.244418,0.286865,6.269193,6.849501,2.515166,2.615768,2.217563,0.964376,0.766427,1.763631,2.218531,2.318142,75.175392,18.316504
1577376213,88,0,4268.717773,4875.897461,4349.743652,4276.410156,4108.205078,450,4,,,,0,4,0,0,4,1,44,0,0.768982,0.450928,0.349365,-0.288574,0.838392,-0.443854,-0.36231,-13.651537,-57.458366,39.854836,,,,,,,,,,,,,,,,,,,,,,,,,
1577376213,89,0,4245.641113,4893.333496,4329.230957,4268.205078,4152.307617,450,4,,,,0,4,0,0,4,1,,,,,,,,,,,,,,,,,,,,,,,,,,,,,,,,,,,,,
1577376213,90,0,4240.512695,4876.410156,4359.487305,4269.230957,4195.897461,450,4,,,,0,4,0,0,4,1,45,0,0.769073,0.450928,0.349365,-0.28833,0.827161,-0.430671,-0.349615,-14.080844,-57.514622,39.876984,,,,,,,,,,,,,,,,,,,,,,,,,
1577376213,91,0,4248.717773,4881.538574,4400,4258.461426,4108.205078,104,4,,,,0,4,0,0,4,1,,,,,,,,,,,,,,,,,,,,,,,,,,,,,,,,,,,,,
1577376213,92,0,4272.820313,4910.769043,4380.512695,4273.333496,4057.94873,450,4,,,,0,4,0,0,4,1,46,0,0.769165,0.450928,0.349365,-0.288086,0.819348,-0.438972,-0.349615,-14.586852,-57.625065,40.016544,,,,,,,,,,,,,,,,,,,,,,,,,
1577376213,93,0,4273.333496,4886.153809,4330.256348,4276.410156,4094.358887,450,4,,,,0,4,0,0,4,1,,,,,,,,,,,,,,,,,,,,,,,,,,,,,,,,,,,,,
1577376213,94,0,4240.512695,4836.410156,4386.666504,4245.641113,4194.358887,450,4,,,,0,4,0,0,4,1,47,0,0.769288,0.450684,0.349609,-0.287842,0.836927,-0.426276,-0.362799,-15.042258,-57.844093,39.902889,,,,,,,,,,,,,,,,,,,,,,,,,
1577376213,95,0,4238.461426,4850.256348,4413.846191,4252.307617,4222.563965,104,4,,,,0,4,0,0,4,1,,,,,,,,,,,,,,,,,,,,,,,,,,,,,,,,,,,,,
1577376213,96,0,4275.384766,4927.179688,4381.025879,4256.410156,4150.256348,450,4,,,,0,4,0,0,4,1,48,0,0.769523,0.450439,0.349609,-0.287598,0.822278,-0.445319,-0.34815,-13.597848,-57.921589,39.800598,,,,,,,,,,,,,,,,,,,,,,,,,
1577376213,97,0,4313.846191,4915.897461,4355.897461,4267.179688,4117.436035,450,4,,,,0,4,0,0,4,1,,,,,,,,,,,,,,,,,,,,,,,,,,,,,,,,,,,,,
1577376213,98,0,4293.846191,4860.512695,4330.769043,4265.128418,4075.384521,450,4,,,,0,4,0,0,4,1,49,0,0.769614,0.450439,0.349609,-0.287354,0.825696,-0.435065,-0.347173,-12.357694,-57.81189,39.828167,,,,,,,,,,,,,,,,,,,,,,,,,
1577376213,99,0,4252.307617,4908.205078,4384.102539,4230.769043,4086.153809,104,4,,,,0,4,0,0,4,1,,,,,,,,,,,,,,,,,,,,,,,,,,,,,,,,,,,,,
1577376213,100,0,4267.692383,4937.94873,4396.410156,4241.025879,4189.230957,450,4,,,,0,4,0,0,4,1,50,0,0.769737,0.450195,0.349854,-0.287109,0.832532,-0.433112,-0.360357,-12.976201,-57.772976,39.673534,,,,,,,,,,,,,,,,,,,,,,,,,
1577376213,101,0,4279.487305,4884.102539,4390.769043,4260,4182.05127,450,4,,,,0,4,0,0,4,1,,,,,,,,,,,,,,,,,,,,,,,,,,,,,,,,,,,,,
1577376213,102,0,4271.282227,4859.487305,4413.846191,4273.333496,4143.589844,450,4,,,,0,4,0,0,4,1,51,0,0.769523,0.450439,0.349609,-0.287598,0.822278,-0.445319,-0.34815,-13.473042,-57.737953,39.653996,,,,,,,,,,,,,,,,,,,,,,,,,
1577376213,103,0,4270.256348,4885.641113,4357.94873,4266.153809,4132.307617,104,4,,,,0,4,0,0,4,1,,,,,,,,,,,,,2.797235,3.394908,1.867232,4.203048,2.021523,1.316074,1.50472,2.094085,2.987424,8.249523,0.540132,0.270028,0.361472,4.894568,5.782861,2.912108,2.079427,1.9569,0.825719,0.790087,1.70811,2.058923,2.569934,76.28672,18.910938
1577376213,104,0,4269.230957,4909.230957,4348.205078,4233.333496,4118.974121,450,4,,,,0,4,0,0,4,1,52,0,0.769737,0.450195,0.349854,-0.287109,0.832532,-0.433112,-0.360357,-13.980014,-57.706436,39.516781,,,,,,,,,,,,,,,,,,,,,,,,,
1577376213,105,0,4300,4910.256348,4384.102539,4251.282227,4144.615234,450,4,,,,0,4,0,0,4,1,,,,,,,,,,,,,,,,,,,,,,,,,,,,,,,,,,,,,
1577376213,106,0,4300,4882.563965,4391.282227,4254.358887,4152.307617,450,4,,,,0,4,0,0,4,1,53,0,0.76988,0.449951,0.349854,-0.287109,0.825208,-0.451179,-0.359869,-14.615735,-57.678066,39.453098,,,,,,,,,,,,,,,,,,,,,,,,,
1577376213,107,0,4265.128418,4858.974121,4400.512695,4237.436035,4185.128418,104,4,,,,0,4,0,0,4,1,,,,,,,,,,,,,,,,,,,,,,,,,,,,,,,,,,,,,
1577376213,108,0,4280.512695,4875.897461,4369.230957,4246.666504,4189.743652,450,4,,,,0,4,0,0,4,1,54,0,0.769971,0.449951,0.349854,-0.286865,0.828138,-0.437507,-0.354498,-13.273792,-57.772167,39.39579,,,,,,,,,,,,,,,,,,,,,,,,,
1577376213,109,0,4305.128418,4915.897461,4367.692383,4242.05127,4102.05127,450,4,,,,0,4,0,0,4,1,,,,,,,,,,,,,,,,,,,,,,,,,,,,,,,,,,,,,
1577376213,110,0,4306.153809,4916.922852,4386.666504,4242.563965,4081.025635,450,4,,,,0,4,0,0,4,1,55,0,0.770204,0.449707,0.349854,-0.286621,0.831067,-0.43946,-0.354498,-13.860504,-57.557777,39.46384,,,,,,,,,,,,,,,,,,,,,,,,,
1577376213,111,0,4287.692383,4873.846191,4364.615234,4227.692383,4143.589844,104,4,,,,0,4,0,0,4,1,,,,,,,,,,,,,,,,,,,,,,,,,,,,,,,,,,,,,
1577376213,112,0,4277.94873,4873.333496,4380,4207.692383,4242.563965,450,4,,,,0,4,0,0,4,1,56,0,0.770437,0.449463,0.349854,-0.286377,0.827649,-0.441413,-0.354009,-12.594085,-57.604092,39.405453,,,,,,,,,,,,,,,,,,,,,,,,,
1577376213,113,0,4301.025879,4887.692383,4385.128418,4222.05127,4228.205078,450,4,,,,0,4,0,0,4,1,,,,,,,,,,,,,,,,,,,,,,,,,,,,,,,,,,,,,
1577376213,114,0,4312.820313,4886.153809,4383.589844,4226.666504,4081.538574,450,4,,,,0,4,0,0,4,1,57,0,0.770327,0.449463,0.350098,-0.286377,0.833021,-0.43946,-0.355962,-13.129137,-57.765404,39.472538,,,,,,,,,,,,,,,,,,,,,,,,,
1577376213,115,0,4336.922852,4874.871582,4396.410156,4240.512695,4052.307617,104,4,,,,0,4,0,0,4,1,,,,,,,,,,,,,,,,,,,,,,,,,,,,,,,,,,,,,
1577376213,116,0,4348.717773,4871.794922,4366.666504,4259.487305,4176.410156,450,4,,,,0,4,0,0,4,1,58,0,0.770469,0.449219,0.350098,-0.286377,0.833997,-0.446296,-0.352056,-13.6705,-57.671322,39.413284,,,,,,,,,,,,,,,,,,,,,,,,,
1577376213,117,0,4298.974121,4897.94873,4371.794922,4260.512695,4249.743652,450,4,,,,0,4,0,0,4,1,,,,,,,,,,,,,,,,,,,,,,,,,,,,,,,,,,,,,
1577376213,118,0,4276.410156,4874.871582,4390.769043,4263.077148,4216.410156,450,4,,,,0,4,0,0,4,1,59,0,0.77056,0.449219,0.350098,-0.286133,0.816907,-0.438972,-0.349126,-14.217542,-57.70628,39.359955,,,,,,,,,,,,,,,,,,,,,,,,,
1577376213,119,0,4302.05127,4857.436035,4402.05127,4244.615234,4156.922852,104,4,,,,0,4,0,0,4,1,,,,,,,,,,,,,1.910719,1.984928,1.585246,4.298801,2.254706,1.214138,1.404354,2.249554,2.998913,9.442054,0.465097,0.282277,0.424806,4.033188,4.964659,3.115486,1.635069,1.641218,0.792224,0.877934,1.632092,1.906026,3.108331,78.064301,19.040743
1577376213,120,0,4334.358887,4914.871582,4410.256348,4232.820313,4163.077148,450,4,,,,0,4,0,0,4,1,60,0,0.770702,0.448975,0.350098,-0.286133,0.825208,-0.43653,-0.345708,-14.769694,-57.737743,39.371773,,,,,,,,,,,,,,,,,,,,,,,,,
1577376213,121,0,4342.563965,4916.922852,4364.102539,4231.282227,4149.230957,450,4,,,,0,4,0,0,4,1,,,,,,,,,,,,,,,,,,,,,,,,,,,,,,,,,,,,,
1577376213,122,0,4332.307617,4869.743652,4364.102539,4220,4120.512695,450,4,,,,0,4,0,0,4,1,61,0,0.770702,0.448975,0.350098,-0.286133,0.822766,-0.427253,-0.355962,-15.087186,-57.825874,39.561855,,,,,,,,,,,,,,,,,,,,,,,,,
1577376213,123,0,4357.436035,4878.974121,4395.384766,4221.538574,4166.153809,104,4,,,,0,4,0,0,4,1,,,,,,,,,,,,,,,,,,,,,,,,,,,,,,,,,,,,,
1577376213,124,0,4356.922852,4900.512695,4399.487305,4224.102539,4185.641113,450,4,,,,0,4,0,0,4,1,62,0,0.770935,0.44873,0.350098,-0.285889,0.835462,-0.440436,-0.349615,-15.372929,-57.845379,39.553486,,,,,,,,,,,,,,,,,,,,,,,,,
1577376213,125,0,4327.692383,4889.743652,4406.666504,4240,4207.692383,450,4,,,,0,4,0,0,4,1,,,,,,,,,,,,,,,,,,,,,,,,,,,,,,,,,,,,,
1577376213,126,0,4330.256348,4881.025879,4374.358887,4240,4196.410156,450,4,,,,0,4,0,0,4,1,63,0,0.771077,0.448486,0.350098,-0.285889,0.819348,-0.430182,-0.373053,-15.749727,-57.743301,39.665581,,,,,,,,,,,,,,,,,,,,,,,,,
1577376213,127,0,4343.589844,4894.358887,4373.333496,4216.410156,4102.563965,239,4,,,,0,4,0,0,4,1,,,,,,,,,,,,,,,,,,,,,,,,,,,,,,,,,,,,,
1577376213,0,0,4379.487305,4904.615234,4396.922852,4242.563965,4097.94873,450,4,,,,0,4,0,0,4,1,0,0,0.771077,0.448486,0.350098,-0.285889,0.829114,-0.458503,-0.344244,-16.029032,-57.711246,39.766468,,,,,,,,,,,,,,,,,,,,,,,,,
1577376213,1,0,4368.205078,4882.563965,4387.692383,4270.769043,4157.94873,450,4,,,,0,4,0,0,4,1,,,,,,,,,,,,,,,,,,,,,,,,,,,,,,,,,,,,,
1577376213,2,0,4306.666504,4848.717773,4400,4257.436035,4233.846191,16183,4,,,,0,4,0,0,4,1,1,0,0.771077,0.448486,0.350098,-0.285889,0.819837,-0.436042,-0.351568,-16.280405,-57.622581,39.797451,,,,,,,,,,,,,,,,,,,,,,,,,
1577376213,3,0,4302.563965,4860.512695,4391.794922,4244.102539,4207.692383,450,4,,,,0,4,0,0,4,1,,,,,,,,,,,,,,,,,,,,,,,,,,,,,,,,,,,,,
1577376213,4,0,4326.153809,4915.897461,4394.358887,4242.05127,4059.487061,0,4,,,,0,4,0,0,4,1,2,0,0.771108,0.448242,0.350342,-0.285889,0.833509,-0.435065,-0.361334,-16.446825,-57.602596,39.825336,,,,,,,,,,,,,,,,,,,,,,,,,
1577376213,5,0,4369.230957,4911.282227,4407.179688,4253.846191,4046.153809,450,4,,,,0,4,0,0,4,1,,,,,,,,,,,,,,,,,,,,,,,,,,,,,,,,,,,,,
1577376213,6,0,4370.256348,4868.717773,4373.333496,4247.179688,4138.461426,0,4,,,,0,4,0,0,4,1,3,0,0.771108,0.448242,0.350342,-0.285889,0.834485,-0.430671,-0.350591,-16.596603,-57.764057,39.85043,,,,,,,,,,,,,,,,,,,,,,,,,
1577376213,7,0,4310.256348,4882.563965,4384.102539,4233.846191,4222.05127,450,4,,,,0,4,0,0,4,1,,,,,,,,,,,,,1.279619,1.254748,1.442026,4.490783,2.651585,1.133502,1.340144,2.582269,3.096149,10.772806,0.392918,0.283883,0.452471,3.93357,4.735588,3.055653,1.337251,1.339366,0.841681,1.014833,1.543037,1.774135,3.888231,80.383194,18.762949
1577376213,8,0,4325.128418,4921.025879,4408.205078,4245.641113,4192.307617,450,4,,,,0,4,0,0,4,1,4,0,0.771108,0.448242,0.350342,-0.285889,0.823743,-0.437507,-0.349615,-16.910851,-57.789742,39.992649,,,,,,,,,,,,,,,,,,,,,,,,,
1577376213,9,0,4360.512695,4930.256348,4411.794922,4247.692383,4071.794922,16170,4,,,,0,4,0,0,4,1,,,,,,,,,,,,,,,,,,,,,,,,,,,,,,,,,,,,,
1577376213,10,0,4363.077148,4890.769043,4405.641113,4262.05127,4090.256348,450,4,,,,0,4,0,0,4,1,5,0,0.77125,0.447998,0.350342,-0.285889,0.837903,-0.441413,-0.355962,-17.074041,-57.633411,40.001011,,,,,,,,,,,,,,,,,,,,,,,,,
1577376213,11,0,4358.461426,4851.794922,4365.641113,4272.307617,4127.692383,98,4,,,,0,4,0,0,4,1,,,,,,,,,,,,,,,,,,,,,,,,,,,,,,,,,,,,,
1577376213,12,0,4335.897461,4886.153809,4378.461426,4257.94873,4076.923096,450,4,,,,0,4,0,0,4,1,6,0,0.77134,0.447998,0.350342,-0.285645,0.831556,-0.429694,-0.355962,-17.220913,-57.672161,39.888908,,,,,,,,,,,,,,,,,,,,,,,,,
1577376213,13,0,4344.102539,4930.256348,4407.179688,4267.179688,4133.846191,450,4,,,,0,4,0,0,4,1,,,,,,,,,,,,,,,,,,,,,,,,,,,,,,,,,,,,,
1577376213,14,0,4333.846191,4891.794922,4411.282227,4267.179688,4198.974121,450,4,,,,0,4,0,0,4,1,7,0,0.771451,0.447998,0.350098,-0.285645,0.816907,-0.435065,-0.362799,-17.532545,-57.766853,39.788017,,,,,,,,,,,,,,,,,,,,,,,,,
1577376213,15,0,4309.743652,4845.128418,4413.846191,4260.512695,4185.128418,98,4,,,,0,4,0,0,4,1,,,,,,,,,,,,,,,,,,,,,,,,,,,,,,,,,,,,,
1577376213,16,0,4324.102539,4887.179688,4374.358887,4256.922852,4118.461426,0,4,,,,0,4,0,0,4,1,8,0,0.771572,0.447754,0.350342,-0.2854,0.836927,-0.43946,-0.358404,-17.633566,-57.852074,39.697216,,,,,,,,,,,,,,,,,,,,,,,,,
1577376213,17,0,4337.94873,4932.820313,4377.94873,4260.512695,4060.512939,0,4,,,,0,4,0,0,4,1,,,,,,,,,,,,,,,,,,,,,,,,,,,,,,,,,,,,,
1577376213,18,0,4361.025879,4908.205078,4404.615234,4294.871582,4076.923096,0,4,,,,0,4,0,0,4,1,9,0,0.771714,0.44751,0.350342,-0.2854,0.832532,-0.445808,-0.36524,-17.724485,-57.928772,39.735123,,,,,,,,,,,,,,,,,,,,,,,,,
1577376213,19,0,4326.666504,4880,4394.871582,4281.538574,4110.769043,0,4,,,,0,4,0,0,4,1,,,,,,,,,,,,,,,,,,,,,,,,,,,,,,,,,,,,,
1577376213,20,0,4283.077148,4896.922852,4402.563965,4251.794922,4187.692383,0,4,,,,0,4,0,0,4,1,10,0,0.771714,0.44751,0.350342,-0.2854,0.817395,-0.441413,-0.355962,-17.806314,-57.87817,39.769241,,,,,,,,,,,,,,,,,,,,,,,,,
1577376213,21,0,4329.743652,4911.282227,4390.769043,4275.897461,4187.692383,0,4,,,,0,4,0,0,4,1,,,,,,,,,,,,,,,,,,,,,,,,,,,,,,,,,,,,,
1577376213,22,0,4354.871582,4888.205078,4396.410156,4285.641113,4047.692383,0,4,,,,0,4,0,0,4,1,11,0,0.771855,0.447266,0.350342,-0.2854,0.814954,-0.43653,-0.356451,-16.145313,-57.712997,39.740131,,,,,,,,,,,,,,,,,,,,,,,,,
1577376213,23,0,4343.077148,4862.563965,4406.666504,4274.871582,4032.307617,0,4,,,,0,4,0,0,4,1,,,,,,,,,,,,,0.930001,0.997767,1.438463,4.641931,3.098646,1.098688,1.298539,3.077217,3.262359,11.958065,0.343503,0.286421,0.434919,4.60609,5.195522,2.757705,1.210033,1.123338,0.953132,1.167928,1.507728,1.709853,4.755718,82.737556,18.285448
1577376213,24,0,4314.871582,4882.563965,4376.922852,4270.256348,4102.563965,0,4,,,,0,4,0,0,4,1,12,0,0.771855,0.447266,0.350342,-0.2854,0.809094,-0.455085,-0.360845,-16.265427,-57.803604,39.833561,,,,,,,,,,,,,,,,,,,,,,,,,
1577376213,25,0,4285.128418,4917.94873,4383.077148,4288.717773,4192.820313,0,4,,,,0,4,0,0,4,1,,,,,,,,,,,,,,,,,,,,,,,,,,,,,,,,,,,,,
1577376213,26,0,4302.563965,4874.871582,4388.205078,4314.358887,4186.153809,0,4,,,,0,4,0,0,4,1,13,0,0.771906,0.447021,0.350342,-0.285645,0.82472,-0.438972,-0.354009,-16.552977,-57.825333,39.917652,,,,,,,,,,,,,,,,,,,,,,,,,
1577376213,27,0,4301.025879,4837.436035,4422.563965,4290.256348,4063.589844,0,4,,,,0,4,0,0,4,1,,,,,,,,,,,,,,,,,,,,,,,,,,,,,,,,,,,,,
1577376213,28,0,4305.641113,4894.358887,4406.666504,4280.512695,4047.179443,0,4,,,,0,4,0,0,4,1,14,0,0.771816,0.447021,0.350342,-0.285889,0.832532,-0.443366,-0.365728,-16.811771,-58.024338,39.993332,,,,,,,,,,,,,,,,,,,,,,,,,
1577376213,29,0,4313.333496,4931.794922,4340.512695,4280,4102.05127,0,4,,,,0,4,0,0,4,1,,,,,,,,,,,,,,,,,,,,,,,,,,,,,,,,,,,,,
1577376213,30,0,4289.230957,4888.205078,4404.615234,4261.025879,4137.436035,0,4,,,,0,4,0,0,4,1,15,0,0.771836,0.447021,0.350098,-0.286133,0.833509,-0.43653,-0.35938,-17.1045,-58.023994,40.061443,,,,,,,,,,,,,,,,,,,,,,,,,
1577376214,31,0,4291.794922,4840,4445.128418,4287.692383,4165.128418,0,4,,,,0,4,0,0,4,1,,,,,,,,,,,,,,,,,,,,,,,,,,,,,,,,,,,,,
1577376214,32,0,4285.128418,4883.077148,4398.974121,4296.922852,4133.846191,0,4,,,,0,4,0,0,4,1,16,0,0.771906,0.447021,0.350342,-0.285645,0.82472,-0.438972,-0.354009,-15.453866,-57.963867,40.122742,,,,,,,,,,,,,,,,,,,,,,,,,
1577376214,33,0,4280.512695,4922.563965,4360.512695,4287.179688,4124.615234,0,4,,,,0,4,0,0,4,1,,,,,,,,,,,,,,,,,,,,,,,,,,,,,,,,,,,,,
1577376214,34,0,4283.589844,4869.230957,4346.153809,4298.974121,4106.153809,0,4,,,,0,4,0,0,4,1,17,0,0.771836,0.447021,0.350098,-0.286133,0.833509,-0.43653,-0.35938,-15.882386,-57.969574,40.177914,,,,,,,,,,,,,,,,,,,,,,,,,
1577376214,35,0,4270.256348,4862.563965,4415.897461,4290.256348,4058.461426,0,4,,,,0,4,0,0,4,1,,,,,,,,,,,,,,,,,,,,,,,,,,,,,,,,,,,,,
1577376214,36,0,4298.974121,4904.615234,4437.94873,4295.384766,4095.897461,0,4,,,,0,4,0,0,4,1,18,0,0.772058,0.447021,0.349609,-0.286133,0.825208,-0.445319,-0.357427,-16.268055,-57.91489,40.167751,,,,,,,,,,,,,,,,,,,,,,,,,
1577376214,37,0,4300.512695,4886.666504,4380,4283.589844,4153.846191,0,4,,,,0,4,0,0,4,1,,,,,,,,,,,,,,,,,,,,,,,,,,,,,,,,,,,,,
1577376214,38,0,4271.794922,4863.589844,4332.307617,4257.436035,4204.102539,0,4,,,,0,4,0,0,4,1,19,0,0.772047,0.447266,0.349121,-0.286377,0.828138,-0.430182,-0.354498,-16.615156,-57.865677,40.278236,,,,,,,,,,,,,,,,,,,,,,,,,
1577376214,39,0,4278.974121,4865.128418,4327.692383,4272.820313,4152.307617,0,4,,,,0,4,0,0,4,1,,,,,,,,,,,,,0.821959,0.982846,1.512595,4.711722,3.492496,1.11254,1.27532,3.611733,3.456516,12.671212,0.326587,0.296308,0.3816,5.770134,6.160281,2.275798,1.296431,1.023958,1.104125,1.297913,1.580642,1.746374,5.513511,84.294571,17.856716
1577376214,40,0,4280.512695,4890.256348,4416.410156,4286.153809,4042.564209,0,4,,,,0,4,0,0,4,1,20,0,0.772066,0.447266,0.348877,-0.286621,0.822766,-0.426764,-0.363287,-16.867733,-57.821384,40.138412,,,,,,,,,,,,,,,,,,,,,,,,,
1577376214,41,0,4285.641113,4899.487305,4452.307617,4298.461426,4058.974365,0,4,,,,0,4,0,0,4,1,,,,,,,,,,,,,,,,,,,,,,,,,,,,,,,,,,,,,
1577376214,42,0,4285.641113,4874.871582,4360.512695,4291.282227,4107.692383,0,4,,,,0,4,0,0,4,1,21,0,0.772196,0.447266,0.348389,-0.286865,0.836927,-0.436042,-0.360357,-17.035236,-57.841335,40.132198,,,,,,,,,,,,,,,,,,,,,,,,,
1577376214,43,0,4266.153809,4896.410156,4306.153809,4264.615234,4169.230957,0,4,,,,0,4,0,0,4,1,,,,,,,,,,,,,,,,,,,,,,,,,,,,,,,,,,,,,
1577376214,44,0,4260.512695,4922.563965,4323.589844,4268.717773,4201.025879,0,4,,,,0,4,0,0,4,1,22,0,0.772196,0.447266,0.348389,-0.286865,0.82472,-0.428229,-0.370123,-15.451343,-57.739662,40.246239,,,,,,,,,,,,,,,,,,,,,,,,,
1577376214,45,0,4261.025879,4906.153809,4428.205078,4258.974121,4134.358887,0,4,,,,0,4,0,0,4,1,,,,,,,,,,,,,,,,,,,,,,,,,,,,,,,,,,,,,
1577376214,46,0,4286.153809,4883.589844,4448.717773,4258.974121,4082.05127,0,4,,,,0,4,0,0,4,1,23,0,0.772338,0.447021,0.348389,-0.286865,0.829602,-0.436042,-0.354498,-15.760485,-57.767788,40.289063,,,,,,,,,,,,,,,,,,,,,,,,,
1577376214,47,0,4308.717773,4861.538574,4332.307617,4278.461426,4061.538574,0,4,,,,0,4,0,0,4,1,,,,,,,,,,,,,,,,,,,,,,,,,,,,,,,,,,,,,
1577376214,48,0,4282.563965,4857.436035,4344.102539,4280,4137.94873,0,4,,,,0,4,0,0,4,1,24,0,0.772338,0.447021,0.348389,-0.286865,0.820813,-0.435065,-0.371099,-16.098528,-57.673466,40.387417,,,,,,,,,,,,,,,,,,,,,,,,,
1577376214,49,0,4246.153809,4873.846191,4409.743652,4274.358887,4217.94873,0,4,,,,0,4,0,0,4,1,,,,,,,,,,,,,,,,,,,,,,,,,,,,,,,,,,,,,
1577376214,50,0,4238.974121,4903.077148,4394.358887,4242.05127,4151.794922,0,4,,,,0,4,0,0,4,1,25,0,0.772369,0.446777,0.348633,-0.286865,0.80763,-0.433112,-0.359869,-16.522398,-57.70821,40.29649,,,,,,,,,,,,,,,,,,,,,,,,,
1577376214,51,0,4271.282227,4897.94873,4351.282227,4257.94873,4105.128418,0,4,,,,0,4,0,0,4,1,,,,,,,,,,,,,,,,,,,,,,,,,,,,,,,,,,,,,
1577376214,52,0,4282.563965,4883.589844,4322.05127,4287.179688,4107.692383,0,4,,,,0,4,0,0,4,1,26,0,0.772459,0.446777,0.348633,-0.286621,0.816907,-0.438972,-0.373053,-16.724434,-57.679665,40.214653,,,,,,,,,,,,,,,,,,,,,,,,,
1577376214,53,0,4266.153809,4894.358887,4386.153809,4253.333496,4111.794922,0,4,,,,0,4,0,0,4,1,,,,,,,,,,,,,,,,,,,,,,,,,,,,,,,,,,,,,
1577376214,54,0,4294.358887,4891.282227,4414.358887,4266.666504,4160.512695,0,4,,,,0,4,0,0,4,1,27,0,0.77257,0.446777,0.348389,-0.286621,0.819837,-0.436042,-0.361822,-16.966082,-57.594158,40.32045,,,,,,,,,,,,,,,,,,,,,,,,,
1577376214,55,0,4303.589844,4882.05127,4381.025879,4284.615234,4168.205078,0,4,,,,0,4,0,0,4,1,,,,,,,,,,,,,0.848234,1.082825,1.592116,4.75235,3.761873,1.152088,1.277028,4.010855,3.612282,12.719037,0.33796,0.309115,0.310093,7.050945,7.24986,1.772314,1.63169,1.023623,1.262345,1.374197,1.739578,1.857265,5.96979,84.391525,17.624718
1577376214,56,0,4270.769043,4896.410156,4374.871582,4264.615234,4171.282227,0,4,,,,0,4,0,0,4,1,28,0,0.77266,0.446777,0.348389,-0.286377,0.826673,-0.437995,-0.363287,-17.243382,-57.756462,40.236217,,,,,,,,,,,,,,,,,,,,,,,,,
1577376214,57,0,4263.589844,4895.897461,4347.692383,4257.436035,4149.230957,0,4,,,,0,4,0,0,4,1,,,,,,,,,,,,,,,,,,,,,,,,,,,,,,,,,,,,,
1577376214,58,0,4282.05127,4864.615234,4386.153809,4256.410156,4089.230713,0,4,,,,0,4,0,0,4,1,29,0,0.77255,0.446777,0.348633,-0.286377,0.828626,-0.446296,-0.361334,-17.433134,-57.723091,40.220226,,,,,,,,,,,,,,,,,,,,,,,,,
1577376214,59,0,4314.871582,4868.205078,4409.230957,4281.538574,4098.974121,0,4,,,,0,4,0,0,4,1,,,,,,,,,,,,,,,,,,,,,,,,,,,,,,,,,,,,,
1577376214,60,0,4302.05127,4895.897461,4364.615234,4266.666504,4136.922852,0,4,,,,0,4,0,0,4,1,30,0,0.772691,0.446533,0.348633,-0.286377,0.820813,-0.428229,-0.350591,-17.603912,-57.633244,40.205833,,,,,,,,,,,,,,,,,,,,,,,,,
1577376214,61,0,4254.871582,4896.410156,4374.871582,4225.641113,4211.794922,0,4,,,,0,4,0,0,4,1,,,,,,,,,,,,,,,,,,,,,,,,,,,,,,,,,,,,,
1577376214,62,0,4263.589844,4870.769043,4378.974121,4241.025879,4216.922852,0,4,,,,0,4,0,0,4,1,31,0,0.772781,0.446533,0.348633,-0.286133,0.817884,-0.437995,-0.366705,-17.877245,-57.492561,40.252693,,,,,,,,,,,,,,,,,,,,,,,,,
1577376214,63,0,4298.461426,4854.358887,4396.922852,4258.974121,4085.128174,0,4,,,,0,4,0,0,4,1,,,,,,,,,,,,,,,,,,,,,,,,,,,,,,,,,,,,,
1577376214,64,0,4313.846191,4881.025879,4407.179688,4256.410156,4049.230713,450,4,,,,0,4,0,0,4,1,32,0,0.772872,0.446533,0.348633,-0.285889,0.832532,-0.441901,-0.360845,-16.149336,-57.545399,40.235054,,,,,,,,,,,,,,,,,,,,,,,,,
1577376214,65,0,4286.666504,4903.589844,4353.333496,4233.846191,4149.230957,450,4,,,,0,4,0,0,4,1,,,,,,,,,,,,,,,,,,,,,,,,,,,,,,,,,,,,,
1577376214,66,0,4254.358887,4897.94873,4360.512695,4220,4250.769043,16196,4,,,,0,4,0,0,4,1,33,0,0.773103,0.446289,0.348633,-0.285645,0.82472,-0.434089,-0.360357,-16.388678,-57.652763,40.159363,,,,,,,,,,,,,,,,,,,,,,,,,
1577376214,67,0,4280.512695,4865.641113,4391.794922,4231.282227,4222.05127,450,4,,,,0,4,0,0,4,1,,,,,,,,,,,,,,,,,,,,,,,,,,,,,,,,,,,,,
1577376214,68,0,4306.666504,4875.384766,4403.077148,4210.769043,4121.025879,0,4,,,,0,4,0,0,4,1,34,0,0.773244,0.446045,0.348633,-0.285645,0.819348,-0.432135,-0.367193,-16.604086,-57.689579,40.151054,,,,,,,,,,,,,,,,,,,,,,,,,
1577376214,69,0,4302.563965,4912.307617,4401.025879,4197.94873,4108.205078,450,4,,,,0,4,0,0,4,1,,,,,,,,,,,,,,,,,,,,,,,,,,,,,,,,,,,,,
1577376214,70,0,4284.615234,4876.922852,4355.384766,4209.230957,4106.153809,0,4,,,,0,4,0,0,4,1,35,0,0.773334,0.446045,0.348633,-0.2854,0.814954,-0.44239,-0.347173,-16.917585,-57.662895,40.083763,,,,,,,,,,,,,,,,,,,,,,,,,
1577376214,71,0,4277.436035,4846.666504,4367.692383,4230.256348,4110.769043,450,4,,,,0,4,0,0,4,1,,,,,,,,,,,,,0.90317,1.257272,1.641706,4.824686,3.872277,1.18104,1.333748,4.107071,3.663395,12.130118,0.368078,0.314838,0.255757,8.078233,8.139037,1.336595,2.158981,1.089089,1.398716,1.386614,1.915701,1.972141,6.03583,82.807419,17.57398
1577376214,72,0,4302.05127,4894.871582,4400,4251.282227,4191.794922,450,4,,,,0,4,0,0,4,1,36,0,0.773565,0.445801,0.348633,-0.285156,0.825208,-0.434577,-0.363287,-17.139917,-57.638882,40.142834,,,,,,,,,,,,,,,,,,,,,,,,,
1577376214,73,0,4294.358887,4941.538574,4401.538574,4218.974121,4200,16141,4,,,,0,4,0,0,4,1,,,,,,,,,,,,,,,,,,,,,,,,,,,,,,,,,,,,,
1577376214,74,0,4278.461426,4891.794922,4401.025879,4193.846191,4170.769043,450,4,,,,0,4,0,0,4,1,37,0,0.773655,0.445801,0.348633,-0.284912,0.828138,-0.4336,-0.364263,-17.280203,-57.677082,40.315624,,,,,,,,,,,,,,,,,,,,,,,,,
1577376214,75,0,4292.307617,4832.307617,4364.615234,4205.128418,4150.769043,125,4,,,,0,4,0,0,4,1,,,,,,,,,,,,,,,,,,,,,,,,,,,,,,,,,,,,,
1577376214,76,0,4296.922852,4876.922852,4374.871582,4215.384766,4115.384766,450,4,,,,0,4,0,0,4,1,38,0,0.773885,0.445557,0.348633,-0.284668,0.819348,-0.445808,-0.369635,-17.526089,-57.591835,40.231876,,,,,,,,,,,,,,,,,,,,,,,,,
1577376214,77,0,4312.820313,4913.333496,4401.025879,4230.769043,4123.589844,450,4,,,,0,4,0,0,4,1,,,,,,,,,,,,,,,,,,,,,,,,,,,,,,,,,,,,,
1577376214,78,0,4292.307617,4889.743652,4376.410156,4210.256348,4163.589844,450,4,,,,0,4,0,0,4,1,39,0,0.773975,0.445557,0.348633,-0.284424,0.828138,-0.437018,-0.366217,-17.687572,-57.574924,40.156502,,,,,,,,,,,,,,,,,,,,,,,,,
