Timestamp,EEG.Counter,EEG.Interpolated,EEG.AF3,EEG.T7,EEG.Pz,EEG.T8,EEG.AF4,EEG.RawCq,EEG.Battery,MarkerIndex,MarkerType,MarkerValueInt,EEG.MarkerHardware,CQ.AF3,CQ.T7,CQ.Pz,CQ.T8,CQ.AF4,MOT.CounterMems,MOT.InterpolatedMems,MOT.Q0,MOT.Q1,MOT.Q2,MOT.Q3,MOT.AccX,MOT.AccY,MOT.AccZ,MOT.MagX,MOT.MagY,MOT.MagZ,POW.AF3.Theta,POW.AF3.Alpha,POW.AF3.BetaL,POW.AF3.BetaH,POW.AF3.Gamma,POW.T7.Theta,POW.T7.Alpha,POW.T7.BetaL,POW.T7.BetaH,POW.T7.Gamma,POW.Pz.Theta,POW.Pz.Alpha,POW.Pz.BetaL,POW.Pz.BetaH,POW.Pz.Gamma,POW.T8.Theta,POW.T8.Alpha,POW.T8.BetaL,POW.T8.BetaH,POW.T8.Gamma,POW.AF4.Theta,POW.AF4.Alpha,POW.AF4.BetaL,POW.AF4.BetaH,POW.AF4.Gamma
1577376463,59,0,4042.564209,4943.589844,4327.179688,4138.461426,4069.743652,0,4,,,,0,2,0,0,2,0,,,,,,,,,,,,,,,,,,,,,,,,,,,,,,,,,,,,,
1577376463,60,0,4053.333252,4882.563965,4320,4181.025879,4038.461426,0,4,,,,0,2,0,0,2,0,30,0,0.225875,0.677002,-0.082764,-0.695557,0.942397,-0.358404,-0.062501,-16.997169,-55.356815,44.04982,,,,,,,,,,,,,,,,,,,,,,,,,
1577376463,61,0,4068.205078,4800.512695,4383.589844,4130.256348,3969.743652,0,4,,,,0,2,0,0,2,0,,,,,,,,,,,,,,,,,,,,,,,,,,,,,,,,,,,,,
1577376463,62,0,4116.410156,4890.769043,4406.153809,4106.153809,3989.743652,0,4,,,,0,2,0,0,2,0,31,0,0.227195,0.677002,-0.083252,-0.695068,0.931655,-0.345708,-0.062013,-16.792837,-55.383965,44.01136,,,,,,,,,,,,,,,,,,,,,,,,,
1577376463,63,0,4086.153809,4929.230957,4351.794922,4114.358887,3974.358887,0,4,,,,0,2,0,0,2,0,,,,,,,,,,,,,,,,,,,,,,,,,,,,,,,,,,,,,
1577376463,64,0,4004.102539,4855.384766,4370.256348,4126.153809,4027.179443,450,4,,,,0,2,0,0,2,0,32,0,0.22787,0.677246,-0.083496,-0.69458,0.928237,-0.349126,-0.043458,-16.668753,-55.528027,44.03656,,,,,,,,,,,,,,,,,,,,,,,,,
1577376463,65,0,4023.589844,4866.153809,4356.922852,4174.871582,4097.94873,450,4,,,,0,2,0,0,2,0,,,,,,,,,,,,,,,,,,,,,,,,,,,,,,,,,,,,,
1577376463,66,0,4057.435791,4924.615234,4372.820313,4164.102539,4003.589844,294,4,,,,0,2,0,0,2,0,33,0,0.229264,0.677246,-0.08374,-0.694092,0.929702,-0.3252,-0.041505,-16.557077,-55.59787,43.999428,,,,,,,,,,,,,,,,,,,,,,,,,
1577376463,67,0,4094.871826,4898.461426,4413.846191,4141.538574,3956.410156,450,4,,,,0,2,0,0,2,0,,,,,,,,,,,,,3.753499,1.614118,2.097283,14.396481,6.161977,3.239211,5.723668,4.44057,5.558445,8.901308,1.440436,0.783943,0.983962,4.05035,6.934141,1.067206,1.120302,2.138395,13.741551,2.016765,1.848413,1.762283,4.600924,56.623787,6.891521
1577376463,68,0,4079.487061,4855.384766,4367.692383,4126.666504,4013.846191,0,4,,,,0,2,0,0,2,0,34,0,0.229174,0.677246,-0.083984,-0.694092,0.922866,-0.326665,-0.05713,-16.456568,-55.60091,43.966007,,,,,,,,,,,,,,,,,,,,,,,,,
1577376463,69,0,3989.230713,4876.410156,4357.436035,4097.94873,4058.461426,450,4,,,,0,2,0,0,2,0,,,,,,,,,,,,,,,,,,,,,,,,,,,,,,,,,,,,,
1577376463,70,0,4004.102539,4896.922852,4360.512695,4135.897461,4056.410156,0,4,,,,0,2,0,0,2,0,35,0,0.230719,0.677002,-0.08374,-0.693848,0.919448,-0.32813,-0.045899,-16.306295,-55.484016,43.935928,,,,,,,,,,,,,,,,,,,,,,,,,
1577376463,71,0,4074.358887,4865.128418,4377.436035,4173.846191,4023.589844,450,4,,,,0,2,0,0,2,0,,,,,,,,,,,,,,,,,,,,,,,,,,,,,,,,,,,,,
1577376463,72,0,4110.769043,4814.358887,4401.538574,4182.05127,4037.435791,450,4,,,,0,2,0,0,2,0,36,0,0.231434,0.676758,-0.08374,-0.693848,0.926284,-0.306645,-0.041505,-16.290682,-55.438629,43.908855,,,,,,,,,,,,,,,,,,,,,,,,,
1577376463,73,0,4069.230713,4850.256348,4348.205078,4170.769043,4005.641113,219,4,,,,0,2,0,0,2,0,,,,,,,,,,,,,,,,,,,,,,,,,,,,,,,,,,,,,
1577376463,74,0,3993.333252,4941.025879,4358.974121,4142.563965,3983.076904,450,4,,,,0,2,0,0,2,0,37,0,0.232945,0.67627,-0.083496,-0.693848,0.937514,-0.291997,-0.053223,-16.336443,-55.577229,43.884491,,,,,,,,,,,,,,,,,,,,,,,,,
1577376463,75,0,4031.794922,4910.256348,4406.666504,4157.94873,4048.205078,34,4,,,,0,2,0,0,2,0,,,,,,,,,,,,,,,,,,,,,,,,,,,,,,,,,,,,,
1577376463,76,0,4074.871826,4854.358887,4390.769043,4162.05127,4040.512939,450,4,,,,0,2,0,0,2,0,38,0,0.233653,0.676025,-0.083496,-0.693848,0.931655,-0.298833,-0.060548,-16.198183,-55.642147,43.922379,,,,,,,,,,,,,,,,,,,,,,,,,
1577376463,77,0,4066.666748,4892.820313,4368.205078,4156.410156,4028.205078,450,4,,,,0,2,0,0,2,0,,,,,,,,,,,,,,,,,,,,,,,,,,,,,,,,,,,,,
1577376463,78,0,4053.846191,4910.256348,4345.128418,4172.820313,4060.512939,450,4,,,,0,2,0,0,2,0,39,0,0.234992,0.675781,-0.08374,-0.693604,0.938003,-0.31397,-0.048829,-16.19338,-55.760395,43.836849,,,,,,,,,,,,,,,,,,,,,,,,,
1577376464,79,0,4032.307617,4897.94873,4381.025879,4170.256348,4044.615479,34,4,,,,0,2,0,0,2,0,,,,,,,,,,,,,,,,,,,,,,,,,,,,,,,,,,,,,
1577376464,80,0,4061.538574,4863.077148,4404.615234,4154.358887,4022.05127,450,4,,,,0,2,0,0,2,0,40,0,0.236237,0.675537,-0.084229,-0.693359,0.919936,-0.314946,-0.054688,-16.248873,-55.806999,43.759869,,,,,,,,,,,,,,,,,,,,,,,,,
1577376464,81,0,4030.769287,4831.794922,4380.512695,4127.692383,3989.743652,450,4,,,,0,2,0,0,2,0,,,,,,,,,,,,,,,,,,,,,,,,,,,,,,,,,,,,,
1577376464,82,0,3967.179443,4886.153809,4409.230957,4138.974121,4033.846191,450,4,,,,0,2,0,0,2,0,41,0,0.237993,0.675049,-0.085205,-0.693115,0.923842,-0.32813,-0.05127,-16.179184,-55.90876,43.870033,,,,,,,,,,,,,,,,,,,,,,,,,
1577376464,83,0,4012.820557,4916.410156,4402.563965,4196.410156,4094.358887,34,4,,,,0,2,0,0,2,0,,,,,,,,,,,,,3.00418,1.455581,1.826783,14.779301,6.221189,2.95357,5.552934,4.905831,5.688853,9.417892,1.354727,0.635872,0.780706,4.464213,7.0908,1.072315,1.082954,2.195208,13.986508,2.102967,1.480588,1.421648,3.988941,58.926277,7.272592
1577376464,84,0,4060.512939,4860.512695,4393.846191,4203.077148,4035.897461,450,4,,,,0,2,0,0,2,0,42,0,0.239554,0.674561,-0.08667,-0.692871,0.901381,-0.347662,-0.047364,-16.116465,-55.880711,43.849552,,,,,,,,,,,,,,,,,,,,,,,,,
1577376464,85,0,4087.692383,4840,4403.589844,4167.692383,3996.410156,450,4,,,,0,2,0,0,2,0,,,,,,,,,,,,,,,,,,,,,,,,,,,,,,,,,,,,,
1577376464,86,0,4058.461426,4882.05127,4368.205078,4142.05127,3982.05127,450,4,,,,0,2,0,0,2,0,43,0,0.240986,0.673828,-0.088379,-0.692871,0.876478,-0.352056,-0.050294,-16.29928,-55.975101,43.651672,,,,,,,,,,,,,,,,,,,,,,,,,
1577376464,87,0,3974.871826,4920.512695,4393.846191,4145.641113,4019.487061,34,4,,,,0,2,0,0,2,0,,,,,,,,,,,,,,,,,,,,,,,,,,,,,,,,,,,,,
1577376464,88,0,4001.538574,4903.589844,4418.461426,4179.487305,4069.743652,450,4,,,,0,2,0,0,2,0,44,0,0.237993,0.675049,-0.085205,-0.693115,0.923842,-0.32813,-0.05127,-16.224552,-56.060051,43.772659,,,,,,,,,,,,,,,,,,,,,,,,,
1577376464,89,0,4064.102539,4853.846191,4408.717773,4193.846191,4015.384521,450,4,,,,0,2,0,0,2,0,,,,,,,,,,,,,,,,,,,,,,,,,,,,,,,,,,,,,
1577376464,90,0,4083.076904,4873.333496,4410.256348,4194.358887,3997.435791,450,4,,,,0,2,0,0,2,0,45,0,0.240986,0.673828,-0.088379,-0.692871,0.876478,-0.352056,-0.050294,-16.396557,-56.136505,43.58247,,,,,,,,,,,,,,,,,,,,,,,,,
1577376464,91,0,4066.666748,4895.897461,4389.743652,4177.436035,3967.692383,34,4,,,,0,2,0,0,2,0,,,,,,,,,,,,,,,,,,,,,,,,,,,,,,,,,,,,,
1577376464,92,0,4030.769287,4860.512695,4384.615234,4146.153809,3942.05127,450,4,,,,0,2,0,0,2,0,46,0,0.242285,0.672852,-0.090332,-0.693115,0.895033,-0.369146,-0.050294,-16.192471,-56.1455,43.590744,,,,,,,,,,,,,,,,,,,,,,,,,
1577376464,93,0,4049.230713,4849.230957,4380,4149.230957,4012.820557,450,4,,,,0,2,0,0,2,0,,,,,,,,,,,,,,,,,,,,,,,,,,,,,,,,,,,,,
1577376464,94,0,4052.307617,4875.384766,4393.333496,4161.025879,4032.307617,450,4,,,,0,2,0,0,2,0,47,0,0.243465,0.671875,-0.092529,-0.693359,0.902846,-0.362799,-0.062989,-15.948977,-56.153595,43.59819,,,,,,,,,,,,,,,,,,,,,,,,,
1577376464,95,0,4048.205078,4895.384766,4414.871582,4181.538574,4038.461426,34,4,,,,0,2,0,0,2,0,,,,,,,,,,,,,,,,,,,,,,,,,,,,,,,,,,,,,
1577376464,96,0,4054.358887,4901.025879,4377.94873,4182.563965,4010.256348,450,4,,,,0,2,0,0,2,0,48,0,0.244039,0.671143,-0.094482,-0.693604,0.923842,-0.395026,-0.083009,-15.909279,-56.160877,43.545078,,,,,,,,,,,,,,,,,,,,,,,,,
1577376464,97,0,4027.179443,4900.512695,4393.846191,4146.666504,3928.718018,450,4,,,,0,2,0,0,2,0,,,,,,,,,,,,,,,,,,,,,,,,,,,,,,,,,,,,,
1577376464,98,0,4061.538574,4871.282227,4429.743652,4147.179688,3967.692383,450,4,,,,0,2,0,0,2,0,49,0,0.245261,0.670166,-0.096436,-0.693848,0.916518,-0.381842,-0.071778,-15.813735,-56.227249,43.497276,,,,,,,,,,,,,,,,,,,,,,,,,
1577376464,99,0,4063.076904,4876.922852,4413.333496,4148.717773,4046.153809,34,4,,,,0,2,0,0,2,0,,,,,,,,,,,,,2.404235,1.221293,1.52185,15.378835,6.442782,2.596587,5.150838,5.232201,5.658337,10.019133,1.216469,0.531078,0.634141,4.714217,7.281604,1.023733,1.031219,2.144032,14.301469,2.2143,1.197853,1.163838,3.259631,60.385014,7.808167
1577376464,100,0,4009.230713,4892.307617,4415.384766,4157.436035,4068.718018,450,4,,,,0,2,0,0,2,0,50,0,0.245989,0.669434,-0.0979,-0.694092,0.908217,-0.389654,-0.082033,-15.608114,-56.286983,43.573887,,,,,,,,,,,,,,,,,,,,,,,,,
1577376464,101,0,4033.846191,4844.102539,4400.512695,4193.333496,4026.153809,450,4,,,,0,2,0,0,2,0,,,,,,,,,,,,,,,,,,,,,,,,,,,,,,,,,,,,,
1577376464,102,0,4064.615479,4858.461426,4400,4181.538574,3924.102539,450,4,,,,0,2,0,0,2,0,51,0,0.24658,0.668457,-0.099609,-0.69458,0.884779,-0.408209,-0.069337,-15.602503,-56.28093,43.583019,,,,,,,,,,,,,,,,,,,,,,,,,
1577376464,103,0,4075.897461,4911.794922,4409.743652,4158.461426,3920.512939,34,4,,,,0,2,0,0,2,0,,,,,,,,,,,,,,,,,,,,,,,,,,,,,,,,,,,,,
1577376464,104,0,4023.076904,4870.256348,4388.717773,4131.794922,3993.333252,450,4,,,,0,2,0,0,2,0,52,0,0.247153,0.66748,-0.101318,-0.695068,0.899916,-0.417487,-0.083497,-15.358191,-56.215668,43.59124,,,,,,,,,,,,,,,,,,,,,,,,,
1577376464,105,0,3960.512939,4833.846191,4396.922852,4127.692383,4040.512939,450,4,,,,0,2,0,0,2,0,,,,,,,,,,,,,,,,,,,,,,,,,,,,,,,,,,,,,
1577376464,106,0,4010.769287,4868.205078,4406.153809,4174.871582,4054.358887,450,4,,,,0,2,0,0,2,0,53,0,0.247606,0.666504,-0.103271,-0.695557,0.884779,-0.426276,-0.090822,-15.317756,-56.276558,43.598637,,,,,,,,,,,,,,,,,,,,,,,,,
1577376464,107,0,4046.666748,4883.077148,4430.256348,4166.666504,4017.94873,34,4,,,,0,2,0,0,2,0,,,,,,,,,,,,,,,,,,,,,,,,,,,,,,,,,,,,,
1577376464,108,0,4069.743652,4871.282227,4402.563965,4141.538574,3974.871826,450,4,,,,0,2,0,0,2,0,54,0,0.248795,0.665283,-0.10498,-0.696045,0.909194,-0.423346,-0.086915,-15.34118,-56.211731,43.665112,,,,,,,,,,,,,,,,,,,,,,,,,
1577376464,109,0,4059.487061,4878.461426,4355.897461,4134.358887,3922.564209,450,4,,,,0,2,0,0,2,0,,,,,,,,,,,,,,,,,,,,,,,,,,,,,,,,,,,,,
1577376464,110,0,3973.846191,4887.179688,4404.615234,4124.615234,3976.923096,450,4,,,,0,2,0,0,2,0,55,0,0.248763,0.664551,-0.106445,-0.696533,0.935073,-0.41651,-0.09424,-15.302445,-56.213203,43.665119,,,,,,,,,,,,,,,,,,,,,,,,,
1577376464,111,0,4104.615234,4860,4380.512695,4236.410156,4156.922852,34,4,,,,0,2,0,0,2,0,,,,,,,,,,,,,,,,,,,,,,,,,,,,,,,,,,,,,
1577376464,112,0,3987.692383,4816.922852,4460,4061.538574,3745.641113,450,4,,,,0,2,0,0,2,0,56,0,0.249873,0.663818,-0.108398,-0.696533,0.943374,-0.421881,-0.099611,-15.147955,-56.154713,43.545498,,,,,,,,,,,,,,,,,,,,,,,,,
1577376464,113,0,3857.435791,4942.563965,4494.871582,4045.641113,4128.717773,450,4,,,,0,2,0,0,2,0,,,,,,,,,,,,,,,,,,,,,,,,,,,,,,,,,,,,,
1577376464,114,0,4629.230957,4824.102539,4116.410156,4640.512695,4457.94873,450,4,,,,0,2,0,0,2,0,57,0,0.250993,0.66333,-0.110352,-0.696289,0.911147,-0.441901,-0.086427,-15.128543,-56.281517,43.557472,,,,,,,,,,,,,,,,,,,,,,,,,
1577376464,115,0,3986.153809,4638.461426,4902.05127,3789.743652,2411.794922,34,4,,,,0,2,0,0,2,0,,,,,,,,,,,,,2.06616,0.993931,1.275706,16.194216,6.831429,2.263731,4.634681,5.317674,5.515429,10.633056,1.057541,0.48808,0.554299,4.801707,7.393069,0.91348,0.971233,2.054507,14.64712,2.306098,1.10598,1.009278,2.728763,60.613258,8.31786
1577376464,116,0,3353.846191,4965.641113,4873.333496,3477.435791,2918.461426,450,4,,,,0,2,0,0,2,0,58,0,0.25195,0.662598,-0.112549,-0.696289,0.891615,-0.449714,-0.086427,-15.230703,-56.335823,43.388802,,,,,,,,,,,,,,,,,,,,,,,,,
1577376464,117,0,4589.230957,4921.025879,2943.589844,4707.692383,4940.512695,450,4,,,,0,2,0,0,2,0,,,,,,,,,,,,,,,,,,,,,,,,,,,,,,,,,,,,,
1577376464,118,0,4346.666504,4764.102539,2905.128174,4271.282227,4141.538574,450,4,,,,0,2,0,0,2,0,59,0,0.253409,0.661621,-0.11499,-0.696289,0.862806,-0.463386,-0.082521,-15.143202,-56.504333,43.416443,,,,,,,,,,,,,,,,,,,,,,,,,
1577376464,119,0,3902.05127,4939.487305,3450.769287,3954.358887,4028.718018,34,4,,,,0,2,0,0,2,0,,,,,,,,,,,,,,,,,,,,,,,,,,,,,,,,,,,,,
1577376464,120,0,4329.230957,4846.666504,2849.230713,4374.871582,4431.794922,450,4,,,,0,2,0,0,2,0,60,0,0.253608,0.660645,-0.117188,-0.696777,0.846204,-0.471199,-0.085451,-15.064451,-56.536358,43.501133,,,,,,,,,,,,,,,,,,,,,,,,,
1577376464,121,0,4141.025879,4849.230957,2800.512939,4162.563965,4196.410156,450,4,,,,0,2,0,0,2,0,,,,,,,,,,,,,,,,,,,,,,,,,,,,,,,,,,,,,
1577376464,122,0,4174.871582,4921.538574,2831.794922,4211.282227,4238.974121,450,4,,,,0,2,0,0,2,0,61,0,0.253456,0.659668,-0.118652,-0.69751,0.857923,-0.435554,-0.080079,-14.814128,-56.32592,43.577358,,,,,,,,,,,,,,,,,,,,,,,,,
1577376464,123,0,4186.666504,4879.487305,2787.179443,4201.538574,4161.538574,34,4,,,,0,2,0,0,2,0,,,,,,,,,,,,,,,,,,,,,,,,,,,,,,,,,,,,,
1577376464,124,0,4131.282227,4851.282227,2842.05127,4163.077148,4154.358887,450,4,,,,0,2,0,0,2,0,62,0,0.253366,0.658447,-0.119873,-0.698486,0.877943,-0.399908,-0.099611,-14.648654,-56.555237,43.586143,,,,,,,,,,,,,,,,,,,,,,,,,
1577376464,125,0,4160,4830.769043,2803.076904,4196.410156,4142.563965,450,4,,,,0,2,0,0,2,0,,,,,,,,,,,,,,,,,,,,,,,,,,,,,,,,,,,,,
1577376464,126,0,4137.436035,4882.563965,2808.718018,4170.769043,4104.102539,450,4,,,,0,2,0,0,2,0,63,0,0.253494,0.657227,-0.120605,-0.699463,0.902846,-0.397955,-0.106935,-14.499726,-56.582172,43.474422,,,,,,,,,,,,,,,,,,,,,,,,,
1577376464,127,0,4156.410156,4895.384766,2802.564209,4175.384766,4125.641113,239,4,,,,0,2,0,0,2,0,,,,,,,,,,,,,,,,,,,,,,,,,,,,,,,,,,,,,
1577376464,0,0,4147.692383,4844.615234,2790.256348,4162.563965,4087.692383,450,4,,,,0,2,0,0,2,0,0,0,0.254283,0.656006,-0.121338,-0.700195,0.921889,-0.393561,-0.104494,-14.604953,-56.666229,43.373871,,,,,,,,,,,,,,,,,,,,,,,,,
1577376464,1,0,4158.461426,4850.769043,2804.615479,4176.922852,4105.641113,450,4,,,,0,2,0,0,2,0,,,,,,,,,,,,,,,,,,,,,,,,,,,,,,,,,,,,,
1577376464,2,0,4165.641113,4908.717773,2777.94873,4183.589844,4115.897461,299,4,,,,0,2,0,0,2,0,1,0,0.25506,0.654785,-0.12207,-0.700928,0.919448,-0.386236,-0.103029,-14.520211,-56.62225,43.283375,,,,,,,,,,,,,,,,,,,,,,,,,
1577376464,3,0,4137.94873,4912.307617,2787.692383,4164.102539,4075.897461,450,4,,,,0,2,0,0,2,0,,,,,,,,,,,,,1.971643,0.848103,1.14801,17.15262,7.636863,2.007863,4.122184,5.168205,5.264071,11.21237,2.348344,1.284527,1.100872,5.097736,7.816713,0.784587,0.937053,2.011794,15.042821,2.628623,1.397079,1.214609,3.19181,59.856388,9.472878
1577376464,4,0,4147.692383,4874.871582,2768.718018,4172.820313,4094.871826,0,4,,,,0,2,0,0,2,0,2,0,0.256058,0.653564,-0.122314,-0.70166,0.908705,-0.398444,-0.11133,-14.443944,-56.82193,43.201927,,,,,,,,,,,,,,,,,,,,,,,,,
1577376464,5,0,4166.153809,4859.487305,2759.487061,4186.666504,4087.179443,450,4,,,,0,2,0,0,2,0,,,,,,,,,,,,,,,,,,,,,,,,,,,,,,,,,,,,,
1577376464,6,0,4165.128418,4884.102539,2775.897461,4194.358887,4108.205078,0,4,,,,0,2,0,0,2,0,3,0,0.25771,0.652344,-0.122559,-0.702148,0.885267,-0.407721,-0.110842,-14.494933,-56.882015,43.128624,,,,,,,,,,,,,,,,,,,,,,,,,
1577376464,7,0,4173.846191,4889.743652,2687.179443,4202.563965,4111.794922,450,4,,,,0,2,0,0,2,0,,,,,,,,,,,,,,,,,,,,,,,,,,,,,,,,,,,,,
1577376464,8,0,4164.102539,4856.922852,2713.333252,4195.897461,4068.718018,450,4,,,,0,2,0,0,2,0,4,0,0.257834,0.651367,-0.123291,-0.702881,0.883803,-0.417487,-0.109377,-14.540824,-56.87627,43.122471,,,,,,,,,,,,,,,,,,,,,,,,,
1577376464,9,0,4171.794922,4851.794922,2688.205078,4215.897461,4123.589844,269,4,,,,0,2,0,0,2,0,,,,,,,,,,,,,,,,,,,,,,,,,,,,,,,,,,,,,
1577376464,10,0,4169.743652,4864.102539,2566.666748,4212.820313,4071.281982,450,4,,,,0,2,0,0,2,0,5,0,0.257951,0.650391,-0.124023,-0.703613,0.889662,-0.422858,-0.148928,-14.582126,-56.871105,42.997299,,,,,,,,,,,,,,,,,,,,,,,,,
1577376464,11,0,4143.589844,4892.820313,2653.333252,4195.384766,4069.230713,164,4,,,,0,2,0,0,2,2,,,,,,,,,,,,,,,,,,,,,,,,,,,,,,,,,,,,,
1577376464,12,0,4165.128418,4905.128418,2456.410156,4223.077148,4126.153809,450,4,,,,0,2,0,0,2,2,6,0,0.257993,0.649658,-0.125,-0.704102,0.899428,-0.413092,-0.158694,-14.619297,-57.045898,43.123905,,,,,,,,,,,,,,,,,,,,,,,,,
1577376464,13,0,4130.256348,4889.743652,2416.410156,4195.897461,4012.307617,450,4,,,,0,2,0,0,2,2,,,,,,,,,,,,,,,,,,,,,,,,,,,,,,,,,,,,,
1577376464,14,0,4134.358887,4864.615234,2481.025635,4213.846191,4134.358887,450,4,,,,0,2,0,0,2,2,7,0,0.258403,0.648682,-0.126465,-0.70459,0.874525,-0.437995,-0.174807,-14.592937,-56.963955,43.178036,,,,,,,,,,,,,,,,,,,,,,,,,
1577376464,15,0,4163.077148,4856.922852,1910.25647,4233.846191,4065.128174,164,4,,,,0,2,0,0,2,2,,,,,,,,,,,,,,,,,,,,,,,,,,,,,,,,,,,,,
1577376464,16,0,4073.846191,4900.512695,2436.410156,4165.128418,3964.615479,0,4,,,,0,2,0,0,2,2,8,0,0.257951,0.650391,-0.124023,-0.703613,0.889662,-0.422858,-0.148928,-14.688843,-57.009834,43.226753,,,,,,,,,,,,,,,,,,,,,,,,,
1577376464,17,0,4144.615234,4858.974121,2408.205078,4220,4253.846191,0,4,,,,0,2,0,0,2,2,,,,,,,,,,,,,,,,,,,,,,,,,,,,,,,,,,,,,
1577376464,18,0,4168.205078,4840.512695,1449.230713,4194.358887,3973.333252,0,4,,,,0,2,0,0,2,2,9,0,0.258403,0.648682,-0.126465,-0.70459,0.874525,-0.437995,-0.174807,-14.655527,-56.931496,43.270599,,,,,,,,,,,,,,,,,,,,,,,,,
1577376464,19,0,4063.589844,4903.077148,2403.589844,4126.153809,3860,0,4,,,,0,2,0,0,2,2,,,,,,,,,,,,,2.378553,0.865289,1.256105,18.402065,11.888172,1.82673,3.773911,4.876646,4.905782,11.874591,33.218422,12.675242,7.274836,8.441389,13.329618,0.767528,1.090883,2.279671,15.887209,6.151958,5.188146,6.539407,9.367836,63.687103,21.334078
1577376464,20,0,4130.256348,4874.358887,2534.871826,4208.717773,4161.025879,0,4,,,,0,2,0,0,2,2,10,0,0.257769,0.647705,-0.128662,-0.705322,0.852064,-0.449226,-0.175784,-14.804989,-56.980621,43.250248,,,,,,,,,,,,,,,,,,,,,,,,,
1577376464,21,0,4132.307617,4838.461426,1957.94873,4193.333496,4033.846191,0,4,,,,0,2,0,0,2,2,,,,,,,,,,,,,,,,,,,,,,,,,,,,,,,,,,,,,
1577376464,22,0,4104.102539,4853.333496,2343.589844,4167.692383,4031.794922,0,4,,,,0,2,0,0,2,2,11,0,0.257598,0.646484,-0.131104,-0.706055,0.814466,-0.452644,-0.170901,-14.819875,-57.084648,43.291744,,,,,,,,,,,,,,,,,,,,,,,,,
1577376464,23,0,4138.974121,4885.128418,2240,4190.256348,4073.846191,0,4,,,,0,2,0,0,2,2,,,,,,,,,,,,,,,,,,,,,,,,,,,,,,,,,,,,,
1577376464,24,0,4138.461426,4877.94873,2278.974365,4184.102539,4059.487061,0,4,,,,0,2,0,0,2,2,12,0,0.25758,0.645508,-0.133301,-0.706543,0.851575,-0.426276,-0.15967,-14.594009,-57.178276,43.089828,,,,,,,,,,,,,,,,,,,,,,,,,
1577376464,25,0,4159.487305,4824.102539,2288.205078,4190.256348,4091.281982,0,4,,,,0,2,0,0,2,2,,,,,,,,,,,,,,,,,,,,,,,,,,,,,,,,,,,,,
1577376464,26,0,4148.717773,4870.769043,2252.820557,4173.333496,4036.410156,0,4,,,,0,2,0,0,2,2,13,0,0.257855,0.644775,-0.13501,-0.706787,0.895033,-0.39942,-0.141604,-14.570177,-57.202721,43.087555,,,,,,,,,,,,,,,,,,,,,,,,,
1577376464,27,0,4148.205078,4936.922852,2341.538574,4184.102539,4080.512939,0,4,,,,0,2,0,0,2,2,,,,,,,,,,,,,,,,,,,,,,,,,,,,,,,,,,,,,
1577376464,28,0,4163.589844,4891.282227,2277.94873,4196.410156,4062.564209,0,4,,,,0,2,0,0,2,2,14,0,0.259706,0.644043,-0.13623,-0.706543,0.930678,-0.375982,-0.157717,-14.608543,-56.985462,43.205135,,,,,,,,,,,,,,,,,,,,,,,,,
1577376464,29,0,4144.615234,4844.102539,2349.743652,4183.589844,4058.974365,0,4,,,,0,2,0,0,2,2,,,,,,,,,,,,,,,,,,,,,,,,,,,,,,,,,,,,,
1577376464,30,0,4123.077148,4857.94873,2336.410156,4172.820313,4086.153809,0,4,,,,0,2,0,0,2,2,15,0,0.261652,0.643799,-0.137451,-0.705811,0.920424,-0.377447,-0.145998,-14.403812,-57.089008,43.011883,,,,,,,,,,,,,,,,,,,,,,,,,
1577376464,31,0,4098.461426,4869.230957,2352.820557,4157.436035,4018.974365,0,4,,,,0,2,0,0,2,2,,,,,,,,,,,,,,,,,,,,,,,,,,,,,,,,,,,,,
1577376464,32,0,4107.692383,4870.256348,2411.794922,4167.692383,4060,0,4,,,,0,2,0,0,2,2,16,0,0.264694,0.643311,-0.138916,-0.704834,0.91603,-0.395026,-0.126955,-14.279369,-57.182198,42.957584,,,,,,,,,,,,,,,,,,,,,,,,,
1577376464,33,0,4134.358887,4868.717773,2377.94873,4178.461426,4077.435791,0,4,,,,0,2,0,0,2,2,,,,,,,,,,,,,,,,,,,,,,,,,,,,,,,,,,,,,
1577376464,34,0,4134.871582,4869.743652,2417.435791,4173.846191,4055.897461,0,4,,,,0,2,0,0,2,2,17,0,0.268531,0.642578,-0.141113,-0.703613,0.865736,-0.442878,-0.126467,-14.16737,-57.08662,42.789085,,,,,,,,,,,,,,,,,,,,,,,,,
1577376464,35,0,4145.641113,4863.589844,2427.179443,4187.692383,4097.94873,0,4,,,,0,2,0,0,2,2,,,,,,,,,,,,,3.748161,1.172646,1.751271,20.316193,25.756018,1.715894,3.759871,4.591078,4.476169,12.90503,156.836212,54.951389,28.68685,20.358082,34.57262,1.199917,1.783728,3.336624,17.945274,18.940651,20.925533,27.778887,30.433636,83.534004,64.464928
1577376464,36,0,4146.153809,4868.717773,2402.564209,4185.641113,4058.974365,0,4,,,,0,2,0,0,2,2,18,0,0.272606,0.641602,-0.143799,-0.702393,0.837903,-0.483894,-0.148928,-13.94694,-57.120235,42.936516,,,,,,,,,,,,,,,,,,,,,,,,,
1577376464,37,0,4142.05127,4871.794922,2417.435791,4185.128418,4077.435791,0,4,,,,0,2,0,0,2,2,,,,,,,,,,,,,,,,,,,,,,,,,,,,,,,,,,,,,
1577376464,38,0,4151.282227,4841.025879,2433.333252,4188.205078,4082.564209,0,4,,,,0,2,0,0,2,2,19,0,0.276457,0.640625,-0.146729,-0.701172,0.82472,-0.502937,-0.143557,-13.808369,-57.150486,42.889755,,,,,,,,,,,,,,,,,,,,,,,,,
1577376464,39,0,4137.94873,4858.461426,2492.820557,4165.128418,4040,0,4,,,,0,2,0,0,2,2,,,,,,,,,,,,,,,,,,,,,,,,,,,,,,,,,,,,,
1577376464,40,0,4157.94873,4884.102539,2502.05127,4172.307617,4097.94873,0,4,,,,0,2,0,0,2,2,20,0,0.279123,0.639648,-0.149414,-0.700439,0.789075,-0.523445,-0.14258,-13.74347,-57.117897,42.9673,,,,,,,,,,,,,,,,,,,,,,,,,
1577376464,41,1,4161.823242,4881.709473,2520.455811,4167.749512,4093.276367,0,4,,,,0,2,0,0,2,2,,,,,,,,,,,,,,,,,,,,,,,,,,,,,,,,,,,,,
1577376464,42,1,4165.698242,4879.316406,2538.860352,4163.190918,4088.604004,0,4,,,,0,2,0,0,2,2,21,1,0,0.639258,-0.151514,-0.699902,0.796301,-0.524031,0,0,0,0,,,,,,,,,,,,,,,,,,,,,,,,,
1577376464,43,1,4169.572754,4876.922852,2557.264893,4158.632324,4083.931641,0,4,,,,0,2,0,0,2,2,,,,,,,,,,,,,,,,,,,,,,,,,,,,,,,,,,,,,
1577376464,44,1,4173.447266,4874.529785,2575.669434,4154.074219,4079.259277,0,4,,,,0,2,0,0,2,2,22,1,0,0.638867,-0.153613,-0.699365,0.803528,-0.524617,0,0,0,0,,,,,,,,,,,,,,,,,,,,,,,,,
1577376464,45,1,4177.321777,4872.136719,2594.073975,4149.515625,4074.586914,0,4,,,,0,2,0,0,2,2,,,,,,,,,,,,,,,,,,,,,,,,,,,,,,,,,,,,,
1577376464,46,1,4181.196777,4869.743652,2612.478516,4144.957031,4069.914551,0,4,,,,0,2,0,0,2,2,23,1,0,0.638477,-0.155713,-0.698828,0.810755,-0.525203,0,0,0,0,,,,,,,,,,,,,,,,,,,,,,,,,
1577376464,47,1,4185.071289,4867.350586,2630.883301,4140.398926,4065.242188,0,4,,,,0,2,0,0,2,2,,,,,,,,,,,,,,,,,,,,,,,,,,,,,,,,,,,,,
1577376464,48,1,4188.945801,4864.957031,2649.287842,4135.840332,4060.569824,0,4,,,,0,2,0,0,2,2,24,1,0,0.638086,-0.157813,-0.698291,0.817981,-0.525789,0,0,0,0,,,,,,,,,,,,,,,,,,,,,,,,,
1577376464,49,0,4192.820313,4862.563965,2667.692383,4131.282227,4055.897461,0,4,,,,0,2,0,0,2,2,,,,,,,,,,,,,,,,,,,,,,,,,,,,,,,,,,,,,
1577376464,50,0,4194.358887,4874.871582,2704.102539,4134.871582,4092.820557,0,4,,,,0,2,0,0,2,2,25,0,0.284451,0.637695,-0.159912,-0.697754,0.825208,-0.526375,-0.18555,-13.505615,-57.208199,43.03709,,,,,,,,,,,,,,,,,,,,,,,,,
1577376464,51,0,4230.256348,4882.563965,2652.820557,4159.487305,4104.102539,0,4,,,,0,2,0,0,2,2,,,,,,,,,,,,,6.386709,1.927103,2.702019,23.049875,53.90316,1.669554,4.15527,4.418264,4.032895,14.490314,460.321106,144.533752,72.578323,45.048462,82.484192,2.378825,3.342378,5.514887,21.681417,45.677319,56.365086,74.033035,73.325706,127.879204,154.614883
1577376464,52,0,4233.846191,4868.717773,2673.333252,4160.512695,4089.743652,0,4,,,,0,2,0,0,2,2,26,0,0.285279,0.637695,-0.161621,-0.697021,0.829602,-0.513191,-0.183108,-13.171915,-57.349285,43.099903,,,,,,,,,,,,,,,,,,,,,,,,,
1577376464,53,0,4226.153809,4836.410156,2693.333252,4151.282227,4127.692383,0,4,,,,0,2,0,0,2,2,,,,,,,,,,,,,,,,,,,,,,,,,,,,,,,,,,,,,
1577376464,54,0,4223.077148,4856.922852,2708.205078,4142.563965,4078.974365,0,4,,,,0,2,0,0,2,2,27,0,0.285688,0.637939,-0.163086,-0.696289,0.846693,-0.525887,-0.195804,-12.991216,-57.416447,43.036804,,,,,,,,,,,,,,,,,,,,,,,,,
1577376464,55,0,4230.256348,4896.410156,2732.820557,4150.769043,4096.410156,0,4,,,,0,2,0,0,2,2,,,,,,,,,,,,,,,,,,,,,,,,,,,,,,,,,,,,,
1577376464,56,0,4242.563965,4876.410156,2712.820557,4154.871582,4107.692383,0,4,,,,0,2,0,0,2,2,28,0,0.286556,0.638428,-0.163818,-0.695313,0.831556,-0.517098,-0.172854,-12.888401,-57.536709,43.099648,,,,,,,,,,,,,,,,,,,,,,,,,
1577376464,57,0,4237.436035,4847.692383,2739.487061,4146.666504,4057.435791,0,4,,,,0,2,0,0,2,2,,,,,,,,,,,,,,,,,,,,,,,,,,,,,,,,,,,,,
1577376464,58,0,4242.563965,4870.769043,2780,4155.897461,4100.512695,0,4,,,,0,2,0,0,2,2,29,0,0.287382,0.638916,-0.163574,-0.69458,0.811536,-0.53077,-0.156252,-12.616423,-57.704758,43.09639,,,,,,,,,,,,,,,,,,,,,,,,,
1577376464,59,0,4232.307617,4877.94873,2761.025635,4138.461426,4082.564209,0,4,,,,0,2,0,0,2,2,,,,,,,,,,,,,,,,,,,,,,,,,,,,,,,,,,,,,
1577376464,60,0,4217.436035,4845.128418,2784.615479,4128.205078,4090.256348,0,4,,,,0,2,0,0,2,2,30,0,0.288882,0.63916,-0.163086,-0.693848,0.765637,-0.541024,-0.149905,-12.431457,-57.736374,43.213085,,,,,,,,,,,,,,,,,,,,,,,,,
1577376464,61,0,4242.05127,4838.974121,2781.538574,4161.025879,4130.256348,0,4,,,,0,2,0,0,2,2,,,,,,,,,,,,,,,,,,,,,,,,,,,,,,,,,,,,,
1577376464,62,0,4245.128418,4885.128418,2782.564209,4154.871582,4073.333252,0,4,,,,0,2,0,0,2,2,31,0,0.289788,0.639404,-0.162598,-0.693359,0.768566,-0.552254,-0.145998,-12.264988,-57.884457,43.198483,,,,,,,,,,,,,,,,,,,,,,,,,
1577376464,63,0,4235.384766,4917.436035,2836.410156,4138.461426,4112.307617,0,4,,,,0,2,0,0,2,2,,,,,,,,,,,,,,,,,,,,,,,,,,,,,,,,,,,,,
1577376464,64,0,4248.717773,4881.538574,2806.153809,4154.871582,4137.94873,450,4,,,,0,2,0,0,2,2,32,0,0.291489,0.63916,-0.162598,-0.692871,0.818372,-0.547372,-0.143069,-12.174981,-57.838287,43.125526,,,,,,,,,,,,,,,,,,,,,,,,,
1577376464,65,0,4275.897461,4860.512695,2804.615479,4176.922852,4126.666504,450,4,,,,0,2,0,0,2,2,,,,,,,,,,,,,,,,,,,,,,,,,,,,,,,,,,,,,
1577376464,66,0,4290.769043,4876.922852,2839.487061,4197.436035,4171.794922,16176,4,,,,0,4,0,0,2,2,33,0,0.294069,0.63916,-0.162109,-0.691895,0.863294,-0.521981,-0.158694,-12.03416,-57.976177,43.179497,,,,,,,,,,,,,,,,,,,,,,,,,
1577376464,67,0,4237.94873,4891.794922,2853.846191,4173.333496,4127.179688,450,4,,,,0,4,0,0,2,2,,,,,,,,,,,,,10.0477,3.188675,4.037078,26.207109,94.82283,1.66016,4.862043,4.337643,3.617768,16.477644,935.046509,278.953522,136.395966,81.408112,159.889282,4.337474,5.814673,8.629966,26.684238,85.105202,111.111664,144.207764,135.737137,194.237106,287.532562
1577376464,68,0,4204.615234,4875.897461,2899.487061,4140.512695,4115.384766,0,4,,,,0,4,0,0,2,2,34,0,0.29649,0.63916,-0.161865,-0.690918,0.83888,-0.523445,-0.152346,-11.90742,-58.040466,43.228069,,,,,,,,,,,,,,,,,,,,,,,,,
1577376464,69,0,4227.179688,4834.358887,2857.94873,4145.128418,4110.256348,450,4,,,,0,4,0,0,2,2,,,,,,,,,,,,,,,,,,,,,,,,,,,,,,,,,,,,,
1577376464,70,0,4215.897461,4861.538574,2822.564209,4143.077148,4069.230713,10,4,,,,0,4,0,0,2,2,35,0,0.299233,0.639648,-0.161133,-0.689453,0.835462,-0.546395,-0.149416,-11.673724,-58.217957,43.211967,,,,,,,,,,,,,,,,,,,,,,,,,
1577376464,71,0,4234.871582,4921.025879,2885.641113,4162.05127,4137.436035,450,4,,,,0,4,0,0,2,2,,,,,,,,,,,,,,,,,,,,,,,,,,,,,,,,,,,,,
1577376464,72,0,4282.05127,4899.487305,2936.923096,4195.897461,4189.743652,450,4,,,,0,4,0,0,2,2,36,0,0.301773,0.639893,-0.160645,-0.688232,0.825208,-0.543465,-0.153323,-11.642843,-58.19825,43.137661,,,,,,,,,,,,,,,,,,,,,,,,,
1577376464,73,0,4281.025879,4853.333496,2952.820557,4203.589844,4206.153809,16136,4,,,,0,4,0,0,4,2,,,,,,,,,,,,,,,,,,,,,,,,,,,,,,,,,,,,,
1577376464,74,0,4265.641113,4855.897461,2883.076904,4188.205078,4164.102539,450,4,,,,0,4,0,0,4,2,37,0,0.29649,0.63916,-0.161865,-0.690918,0.83888,-0.523445,-0.152346,-11.555236,-58.240334,43.190418,,,,,,,,,,,,,,,,,,,,,,,,,
1577376464,75,0,4261.538574,4858.974121,2870.256348,4176.410156,4098.974121,16130,4,,,,0,4,0,0,4,4,,,,,,,,,,,,,,,,,,,,,,,,,,,,,,,,,,,,,
1577376464,76,0,4267.179688,4861.538574,2947.179443,4202.05127,4165.641113,450,4,,,,0,4,0,0,4,4,38,0,0.301773,0.639893,-0.160645,-0.688232,0.825208,-0.543465,-0.153323,-11.536204,-58.218388,43.118267,,,,,,,,,,,,,,,,,,,,,,,,,
1577376464,77,0,4248.717773,4883.589844,2949.230713,4198.461426,4192.307617,450,4,,,,0,4,0,0,4,4,,,,,,,,,,,,,,,,,,,,,,,,,,,,,,,,,,,,,
1577376464,78,0,4240.512695,4887.179688,2949.743652,4182.563965,4193.333496,450,4,,,,0,4,0,0,4,4,39,0,0.30368,0.640625,-0.1604,-0.686768,0.820813,-0.559091,-0.139162,-11.339629,-58.198643,42.993515,,,,,,,,,,,,,,,,,,,,,,,,,
1577376465,79,0,4269.230957,4858.974121,2964.102539,4213.846191,4194.871582,16130,4,,,,0,4,0,0,4,4,,,,,,,,,,,,,,,,,,,,,,,,,,,,,,,,,,,,,
1577376465,80,0,4259.487305,4866.153809,2996.410156,4209.743652,4121.025879,450,4,,,,0,4,0,0,4,4,40,0,0.305531,0.641113,-0.160156,-0.685547,0.811536,-0.541512,-0.155764,-11.222528,-58.420128,42.881241,,,,,,,,,,,,,,,,,,,,,,,,,
1577376465,81,0,4258.974121,4872.820313,3033.333252,4197.94873,4165.128418,450,4,,,,0,4,0,0,4,4,,,,,,,,,,,,,,,,,,,,,,,,,,,,,,,,,,,,,
1577376465,82,0,4277.436035,4843.077148,2976.410156,4209.230957,4209.230957,450,4,,,,0,4,0,0,4,4,41,0,0.306889,0.641846,-0.160889,-0.684082,0.78468,-0.554208,-0.147463,-11.176951,-58.499836,42.959637,,,,,,,,,,,,,,,,,,,,,,,,,
1577376465,83,0,4255.384766,4875.384766,2974.871826,4200.512695,4175.384766,16130,4,,,,0,4,0,0,4,4,,,,,,,,,,,,,14.38333,4.795652,5.521672,28.843689,139.470947,1.676332,5.62231,4.241765,3.272424,18.327826,1524.918701,430.120911,206.326294,121.613045,255.327881,6.743008,8.743869,11.95309,31.596579,128.618301,174.276886,223.480057,204.244705,266.77063,434.157471
1577376465,84,0,4244.615234,4884.615234,3031.281982,4193.846191,4185.641113,450,4,,,,0,4,0,0,4,4,42,0,0.307592,0.642822,-0.161865,-0.682617,0.788098,-0.551278,-0.156252,-11.135933,-58.571575,42.85075,,,,,,,,,,,,,,,,,,,,,,,,,
1577376465,85,0,4240.512695,4844.615234,3069.743652,4179.487305,4178.974121,450,4,,,,0,4,0,0,4,4,,,,,,,,,,,,,,,,,,,,,,,,,,,,,,,,,,,,,
1577376465,86,0,4240,4874.358887,3091.794922,4187.179688,4215.897461,450,4,,,,0,4,0,0,4,4,43,0,0.307922,0.644043,-0.163574,-0.680908,0.811048,-0.560067,-0.156252,-10.799939,-58.755768,43.051826,,,,,,,,,,,,,,,,,,,,,,,,,
1577376465,87,0,4242.05127,4887.692383,3020.512939,4204.102539,4204.102539,16130,4,,,,0,4,0,0,4,4,,,,,,,,,,,,,,,,,,,,,,,,,,,,,,,,,,,,,
1577376465,88,0,4219.487305,4834.871582,3037.94873,4186.666504,4154.358887,450,4,,,,0,4,0,0,4,4,44,0,0.308045,0.645996,-0.165771,-0.678467,0.837415,-0.532723,-0.175296,-10.617176,-58.801914,43.053349,,,,,,,,,,,,,,,,,,,,,,,,,
1577376465,89,0,4231.794922,4831.282227,3100.512939,4193.333496,4203.077148,450,4,,,,0,4,0,0,4,4,,,,,,,,,,,,,,,,,,,,,,,,,,,,,,,,,,,,,
1577376465,90,0,4246.153809,4898.461426,3081.538574,4211.794922,4234.871582,450,4,,,,0,4,0,0,4,4,45,0,0.309056,0.647949,-0.168213,-0.675537,0.816907,-0.499519,-0.160647,-10.57232,-58.963074,43.054722,,,,,,,,,,,,,,,,,,,,,,,,,
1577376465,91,0,4237.436035,4921.025879,3108.205078,4213.846191,4273.333496,16130,4,,,,0,4,0,0,4,4,,,,,,,,,,,,,,,,,,,,,,,,,,,,,,,,,,,,,
1577376465,92,0,4241.538574,4859.487305,3117.94873,4209.230957,4230.769043,450,4,,,,0,4,0,0,4,4,46,0,0.309619,0.650146,-0.171387,-0.672363,0.824231,-0.498543,-0.138186,-10.412318,-58.868858,42.936325,,,,,,,,,,,,,,,,,,,,,,,,,
1577376465,93,0,4235.897461,4842.563965,3104.102539,4201.538574,4145.128418,450,4,,,,0,4,0,0,4,4,,,,,,,,,,,,,,,,,,,,,,,,,,,,,,,,,,,,,
1577376465,94,0,4236.410156,4894.358887,3120.512939,4210.256348,4200,450,4,,,,0,4,0,0,4,4,47,0,0.311001,0.6521,-0.174805,-0.668945,0.814954,-0.492683,-0.12842,-10.148686,-58.963509,43.069031,,,,,,,,,,,,,,,,,,,,,,,,,
1577376465,95,0,4237.94873,4897.94873,3146.666748,4207.692383,4273.333496,16130,4,,,,0,4,0,0,4,4,,,,,,,,,,,,,,,,,,,,,,,,,,,,,,,,,,,,,
1577376465,96,0,4241.025879,4854.871582,3169.743652,4206.666504,4337.94873,450,4,,,,0,4,0,0,4,4,48,0,0.312522,0.653809,-0.178711,-0.665527,0.772473,-0.500008,-0.099123,-9.911417,-59.048695,43.308094,,,,,,,,,,,,,,,,,,,,,,,,,
1577376465,97,0,4237.94873,4858.461426,3166.666748,4206.666504,4273.846191,450,4,,,,0,4,0,0,4,4,,,,,,,,,,,,,,,,,,,,,,,,,,,,,,,,,,,,,
1577376465,98,0,4207.179688,4897.94873,3218.461426,4185.641113,4155.384766,450,4,,,,0,4,0,0,4,4,49,0,0.315246,0.655273,-0.182129,-0.661865,0.764172,-0.499031,-0.104982,-9.75769,-59.125362,43.343807,,,,,,,,,,,,,,,,,,,,,,,,,
1577376465,99,0,4221.538574,4890.769043,3232.820557,4195.384766,4227.692383,16130,4,,,,0,4,0,0,4,4,,,,,,,,,,,,,17.784756,6.34154,6.808597,29.773849,174.224701,1.705512,6.077504,4.003013,3.034591,19.319675,2041.198242,553.820801,261.310516,153.615585,344.675598,8.928552,11.300115,14.499079,34.627228,163.073349,227.075897,288.283661,258.688446,322.11969,550.268372
1577376465,100,0,4237.94873,4882.563965,3173.333252,4200,4280,450,4,,,,0,4,0,0,4,4,50,0,0.317641,0.656982,-0.185059,-0.658203,0.80177,-0.483406,-0.076173,-9.499706,-59.07473,43.555393,,,,,,,,,,,,,,,,,,,,,,,,,
1577376465,101,0,4229.743652,4900.512695,3204.615479,4200.512695,4313.333496,450,4,,,,0,4,0,0,4,4,,,,,,,,,,,,,,,,,,,,,,,,,,,,,,,,,,,,,
1577376465,102,0,4249.743652,4887.179688,3256.923096,4223.077148,4328.717773,450,4,,,,0,4,0,0,4,4,51,0,0.321581,0.658447,-0.187744,-0.654053,0.822766,-0.478523,-0.078126,-9.147889,-59.088978,43.805637,,,,,,,,,,,,,,,,,,,,,,,,,
1577376465,103,0,4244.615234,4874.871582,3285.128174,4208.205078,4237.436035,16130,4,,,,0,4,0,0,4,4,,,,,,,,,,,,,,,,,,,,,,,,,,,,,,,,,,,,,
1577376465,104,0,4251.794922,4880,3295.384521,4204.615234,4264.102539,450,4,,,,0,4,0,0,4,4,52,0,0.326155,0.660156,-0.189941,-0.649414,0.805188,-0.510262,-0.052735,-8.831254,-59.101803,43.85141,,,,,,,,,,,,,,,,,,,,,,,,,
1577376465,105,0,4262.563965,4883.589844,3250.256348,4209.743652,4322.563965,450,4,,,,0,4,0,0,4,4,,,,,,,,,,,,,,,,,,,,,,,,,,,,,,,,,,,,,
1577376465,106,0,4252.307617,4894.358887,3263.076904,4197.436035,4257.94873,450,4,,,,0,4,0,0,4,4,53,0,0.330448,0.661621,-0.192383,-0.64502,0.799329,-0.557137,-0.039063,-8.486466,-58.993713,43.83279,,,,,,,,,,,,,,,,,,,,,,,,,
1577376465,107,0,4276.922852,4885.641113,3313.846191,4213.846191,4217.436035,16130,4,,,,0,4,0,0,4,4,,,,,,,,,,,,,,,,,,,,,,,,,,,,,,,,,,,,,
1577376465,108,0,4264.615234,4862.05127,3361.025635,4186.153809,4263.589844,450,4,,,,0,4,0,0,4,4,54,0,0.33523,0.662842,-0.19458,-0.640625,0.742199,-0.596689,-0.033204,-8.295789,-58.956245,43.816032,,,,,,,,,,,,,,,,,,,,,,,,,
1577376465,109,0,4259.487305,4867.692383,3378.974365,4156.410156,4318.461426,450,4,,,,0,4,0,0,4,4,,,,,,,,,,,,,,,,,,,,,,,,,,,,,,,,,,,,,
1577376465,110,0,4286.666504,4901.025879,3312.820557,4166.153809,4228.717773,450,4,,,,0,4,0,0,4,4,55,0,0.339269,0.664063,-0.197021,-0.636475,0.704112,-0.637217,-0.012207,-8.124179,-59.04216,43.9804,,,,,,,,,,,,,,,,,,,,,,,,,
1577376465,111,0,4275.897461,4926.666504,3285.641113,4158.461426,4127.179688,16130,4,,,,0,4,0,0,4,4,,,,,,,,,,,,,,,,,,,,,,,,,,,,,,,,,,,,,
1577376465,112,0,4280,4884.615234,3337.435791,4160,4237.94873,450,4,,,,0,4,0,0,4,4,56,0,0.342881,0.665283,-0.199219,-0.632568,0.715831,-0.686534,-0.003906,-7.8501,-58.999847,43.948879,,,,,,,,,,,,,,,,,,,,,,,,,
1577376465,113,0,4280.512695,4830.769043,3413.846191,4138.974121,4354.358887,450,4,,,,0,4,0,0,4,4,,,,,,,,,,,,,,,,,,,,,,,,,,,,,,,,,,,,,
1577376465,114,0,4344.615234,4881.025879,3455.897461,4165.641113,4294.358887,450,4,,,,0,4,0,0,4,4,57,0,0.345621,0.666748,-0.201172,-0.628906,0.741711,-0.71632,0.00293,-7.543612,-58.961769,43.920513,,,,,,,,,,,,,,,,,,,,,,,,,
1577376465,115,0,4429.743652,4937.436035,3397.435791,4216.410156,4210.256348,16130,4,,,,0,4,0,0,4,4,,,,,,,,,,,,,19.513189,7.367317,7.617451,28.205025,186.953964,1.743182,5.957444,3.567268,2.917614,18.914232,2336.813477,608.218323,282.670166,166.435471,400.395111,10.235495,12.66476,15.406556,34.302013,176.598953,251.791382,316.514709,280.754578,339.399719,595.935913
1577376465,116,0,4382.05127,4900.512695,3390.256348,4165.128418,4156.922852,450,4,,,,0,4,0,0,4,4,58,0,0.349159,0.668213,-0.203125,-0.624756,0.762219,-0.699229,0.02002,-7.267774,-58.927498,43.894985,,,,,,,,,,,,,,,,,,,,,,,,,
1577376465,117,0,4366.153809,4860,3425.128174,4143.589844,4210.769043,450,4,,,,0,4,0,0,4,4,,,,,,,,,,,,,,,,,,,,,,,,,,,,,,,,,,,,,
1577376465,118,0,4388.717773,4900.512695,3411.794922,4152.820313,4299.487305,450,4,,,,0,4,0,0,4,4,59,0,0.353025,0.669678,-0.205078,-0.620361,0.745129,-0.691417,0.032715,-6.959704,-59.016285,43.872009,,,,,,,,,,,,,,,,,,,,,,,,,
1577376465,119,0,4390.769043,4946.666504,3472.307617,4151.794922,4284.102539,16130,4,,,,0,4,0,0,4,4,,,,,,,,,,,,,,,,,,,,,,,,,,,,,,,,,,,,,
1577376465,120,0,4429.743652,4907.692383,3515.384521,4167.179688,4233.846191,450,4,,,,0,4,0,0,4,4,60,0,0.356711,0.670654,-0.207275,-0.616455,0.691905,-0.725597,0.058106,-6.562811,-58.976563,44.030773,,,,,,,,,,,,,,,,,,,,,,,,,
1577376465,121,0,4428.205078,4880,3522.564209,4145.128418,4193.846191,450,4,,,,0,4,0,0,4,4,,,,,,,,,,,,,,,,,,,,,,,,,,,,,,,,,,,,,
1577376465,122,0,4476.922852,4894.358887,3529.743652,4165.641113,4250.769043,450,4,,,,0,4,0,0,4,4,61,0,0.360483,0.671387,-0.209229,-0.612793,0.621592,-0.762707,0.067384,-6.325237,-59.000629,44.293297,,,,,,,,,,,,,,,,,,,,,,,,,
1577376465,123,0,4537.436035,4886.153809,3450.769287,4189.743652,4275.384766,16130,4,,,,0,4,0,0,4,4,,,,,,,,,,,,,,,,,,,,,,,,,,,,,,,,,,,,,
1577376465,124,0,4518.461426,4895.384766,3471.794922,4184.102539,4229.743652,450,4,,,,0,4,0,0,4,4,62,0,0.363123,0.671875,-0.210938,-0.610107,0.595224,-0.782238,0.081544,-6.051606,-59.0821,44.290302,,,,,,,,,,,,,,,,,,,,,,,,,
1577376465,125,0,4531.794922,4889.230957,3566.153809,4204.102539,4307.692383,450,4,,,,0,4,0,0,4,4,,,,,,,,,,,,,,,,,,,,,,,,,,,,,,,,,,,,,
1577376465,126,0,4532.820313,4881.538574,3597.94873,4173.846191,4325.128418,450,4,,,,0,4,0,0,4,4,63,0,0.365986,0.671631,-0.212402,-0.608154,0.592782,-0.779797,0.078614,-5.625891,-59.095612,44.287609,,,,,,,,,,,,,,,,,,,,,,,,,
1577376465,127,0,4562.05127,4923.589844,3595.897461,4181.538574,4257.94873,239,4,,,,0,4,0,0,4,4,,,,,,,,,,,,,,,,,,,,,,,,,,,,,,,,,,,,,
1577376465,0,0,4605.128418,4910.769043,3517.435791,4202.563965,4212.820313,450,4,,,,0,4,0,0,4,4,0,0,0.368494,0.670898,-0.213867,-0.606934,0.617685,-0.765637,0.056641,-5.242748,-59.167587,44.225372,,,,,,,,,,,,,,,,,,,,,,,,,
1577376465,1,0,4613.333496,4886.666504,3513.846191,4172.820313,4178.974121,450,4,,,,0,4,0,0,4,4,,,,,,,,,,,,,,,,,,,,,,,,,,,,,,,,,,,,,
1577376465,2,0,4695.384766,4915.384766,3601.538574,4214.358887,4281.025879,16211,4,,,,0,4,0,0,4,4,1,0,0.363123,0.671875,-0.210938,-0.610107,0.595224,-0.782238,0.081544,-5.01755,-59.232365,44.169353,,,,,,,,,,,,,,,,,,,,,,,,,
1577376465,3,0,4706.666504,4928.717773,3634.358887,4213.333496,4361.025879,450,4,,,,0,4,0,0,4,4,,,,,,,,,,,,,18.687325,7.54698,7.826195,24.091818,172.808716,1.745261,5.205301,2.962853,2.889851,17.05538,2290.459473,573.976563,262.886627,155.468521,403.854553,10.320535,12.401103,14.315213,30.236502,164.252228,239.625656,298.102966,262.494385,310.846283,554.759155
1577376465,4,0,4665.128418,4912.820313,3646.666748,4170.769043,4280.512695,0,4,,,,0,4,0,0,4,4,2,0,0.368494,0.670898,-0.213867,-0.606934,0.617685,-0.765637,0.056641,-4.695241,-59.290665,44.118942,,,,,,,,,,,,,,,,,,,,,,,,,
1577376465,5,0,4694.358887,4892.820313,3602.564209,4174.358887,4182.563965,450,4,,,,0,4,0,0,4,4,,,,,,,,,,,,,,,,,,,,,,,,,,,,,,,,,,,,,
1577376465,6,0,4702.563965,4909.743652,3571.794922,4171.282227,4161.025879,1,4,,,,0,4,0,0,4,4,3,0,0.371315,0.669678,-0.215576,-0.605957,0.630381,-0.755871,0.041505,-4.464979,-59.462765,44.133385,,,,,,,,,,,,,,,,,,,,,,,,,
1577376465,7,0,4713.846191,4897.94873,3600.512939,4183.589844,4211.282227,450,4,,,,0,4,0,0,4,4,,,,,,,,,,,,,,,,,,,,,,,,,,,,,,,,,,,,,
1577376465,8,0,4697.436035,4877.94873,3623.589844,4162.05127,4273.846191,450,4,,,,0,4,0,0,4,4,4,0,0.373604,0.668213,-0.217529,-0.605469,0.65919,-0.73341,0.004395,-4.257742,-59.617657,44.086567,,,,,,,,,,,,,,,,,,,,,,,,,
1577376465,9,0,4708.717773,4906.666504,3687.179443,4169.743652,4285.128418,16167,4,,,,0,4,0,0,4,4,,,,,,,,,,,,,,,,,,,,,,,,,,,,,,,,,,,,,
1577376465,10,0,4801.538574,4910.769043,3683.076904,4215.384766,4225.128418,450,4,,,,0,4,0,0,4,4,5,0,0.375287,0.666992,-0.219727,-0.60498,0.656748,-0.732433,-0.002441,-3.951599,-59.697243,44.104248,,,,,,,,,,,,,,,,,,,,,,,,,
1577376465,11,0,4795.897461,4889.743652,3639.487061,4176.410156,4155.384766,248,4,,,,0,4,0,0,4,2,,,,,,,,,,,,,,,,,,,,,,,,,,,,,,,,,,,,,
1577376465,12,0,4769.743652,4860,3652.307617,4176.410156,4218.461426,450,4,,,,0,4,0,0,4,2,6,0,0.376945,0.665771,-0.221924,-0.604492,0.666514,-0.762219,-0.028321,-3.676069,-59.709057,44.120159,,,,,,,,,,,,,,,,,,,,,,,,,
1577376465,13,0,4780,4875.384766,3635.384521,4187.179688,4244.102539,450,4,,,,0,4,0,0,4,2,,,,,,,,,,,,,,,,,,,,,,,,,,,,,,,,,,,,,
1577376465,14,0,4791.282227,4931.794922,3675.897461,4163.077148,4210.769043,450,4,,,,0,4,0,0,4,2,7,0,0.378639,0.664795,-0.224609,-0.603516,0.699229,-0.762219,-0.047364,-3.607539,-59.839317,44.074665,,,,,,,,,,,,,,,,,,,,,,,,,
1577376465,15,0,4831.282227,4904.102539,3723.076904,4180,4283.589844,248,4,,,,0,4,0,0,4,2,,,,,,,,,,,,,,,,,,,,,,,,,,,,,,,,,,,,,
1577376465,16,0,4793.333496,4852.820313,3702.05127,4149.230957,4262.05127,0,4,,,,0,4,0,0,4,2,8,0,0.381034,0.664063,-0.227295,-0.601807,0.743175,-0.756848,-0.062013,-3.545862,-59.896736,44.093536,,,,,,,,,,,,,,,,,,,,,,,,,
1577376465,17,0,4785.641113,4868.717773,3714.358887,4150.769043,4193.333496,0,4,,,,0,4,0,0,4,2,,,,,,,,,,,,,,,,,,,,,,,,,,,,,,,,,,,,,
1577376465,18,0,4825.641113,4914.358887,3697.94873,4177.436035,4168.717773,0,4,,,,0,4,0,0,4,2,9,0,0.38267,0.663574,-0.230469,-0.600098,0.714855,-0.749523,-0.06006,-3.370722,-59.948418,44.050705,,,,,,,,,,,,,,,,,,,,,,,,,
1577376465,19,0,4815.384766,4933.333496,3718.461426,4148.205078,4152.820313,0,4,,,,0,4,0,0,4,2,,,,,,,,,,,,,16.208939,6.846073,7.584423,18.288322,136.657059,1.6883,4.034429,2.317753,2.88981,14.218878,1930.328979,463.456757,209.052048,124.904572,354.112457,9.249308,10.661592,11.616732,23.364815,130.450562,195.101868,239.803497,210.2733,245.438324,441.907837
1577376465,20,0,4855.384766,4877.436035,3746.153809,4169.230957,4247.179688,0,4,,,,0,4,0,0,4,2,10,0,0.385526,0.662842,-0.234131,-0.597656,0.698741,-0.783215,-0.042969,-3.093465,-59.815479,44.131786,,,,,,,,,,,,,,,,,,,,,,,,,
1577376465,21,0,4851.794922,4851.794922,3714.871826,4155.897461,4287.179688,0,4,,,,0,4,0,0,4,2,,,,,,,,,,,,,,,,,,,,,,,,,,,,,,,,,,,,,
1577376465,22,0,4829.743652,4928.717773,3753.333252,4141.538574,4227.179688,0,4,,,,0,4,0,0,4,2,11,0,0.387594,0.662354,-0.238281,-0.595215,0.698253,-0.77882,-0.044923,-2.843934,-59.935101,44.204762,,,,,,,,,,,,,,,,,,,,,,,,,
1577376465,23,0,4846.153809,4932.307617,3774.871826,4172.820313,4151.794922,0,4,,,,0,4,0,0,4,2,,,,,,,,,,,,,,,,,,,,,,,,,,,,,,,,,,,,,
1577376465,24,0,4824.615234,4874.358887,3764.102539,4148.205078,4115.897461,0,4,,,,0,4,0,0,4,2,12,0,0.390595,0.661621,-0.242676,-0.592285,0.672374,-0.810559,-0.026856,-2.619356,-60.042755,44.210621,,,,,,,,,,,,,,,,,,,,,,,,,
1577376465,25,0,4887.692383,4887.179688,3774.871826,4165.128418,4224.102539,0,4,,,,0,4,0,0,4,2,,,,,,,,,,,,,,,,,,,,,,,,,,,,,,,,,,,,,
1577376465,26,0,4934.358887,4920.512695,3769.230713,4174.871582,4311.794922,0,4,,,,0,4,0,0,4,2,13,0,0.393288,0.660889,-0.246826,-0.5896,0.637705,-0.823743,-0.024414,-2.417236,-60.139648,44.215897,,,,,,,,,,,,,,,,,,,,,,,,,
1577376465,27,0,4905.128418,4898.974121,3822.05127,4173.846191,4226.666504,0,4,,,,0,4,0,0,4,2,,,,,,,,,,,,,,,,,,,,,,,,,,,,,,,,,,,,,
1577376465,28,0,4928.205078,4874.358887,3841.538574,4202.05127,4131.282227,0,4,,,,0,4,0,0,4,2,14,0,0.395956,0.6604,-0.250244,-0.586914,0.643565,-0.829602,-0.019043,-2.175512,-60.226852,44.28046,,,,,,,,,,,,,,,,,,,,,,,,,
1577376465,29,0,4898.974121,4917.94873,3799.487061,4148.717773,4121.025879,0,4,,,,0,4,0,0,4,2,,,,,,,,,,,,,,,,,,,,,,,,,,,,,,,,,,,,,
1577376465,30,0,4893.333496,4939.487305,3794.871826,4137.94873,4196.410156,0,4,,,,0,4,0,0,4,2,15,0,0.398713,0.659912,-0.253418,-0.584229,0.630869,-0.832044,-0.012207,-2.017776,-60.066071,44.218933,,,,,,,,,,,,,,,,,,,,,,,,,
1577376465,31,0,4952.820313,4913.846191,3815.897461,4166.666504,4225.641113,0,4,,,,0,4,0,0,4,2,,,,,,,,,,,,,,,,,,,,,,,,,,,,,,,,,,,,,
1577376465,32,0,4961.025879,4916.410156,3865.128174,4165.128418,4212.307617,0,4,,,,0,4,0,0,4,2,16,0,0.401517,0.659668,-0.256348,-0.581299,0.635264,-0.805188,-0.027344,-1.875814,-59.981186,44.283195,,,,,,,,,,,,,,,,,,,,,,,,,
1577376465,33,0,4946.666504,4911.794922,3870.256348,4181.025879,4242.05127,0,4,,,,0,4,0,0,4,2,,,,,,,,,,,,,,,,,,,,,,,,,,,,,,,,,,,,,
1577376465,34,0,4937.94873,4921.538574,3842.05127,4157.94873,4206.666504,0,4,,,,0,4,0,0,4,2,17,0,0.404799,0.659424,-0.259521,-0.577881,0.616709,-0.793957,-0.037598,2.080135,-59.844975,44.281212,,,,,,,,,,,,,,,,,,,,,,,,,
1577376465,35,0,5011.282227,4918.974121,3857.435791,4181.538574,4164.102539,0,4,,,,0,4,0,0,4,2,,,,,,,,,,,,,12.062875,5.623312,7.24631,12.296329,90.741005,1.587801,2.76592,1.75794,2.85417,11.197452,1375.401978,314.863129,139.75975,85.72657,268.213654,7.603447,8.153252,8.275627,15.578381,86.829399,134.382721,161.978424,141.988983,165.207626,296.678589
1577376465,36,0,5027.179688,4878.974121,3856.410156,4192.820313,4168.205078,0,4,,,,0,4,0,0,4,2,18,0,0.408925,0.658936,-0.262939,-0.573975,0.61915,-0.76466,-0.038575,2.171199,-59.722382,44.279427,,,,,,,,,,,,,,,,,,,,,,,,,
1577376465,37,0,4934.871582,4899.487305,3882.05127,4144.102539,4175.384766,0,4,,,,0,4,0,0,4,2,,,,,,,,,,,,,,,,,,,,,,,,,,,,,,,,,,,,,
1577376465,38,0,4960.512695,4929.743652,3896.410156,4180.512695,4247.179688,0,4,,,,0,4,0,0,4,2,19,0,0.413408,0.658691,-0.266602,-0.569336,0.605966,-0.781262,-0.039063,5.662632,-59.851311,44.277821,,,,,,,,,,,,,,,,,,,,,,,,,
1577376465,39,0,4975.897461,4926.666504,3864.102539,4185.128418,4250.256348,0,4,,,,0,4,0,0,4,2,,,,,,,,,,,,,,,,,,,,,,,,,,,,,,,,,,,,,
1577376465,40,0,4934.358887,4928.717773,3895.897461,4183.077148,4184.102539,0,4,,,,0,4,0,0,4,2,20,0,0.417545,0.658691,-0.270508,-0.564453,0.582528,-0.825208,-0.035157,5.45526,-59.787899,44.336193,,,,,,,,,,,,,,,,,,,,,,,,,
1577376465,41,0,4961.025879,4895.897461,3912.820557,4218.461426,4135.897461,0,4,,,,0,4,0,0,4,2,,,,,,,,,,,,,,,,,,,,,,,,,,,,,,,,,,,,,
1577376465,42,0,4982.563965,4902.563965,3906.153809,4195.897461,4133.333496,0,4,,,,0,4,0,0,4,2,21,0,0.421821,0.658936,-0.274902,-0.558838,0.583505,-0.813001,-0.042481,1.380628,-59.850464,44.209278,,,,,,,,,,,,,,,,,,,,,,,,,
1577376465,43,0,5017.436035,4905.128418,3921.538574,4202.05127,4248.205078,0,4,,,,0,4,0,0,4,2,,,,,,,,,,,,,,,,,,,,,,,,,,,,,,,,,,,,,
1577376465,44,0,4993.846191,4850.769043,3906.153809,4181.538574,4266.153809,0,4,,,,0,4,0,0,4,2,22,0,0.426724,0.65918,-0.279541,-0.55249,0.585946,-0.810071,-0.036622,4.891303,-59.906769,44.394135,,,,,,,,,,,,,,,,,,,,,,,,,
1577376465,45,0,4929.743652,4885.641113,3940.512939,4160.512695,4206.153809,0,4,,,,0,4,0,0,4,2,,,,,,,,,,,,,,,,,,,,,,,,,,,,,,,,,,,,,
1577376465,46,0,4962.05127,4939.487305,3942.05127,4188.717773,4185.128418,0,4,,,,0,4,0,0,4,2,23,0,0.431903,0.659912,-0.284668,-0.544922,0.589853,-0.783215,-0.020508,7.751832,-59.837814,44.321243,,,,,,,,,,,,,,,,,,,,,,,,,
1577376465,47,0,4979.487305,4922.563965,3930.769287,4166.666504,4123.589844,0,4,,,,0,4,0,0,4,2,,,,,,,,,,,,,,,,,,,,,,,,,,,,,,,,,,,,,
1577376465,48,0,5017.94873,4898.461426,3954.358887,4206.666504,4189.230957,0,4,,,,0,4,0,0,4,2,24,0,0.438096,0.6604,-0.289795,-0.536621,0.577157,-0.777356,-0.009766,10.32631,-59.715939,44.435085,,,,,,,,,,,,,,,,,,,,,,,,,
1577376465,49,0,5035.384766,4905.641113,3910.769287,4230.769043,4277.94873,0,4,,,,0,4,0,0,4,2,,,,,,,,,,,,,,,,,,,,,,,,,,,,,,,,,,,,,
1577376465,50,0,4958.461426,4923.077148,3945.128174,4204.615234,4212.820313,0,4,,,,0,4,0,0,4,2,25,0,0.444333,0.661133,-0.295166,-0.527588,0.518074,-0.803723,0.022461,12.703155,-59.666065,44.417915,,,,,,,,,,,,,,,,,,,,,,,,,
1577376465,51,0,4928.205078,4913.333496,4016.923096,4222.05127,4177.94873,0,4,,,,0,4,0,0,4,2,,,,,,,,,,,,,8.28073,4.377762,7.155297,7.523867,48.83794,1.478294,1.725456,1.376345,2.767388,8.755879,805.861328,173.843781,75.851318,50.580448,173.122025,6.06466,5.757329,5.348107,8.833818,46.666775,76.179848,88.794075,78.339928,94.772423,163.735031
1577376465,52,0,4949.230957,4910.769043,4006.153809,4187.179688,4190.256348,0,4,,,,0,4,0,0,4,2,26,0,0.45092,0.661621,-0.300049,-0.518555,0.483894,-0.839368,0.047364,8.382256,-59.680996,44.522091,,,,,,,,,,,,,,,,,,,,,,,,,
1577376465,53,0,5026.666504,4893.846191,3975.384521,4204.102539,4180,0,4,,,,0,4,0,0,4,2,,,,,,,,,,,,,,,,,,,,,,,,,,,,,,,,,,,,,
1577376465,54,0,5011.282227,4890.769043,3928.205078,4189.230957,4150.256348,0,4,,,,0,4,0,0,4,2,27,0,0.457019,0.662109,-0.305176,-0.509521,0.471199,-0.841321,0.055177,8.44126,-59.634617,44.49622,,,,,,,,,,,,,,,,,,,,,,,,,
1577376465,55,0,4902.05127,4922.563965,3976.410156,4111.282227,4161.538574,0,4,,,,0,4,0,0,4,2,,,,,,,,,,,,,,,,,,,,,,,,,,,,,,,,,,,,,
1577376465,56,0,4934.871582,4896.410156,4030.256348,4151.794922,4222.563965,0,4,,,,0,4,0,0,4,2,28,0,0.46403,0.662109,-0.310303,-0.5,0.449226,-0.804211,0.059571,8.374734,-59.533062,44.772011,,,,,,,,,,,,,,,,,,,,,,,,,
1577376465,57,0,4951.282227,4902.563965,4036.410156,4162.563965,4198.461426,0,4,,,,0,4,0,0,4,2,,,,,,,,,,,,,,,,,,,,,,,,,,,,,,,,,,,,,
1577376465,58,0,4962.05127,4952.307617,4076.410156,4187.179688,4148.205078,0,4,,,,0,4,0,0,4,2,29,0,0.470923,0.662109,-0.314697,-0.490723,0.382818,-0.848157,0.076661,4.606308,-59.322029,44.661331,,,,,,,,,,,,,,,,,,,,,,,,,
1577376465,59,0,5030.769043,4903.589844,3991.794922,4197.436035,4144.102539,0,4,,,,0,4,0,0,4,2,,,,,,,,,,,,,,,,,,,,,,,,,,,,,,,,,,,,,
1577376465,60,0,5012.820313,4875.384766,3944.102539,4125.128418,4149.743652,0,4,,,,0,4,0,0,4,2,30,0,0.457019,0.662109,-0.305176,-0.509521,0.471199,-0.841321,0.055177,4.085862,-59.251732,44.681351,,,,,,,,,,,,,,,,,,,,,,,,,
1577376465,61,0,5041.538574,4931.794922,4041.025635,4176.410156,4221.025879,0,4,,,,0,4,0,0,4,2,,,,,,,,,,,,,,,,,,,,,,,,,,,,,,,,,,,,,
1577376465,62,0,5047.179688,4952.820313,4078.461426,4174.871582,4208.205078,0,4,,,,0,4,0,0,4,2,31,0,0.470923,0.662109,-0.314697,-0.490723,0.382818,-0.848157,0.076661,0.746323,-59.068836,44.579739,,,,,,,,,,,,,,,,,,,,,,,,,
1577376465,63,0,4992.307617,4910.256348,4104.615234,4155.384766,4189.230957,0,4,,,,0,4,0,0,4,2,,,,,,,,,,,,,,,,,,,,,,,,,,,,,,,,,,,,,
1577376465,64,0,5029.230957,4874.358887,4050.769287,4228.717773,4221.025879,450,4,,,,0,4,0,0,4,2,32,0,0.476659,0.662354,-0.318359,-0.482422,0.391608,-0.92726,0.11133,3.602643,-59.023857,44.607918,,,,,,,,,,,,,,,,,,,,,,,,,
1577376465,65,0,5054.358887,4956.922852,4006.153809,4198.974121,4153.846191,450,4,,,,0,4,0,0,4,2,,,,,,,,,,,,,,,,,,,,,,,,,,,,,,,,,,,,,
1577376465,66,0,5093.333496,5021.025879,4065.641113,4226.153809,4166.153809,16164,4,,,,0,4,0,0,4,2,33,0,0.482406,0.662598,-0.321289,-0.474365,0.380865,-0.93312,0.118166,6.292963,-58.744114,44.693092,,,,,,,,,,,,,,,,,,,,,,,,,
1577376465,67,0,5067.692383,4972.307617,4054.871826,4215.897461,4227.179688,450,4,,,,0,4,0,0,4,2,,,,,,,,,,,,,5.24308,3.491972,7.477011,4.803096,20.207474,1.429967,1.07191,1.216311,2.646512,7.323051,367.2659,73.122925,31.581411,27.859564,93.496445,5.134921,4.096613,3.507142,4.379958,18.992332,35.249447,37.268227,33.666435,50.111439,72.993454
1577376465,68,0,4986.666504,4982.563965,4072.307617,4142.05127,4207.179688,0,4,,,,0,4,0,0,4,2,34,0,0.488167,0.662842,-0.324219,-0.466064,0.393072,-0.905776,0.118166,6.740343,-58.671795,44.65012,,,,,,,,,,,,,,,,,,,,,,,,,
1577376465,69,0,5029.743652,4969.743652,4097.436035,4196.922852,4174.871582,450,4,,,,0,4,0,0,4,2,,,,,,,,,,,,,,,,,,,,,,,,,,,,,,,,,,,,,
1577376465,70,0,5068.205078,4922.05127,4057.94873,4178.461426,4123.077148,0,4,,,,0,4,0,0,4,2,35,0,0.494875,0.662598,-0.327393,-0.457031,0.377447,-0.875013,0.117189,3.494248,-58.487076,44.491814,,,,,,,,,,,,,,,,,,,,,,,,,
1577376465,71,0,5112.307617,4926.153809,4075.897461,4176.922852,4169.743652,450,4,,,,0,4,0,0,4,2,,,,,,,,,,,,,,,,,,,,,,,,,,,,,,,,,,,,,
1577376465,72,0,5110.256348,4896.922852,4088.205078,4186.666504,4225.641113,450,4,,,,0,4,0,0,4,2,36,0,0.502068,0.661865,-0.331055,-0.44751,0.306157,-0.908217,0.117678,0.572762,-58.500275,44.409153,,,,,,,,,,,,,,,,,,,,,,,,,
1577376465,73,0,5016.922852,4906.666504,4093.333252,4143.589844,4188.717773,16171,4,,,,0,4,0,0,4,2,,,,,,,,,,,,,,,,,,,,,,,,,,,,,,,,,,,,,
1577376465,74,0,5042.05127,4955.897461,4101.538574,4217.436035,4188.717773,450,4,,,,0,4,0,0,4,2,37,0,0.508953,0.6604,-0.335205,-0.438721,0.259281,-0.951186,0.177737,-1.936944,-58.332706,44.454391,,,,,,,,,,,,,,,,,,,,,,,,,
1577376465,75,0,5104.102539,4946.153809,4085.128174,4239.487305,4166.666504,31,4,,,,0,4,0,0,4,0,,,,,,,,,,,,,,,,,,,,,,,,,,,,,,,,,,,,,
1577376465,76,0,5143.589844,4929.743652,4092.307617,4254.358887,4173.846191,450,4,,,,0,4,0,0,4,0,38,0,0.515463,0.658691,-0.339355,-0.43042,0.230472,-0.94728,0.201663,1.666226,-58.062263,44.435291,,,,,,,,,,,,,,,,,,,,,,,,,
1577376465,77,0,5157.436035,4938.974121,4091.281982,4271.282227,4205.641113,450,4,,,,0,4,0,0,4,0,,,,,,,,,,,,,,,,,,,,,,,,,,,,,,,,,,,,,
1577376466,78,0,5137.436035,4969.230957,4101.025879,4234.871582,4164.615234,450,4,,,,0,4,0,0,4,0,39,0,0.521691,0.65625,-0.34375,-0.423096,0.216312,-0.937514,0.194339,2.935173,-57.878681,44.477913,,,,,,,,,,,,,,,,,,,,,,,,,
1577376466,79,0,5177.94873,4950.769043,4118.461426,4311.794922,4168.717773,31,4,,,,0,4,0,0,4,0,,,,,,,,,,,,,,,,,,,,,,,,,,,,,,,,,,,,,
1577376466,80,0,5138.974121,4900,4103.589844,4300,4195.384766,450,4,,,,0,4,0,0,4,0,40,0,0.527535,0.653809,-0.348389,-0.415771,0.202152,-0.918471,0.192874,4.196855,-57.534012,44.396645,,,,,,,,,,,,,,,,,,,,,,,,,
1577376466,81,0,5057.94873,4909.743652,4109.743652,4246.153809,4177.94873,450,4,,,,0,4,0,0,4,0,,,,,,,,,,,,,,,,,,,,,,,,,,,,,,,,,,,,,
1577376466,82,0,5047.692383,4936.410156,4111.794922,4270.769043,4150.256348,450,4,,,,0,4,0,0,4,0,41,0,0.533734,0.650879,-0.352783,-0.408691,0.182132,-0.926284,0.16553,7.24646,-57.283623,44.263687,,,,,,,,,,,,,,,,,,,,,,,,,
1577376466,83,0,5087.179688,4947.179688,4122.563965,4244.102539,4124.102539,31,4,,,,0,4,0,0,4,0,,,,,,,,,,,,,4.034466,3.159689,8.108939,4.135913,6.481424,1.47405,0.831755,1.295654,2.506215,6.862791,117.167023,20.919991,9.480269,18.706667,41.943993,4.776528,3.347186,2.873744,2.325945,5.484293,14.410878,11.286516,11.059871,33.422756,29.665356
1577376466,84,0,5188.717773,4909.743652,4141.025879,4308.717773,4160.512695,450,4,,,,0,4,0,0,4,0,42,0,0.539535,0.647949,-0.357178,-0.401855,0.167971,-0.979019,0.163088,7.957383,-57.177906,44.323471,,,,,,,,,,,,,,,,,,,,,,,,,
1577376466,85,0,5144.615234,4864.615234,4120,4322.563965,4168.717773,450,4,,,,0,4,0,0,4,0,,,,,,,,,,,,,,,,,,,,,,,,,,,,,,,,,,,,,
1577376466,86,0,5035.384766,4930.256348,4138.974121,4232.820313,4178.974121,450,4,,,,0,4,0,0,4,0,43,0,0.54488,0.644775,-0.361328,-0.395996,0.14844,-1.009293,0.167483,10.930013,-57.08276,44.138012,,,,,,,,,,,,,,,,,,,,,,,,,
1577376466,87,0,5041.025879,4952.307617,4163.077148,4253.846191,4217.436035,31,4,,,,0,4,0,0,4,0,,,,,,,,,,,,,,,,,,,,,,,,,,,,,,,,,,,,,
1577376466,88,0,5120,4909.743652,4147.692383,4317.436035,4148.717773,450,4,,,,0,4,0,0,4,0,44,0,0.550211,0.641602,-0.36499,-0.390381,0.143557,-1.002457,0.155764,13.485749,-56.877499,43.971104,,,,,,,,,,,,,,,,,,,,,,,,,
1577376466,89,0,5198.974121,4945.641113,4141.538574,4373.846191,4120.512695,450,4,,,,0,4,0,0,4,0,,,,,,,,,,,,,,,,,,,,,,,,,,,,,,,,,,,,,
1577376466,90,0,5117.94873,4986.153809,4133.333496,4321.025879,4140.512695,450,4,,,,0,4,0,0,4,0,45,0,0.554899,0.638428,-0.369141,-0.38501,0.118166,-0.994156,0.157229,13.931635,-56.632946,43.76107,,,,,,,,,,,,,,,,,,,,,,,,,
1577376466,91,0,5017.94873,4995.384766,4167.179688,4266.666504,4153.333496,31,4,,,,0,4,0,0,4,0,,,,,,,,,,,,,,,,,,,,,,,,,,,,,,,,,,,,,
1577376466,92,0,5049.743652,4969.230957,4189.743652,4366.153809,4228.717773,450,4,,,,0,4,0,0,4,0,46,0,0.559889,0.63501,-0.373291,-0.379395,0.113283,-0.977066,0.125002,10.504749,-56.293221,43.512222,,,,,,,,,,,,,,,,,,,,,,,,,
1577376466,93,0,5082.563965,4928.205078,4149.743652,4391.794922,4212.307617,450,4,,,,0,4,0,0,4,0,,,,,,,,,,,,,,,,,,,,,,,,,,,,,,,,,,,,,
1577376466,94,0,5083.077148,4910.769043,4144.102539,4385.128418,4158.461426,450,4,,,,0,4,0,0,4,0,47,0,0.564727,0.631592,-0.377686,-0.373535,0.084962,-0.985367,0.125978,11.368366,-56.107094,43.348076,,,,,,,,,,,,,,,,,,,,,,,,,
1577376466,95,0,5050.256348,4940.512695,4161.025879,4375.897461,4134.871582,31,4,,,,0,4,0,0,4,0,,,,,,,,,,,,,,,,,,,,,,,,,,,,,,,,,,,,,
1577376466,96,0,5035.384766,4982.05127,4182.563965,4347.692383,4147.692383,450,4,,,,0,4,0,0,4,0,48,0,0.569415,0.628174,-0.381836,-0.36792,0.07422,-1.021988,0.127443,12.145621,-55.939583,43.14053,,,,,,,,,,,,,,,,,,,,,,,,,
1577376466,97,0,4998.461426,4913.333496,4183.589844,4427.179688,4231.282227,450,4,,,,0,4,0,0,4,0,,,,,,,,,,,,,,,,,,,,,,,,,,,,,,,,,,,,,
1577376466,98,0,4961.025879,4870.769043,4147.179688,4443.077148,4207.692383,450,4,,,,0,4,0,0,4,0,49,0,0.573405,0.625,-0.385498,-0.363281,0.045899,-1.073259,0.142092,13.084413,-55.669193,42.953735,,,,,,,,,,,,,,,,,,,,,,,,,
1577376466,99,0,5024.102539,4960.512695,4168.717773,4444.615234,4130.256348,31,4,,,,0,4,0,0,4,0,,,,,,,,,,,,,4.304003,3.395936,8.727241,4.955981,2.998619,1.666279,0.940518,1.645743,2.372747,6.976075,22.371962,3.73406,2.594186,18.270775,16.74691,4.729766,3.346675,3.052788,1.892636,1.678538,8.493108,3.299957,3.992861,34.942043,18.285093
1577376466,100,0,5106.666504,4955.384766,4180,4494.871582,4101.025879,450,4,,,,0,4,0,0,4,0,50,0,0.576899,0.62207,-0.388672,-0.359375,0.039551,-1.079118,0.139651,13.749878,-55.425842,42.785622,,,,,,,,,,,,,,,,,,,,,,,,,
1577376466,101,0,5138.974121,4895.897461,4161.025879,4485.641113,4118.974121,450,4,,,,0,4,0,0,4,0,,,,,,,,,,,,,,,,,,,,,,,,,,,,,,,,,,,,,
1577376466,102,0,5104.615234,4925.128418,4173.846191,4534.358887,4244.615234,450,4,,,,0,4,0,0,4,0,51,0,0.579903,0.619385,-0.391846,-0.355713,0.02002,-1.056168,0.124025,14.588058,-55.087193,42.51469,,,,,,,,,,,,,,,,,,,,,,,,,
1577376466,103,0,4996.410156,4961.538574,4165.128418,4523.589844,4246.666504,31,4,,,,0,4,0,0,4,0,,,,,,,,,,,,,,,,,,,,,,,,,,,,,,,,,,,,,
1577376466,104,0,4941.025879,4989.743652,4170.769043,4458.974121,4124.615234,450,4,,,,0,4,0,0,4,0,52,0,0.583134,0.616699,-0.39502,-0.351563,0.020996,-1.027848,0.118654,15.162975,-54.842228,42.270851,,,,,,,,,,,,,,,,,,,,,,,,,
1577376466,105,0,5004.615234,4983.077148,4186.666504,4481.538574,4134.871582,450,4,,,,0,4,0,0,4,0,,,,,,,,,,,,,,,,,,,,,,,,,,,,,,,,,,,,,
1577376466,106,0,5071.794922,4975.384766,4188.717773,4512.307617,4163.077148,450,4,,,,0,4,0,0,4,0,53,0,0.586267,0.614014,-0.398438,-0.347168,0.010254,-1.047868,0.111818,11.971848,-54.621758,42.290657,,,,,,,,,,,,,,,,,,,,,,,,,
1577376466,107,0,5075.897461,4954.871582,4197.436035,4571.794922,4134.871582,31,4,,,,0,4,0,0,4,0,,,,,,,,,,,,,,,,,,,,,,,,,,,,,,,,,,,,,
1577376466,108,0,4997.436035,4867.179688,4178.461426,4558.461426,4119.487305,450,4,,,,0,4,0,0,4,0,54,0,0.589232,0.611572,-0.401611,-0.342773,0.025391,-1.040055,0.104494,12.808385,-54.483147,42.248665,,,,,,,,,,,,,,,,,,,,,,,,,
1577376466,109,0,4928.205078,4874.871582,4187.179688,4484.102539,4162.563965,450,4,,,,0,4,0,0,4,0,,,,,,,,,,,,,,,,,,,,,,,,,,,,,,,,,,,,,
1577376466,110,0,4971.282227,4934.871582,4209.230957,4523.589844,4224.102539,450,4,,,,0,4,0,0,4,0,55,0,0.592428,0.609131,-0.404541,-0.338135,0.000977,-1.021988,0.091798,13.740715,-54.23877,42.210876,,,,,,,,,,,,,,,,,,,,,,,,,
1577376466,111,0,5107.179688,4932.307617,4198.461426,4572.307617,4193.333496,31,4,,,,0,4,0,0,4,0,,,,,,,,,,,,,,,,,,,,,,,,,,,,,,,,,,,,,
1577376466,112,0,5102.563965,4901.025879,4189.230957,4581.025879,4120.512695,450,4,,,,0,4,0,0,4,0,56,0,0.595024,0.606934,-0.407471,-0.333984,-0.018067,-1.014664,0.099611,14.519997,-54.018829,42.117046,,,,,,,,,,,,,,,,,,,,,,,,,
1577376466,113,0,4927.692383,4881.538574,4175.384766,4546.666504,4092.307617,450,4,,,,0,4,0,0,4,0,,,,,,,,,,,,,,,,,,,,,,,,,,,,,,,,,,,,,
1577376466,114,0,4894.358887,4917.436035,4205.641113,4511.282227,4146.666504,450,4,,,,0,4,0,0,4,0,57,0,0.59779,0.604736,-0.409668,-0.330322,-0.049317,-1.028824,0.113283,15.221351,-53.701252,41.912971,,,,,,,,,,,,,,,,,,,,,,,,,
1577376466,115,0,5036.410156,4904.102539,4234.871582,4591.794922,4236.922852,31,4,,,,0,4,0,0,4,0,,,,,,,,,,,,,5.079466,4.12416,9.02815,6.713769,3.417354,2.026866,1.369226,2.307212,2.296063,7.197257,3.650783,0.826149,1.413746,20.116182,7.604389,4.743417,3.864148,3.447149,2.094268,1.456957,7.788171,2.220493,2.905211,41.616768,17.858917
1577376466,116,0,5071.282227,4858.461426,4206.153809,4648.205078,4171.282227,450,4,,,,0,4,0,0,4,0,58,0,0.592428,0.609131,-0.404541,-0.338135,0.000977,-1.021988,0.091798,15.912384,-53.535065,41.908752,,,,,,,,,,,,,,,,,,,,,,,,,
1577376466,117,0,5005.641113,4906.666504,4214.871582,4594.358887,4117.94873,450,4,,,,0,4,0,0,4,0,,,,,,,,,,,,,,,,,,,,,,,,,,,,,,,,,,,,,
1577376466,118,0,4981.025879,4940.512695,4220,4598.461426,4141.538574,450,4,,,,0,4,0,0,4,0,59,0,0.59779,0.604736,-0.409668,-0.330322,-0.049317,-1.028824,0.113283,16.474499,-53.265865,41.725506,,,,,,,,,,,,,,,,,,,,,,,,,
1577376466,119,0,4971.794922,4903.589844,4208.717773,4651.282227,4132.307617,31,4,,,,0,4,0,0,4,0,,,,,,,,,,,,,,,,,,,,,,,,,,,,,,,,,,,,,
1577376466,120,0,4973.846191,4873.846191,4222.563965,4604.102539,4174.358887,450,4,,,,0,4,0,0,4,0,60,0,0.599538,0.603271,-0.411621,-0.327393,-0.062501,-1.051286,0.116213,17.100033,-53.143215,41.560585,,,,,,,,,,,,,,,,,,,,,,,,,
1577376466,121,0,4983.589844,4912.307617,4218.461426,4546.666504,4165.641113,450,4,,,,0,4,0,0,4,0,,,,,,,,,,,,,,,,,,,,,,,,,,,,,,,,,,,,,
1577376466,122,0,4945.641113,4995.384766,4227.179688,4592.820313,4158.461426,450,4,,,,0,4,0,0,4,0,61,0,0.601292,0.601807,-0.41333,-0.324707,-0.059571,-1.060075,0.104494,13.775015,-52.973015,41.412155,,,,,,,,,,,,,,,,,,,,,,,,,
1577376466,123,0,4931.794922,4985.641113,4220.512695,4657.94873,4182.05127,31,4,,,,0,4,0,0,4,0,,,,,,,,,,,,,,,,,,,,,,,,,,,,,,,,,,,,,
1577376466,124,0,4988.717773,4889.230957,4222.05127,4661.538574,4128.205078,450,4,,,,0,4,0,0,4,0,62,0,0.602685,0.600586,-0.414795,-0.32251,-0.063478,-1.060563,0.109865,14.790128,-52.819836,41.218754,,,,,,,,,,,,,,,,,,,,,,,,,
1577376466,125,0,5024.615234,4857.436035,4245.641113,4618.461426,4133.333496,450,4,,,,0,4,0,0,4,0,,,,,,,,,,,,,,,,,,,,,,,,,,,,,,,,,,,,,
1577376466,126,0,4935.384766,4907.179688,4220.512695,4566.153809,4182.563965,450,4,,,,0,4,0,0,4,0,63,0,0.603986,0.599609,-0.416016,-0.320313,-0.065919,-1.066911,0.108888,11.755916,-52.681973,41.044693,,,,,,,,,,,,,,,,,,,,,,,,,
1577376466,127,0,4851.282227,4966.153809,4217.94873,4564.102539,4175.897461,239,4,,,,0,4,0,0,4,0,,,,,,,,,,,,,,,,,,,,,,,,,,,,,,,,,,,,,
1577376466,0,0,4928.205078,4955.897461,4241.538574,4672.820313,4151.282227,450,4,,,,0,4,0,0,4,0,0,0,0.604943,0.598877,-0.416992,-0.318604,-0.069337,-1.053239,0.123537,12.972939,-52.498081,40.947853,,,,,,,,,,,,,,,,,,,,,,,,,
1577376466,1,0,5044.102539,4901.025879,4239.487305,4738.974121,4123.077148,450,4,,,,0,4,0,0,4,0,,,,,,,,,,,,,,,,,,,,,,,,,,,,,,,,,,,,,
1577376466,2,0,5023.077148,4888.205078,4241.025879,4654.871582,4143.077148,312,4,,,,0,2,0,0,4,0,1,0,0.605763,0.598145,-0.417969,-0.317139,-0.094728,-1.040055,0.115724,10.180261,-52.392395,40.80088,,,,,,,,,,,,,,,,,,,,,,,,,
1577376466,3,0,4913.846191,4891.794922,4224.102539,4557.436035,4160.512695,450,4,,,,0,2,0,0,4,0,,,,,,,,,,,,,6.738001,5.344527,8.995303,9.435048,4.48205,2.626935,2.247805,3.246112,2.356293,7.327487,1.651984,0.279622,1.090792,20.77706,5.110888,5.172874,4.830798,3.79624,2.415589,1.720538,7.238596,2.009757,2.498442,46.078197,17.501106
1577376466,4,0,4862.05127,4917.436035,4247.692383,4581.025879,4139.487305,0,4,,,,0,2,0,0,4,0,2,0,0.606249,0.597656,-0.418701,-0.316162,-0.09131,-1.058122,0.115724,11.495033,-52.117832,40.66861,,,,,,,,,,,,,,,,,,,,,,,,,
1577376466,5,0,4942.05127,4918.461426,4249.230957,4692.820313,4147.179688,450,4,,,,0,2,0,0,4,0,,,,,,,,,,,,,,,,,,,,,,,,,,,,,,,,,,,,,
1577376466,6,0,4980.512695,4875.897461,4206.666504,4692.820313,4120,6,4,,,,0,2,0,0,4,0,3,0,0.60652,0.597168,-0.419189,-0.315918,-0.084474,-1.057145,0.124025,12.678329,-52.050171,40.429932,,,,,,,,,,,,,,,,,,,,,,,,,
1577376466,7,0,4964.102539,4888.205078,4240,4614.358887,4129.743652,450,4,,,,0,2,0,0,4,0,,,,,,,,,,,,,,,,,,,,,,,,,,,,,,,,,,,,,
1577376466,8,0,4956.410156,4911.282227,4244.615234,4617.436035,4188.717773,450,4,,,,0,2,0,0,4,0,4,0,0.606351,0.597168,-0.419434,-0.315918,-0.088869,-1.062028,0.119631,13.68348,-51.869644,40.334751,,,,,,,,,,,,,,,,,,,,,,,,,
1577376466,9,0,4915.384766,4904.102539,4209.743652,4626.666504,4163.077148,325,4,,,,0,2,0,0,4,0,,,,,,,,,,,,,,,,,,,,,,,,,,,,,,,,,,,,,
1577376466,10,0,4921.025879,4893.846191,4232.820313,4620,4120,450,4,,,,0,2,0,0,4,0,5,0,0.606224,0.597168,-0.419434,-0.316162,-0.080079,-1.054215,0.118166,14.707747,-51.886616,40.189274,,,,,,,,,,,,,,,,,,,,,,,,,
1577376466,11,0,4937.436035,4894.358887,4255.384766,4594.358887,4108.717773,0,4,,,,0,2,0,0,4,0,,,,,,,,,,,,,,,,,,,,,,,,,,,,,,,,,,,,,
1577376466,12,0,4911.282227,4961.538574,4267.692383,4582.05127,4140,450,4,,,,0,2,0,0,4,0,6,0,0.605969,0.597168,-0.419434,-0.31665,-0.093751,-1.027359,0.114748,11.681773,-51.90189,40.237793,,,,,,,,,,,,,,,,,,,,,,,,,
1577376466,13,0,4922.05127,4951.282227,4222.05127,4623.077148,4158.461426,450,4,,,,0,2,0,0,4,0,,,,,,,,,,,,,,,,,,,,,,,,,,,,,,,,,,,,,
1577376466,14,0,4943.589844,4815.897461,4189.743652,4612.307617,4112.307617,450,4,,,,0,2,0,0,4,0,7,0,0.605586,0.597168,-0.419434,-0.317383,-0.096681,-1.011246,0.117189,12.786579,-51.796009,40.161827,,,,,,,,,,,,,,,,,,,,,,,,,
1577376466,15,0,4958.974121,4799.487305,4236.922852,4611.794922,4108.205078,0,4,,,,0,2,0,0,4,0,,,,,,,,,,,,,,,,,,,,,,,,,,,,,,,,,,,,,
1577376466,16,0,4918.974121,4906.666504,4249.230957,4607.692383,4134.358887,0,4,,,,0,2,0,0,4,0,8,0,0.605201,0.597168,-0.419434,-0.318115,-0.102052,-1.030777,0.110353,13.780906,-51.939976,39.973827,,,,,,,,,,,,,,,,,,,,,,,,,
1577376466,17,0,4835.384766,4950.769043,4242.05127,4566.666504,4150.769043,0,4,,,,0,2,0,0,4,0,,,,,,,,,,,,,,,,,,,,,,,,,,,,,,,,,,,,,
1577376466,18,0,4857.436035,4909.230957,4235.897461,4590.769043,4149.230957,0,4,,,,0,2,0,0,4,0,9,0,0.604558,0.597168,-0.419434,-0.319336,-0.104494,-1.027848,0.118166,14.675798,-51.890099,39.924259,,,,,,,,,,,,,,,,,,,,,,,,,
1577376466,19,0,4940.512695,4863.077148,4246.153809,4587.692383,4099.487305,0,4,,,,0,2,0,0,4,0,,,,,,,,,,,,,7.042076,7.103018,8.915857,13.634828,5.993557,3.486628,3.765834,4.334345,2.668962,7.429179,1.951069,0.217524,0.933463,19.75839,4.544388,5.667899,6.204625,4.18536,2.809877,2.309043,6.105834,1.980643,2.207212,46.841915,16.110291
1577376466,20,0,4977.94873,4852.307617,4260.512695,4595.384766,4125.641113,0,4,,,,0,2,0,0,4,0,10,0,0.603742,0.597168,-0.419678,-0.320557,-0.087892,-1.022965,0.096681,11.65302,-51.905025,39.999279,,,,,,,,,,,,,,,,,,,,,,,,,
1577376466,21,0,4945.128418,4858.461426,4187.692383,4596.410156,4175.384766,0,4,,,,0,2,0,0,4,0,,,,,,,,,,,,,,,,,,,,,,,,,,,,,,,,,,,,,
1577376466,22,0,4851.794922,4904.102539,4195.384766,4542.05127,4139.487305,0,4,,,,0,2,0,0,4,0,11,0,0.60285,0.597412,-0.419678,-0.321777,-0.08838,-1.027359,0.099611,8.992333,-51.858643,40.12661,,,,,,,,,,,,,,,,,,,,,,,,,
1577376466,23,0,4852.820313,4906.666504,4269.230957,4567.692383,4130.769043,0,4,,,,0,2,0,0,4,0,,,,,,,,,,,,,,,,,,,,,,,,,,,,,,,,,,,,,
1577376466,24,0,4940.512695,4886.153809,4234.358887,4605.641113,4142.05127,0,4,,,,0,2,0,0,4,0,12,0,0.602197,0.597412,-0.419678,-0.322998,-0.069337,-1.011246,0.100587,10.366084,-51.697269,40.121578,,,,,,,,,,,,,,,,,,,,,,,,,
1577376466,25,0,4982.563965,4918.974121,4212.307617,4601.025879,4156.410156,0,4,,,,0,2,0,0,4,0,,,,,,,,,,,,,,,,,,,,,,,,,,,,,,,,,,,,,
1577376466,26,0,4955.384766,4880,4220.512695,4590.256348,4162.05127,0,4,,,,0,2,0,0,4,0,13,0,0.601056,0.5979,-0.419678,-0.324219,-0.063966,-0.998062,0.094728,11.602459,-51.73148,40.176865,,,,,,,,,,,,,,,,,,,,,,,,,
1577376466,27,0,4881.538574,4854.871582,4251.794922,4509.743652,4132.307617,0,4,,,,0,2,0,0,4,0,,,,,,,,,,,,,,,,,,,,,,,,,,,,,,,,,,,,,
1577376466,28,0,4864.615234,4921.538574,4235.897461,4515.384766,4125.641113,0,4,,,,0,2,0,0,4,0,14,0,0.600191,0.598145,-0.419434,-0.325684,-0.069825,-1.006363,0.090333,12.655382,-51.881901,40.166809,,,,,,,,,,,,,,,,,,,,,,,,,
1577376466,29,0,4888.717773,4895.897461,4189.743652,4571.794922,4113.333496,0,4,,,,0,2,0,0,4,0,,,,,,,,,,,,,,,,,,,,,,,,,,,,,,,,,,,,,
1577376466,30,0,4892.307617,4856.922852,4234.358887,4516.922852,4123.589844,0,4,,,,0,2,0,0,4,0,15,0,0.599247,0.598633,-0.418945,-0.327148,-0.061524,-0.988785,0.092287,13.722643,-51.897648,40.157757,,,,,,,,,,,,,,,,,,,,,,,,,
1577376466,31,0,4890.256348,4914.871582,4236.410156,4486.666504,4149.230957,0,4,,,,0,2,0,0,4,0,,,,,,,,,,,,,,,,,,,,,,,,,,,,,,,,,,,,,
1577376466,32,0,4884.102539,4885.128418,4171.282227,4517.94873,4128.205078,0,4,,,,0,2,0,0,4,0,16,0,0.59792,0.599365,-0.418457,-0.328857,-0.05127,-0.993179,0.07715,10.735364,-51.911819,40.149612,,,,,,,,,,,,,,,,,,,,,,,,,
1577376466,33,0,4923.077148,4816.922852,4215.897461,4571.282227,4137.94873,0,4,,,,0,2,0,0,4,0,,,,,,,,,,,,,,,,,,,,,,,,,,,,,,,,,,,,,
1577376466,34,0,4891.282227,4864.102539,4293.333496,4573.333496,4148.205078,0,4,,,,0,2,0,0,4,0,17,0,0.596718,0.600098,-0.417969,-0.330322,-0.035645,-0.984878,0.085939,12.054442,-51.924576,40.261909,,,,,,,,,,,,,,,,,,,,,,,,,
1577376466,35,0,4824.102539,4927.692383,4310.256348,4466.666504,4141.538574,0,4,,,,0,2,0,0,4,0,,,,,,,,,,,,,7.782367,9.211038,8.951874,19.459177,8.186966,4.712075,5.903336,5.385546,3.376699,7.63941,1.772439,0.210888,0.77905,17.361134,4.138628,7.209581,7.704733,4.577591,3.383335,3.411193,4.842223,2.024167,2.102955,44.077049,14.184465
1577376466,36,0,4885.128418,4873.846191,4188.205078,4486.153809,4138.461426,0,4,,,,0,2,0,0,4,0,18,0,0.596062,0.600586,-0.417236,-0.331543,-0.017578,-0.98732,0.08838,13.121982,-51.995869,40.243347,,,,,,,,,,,,,,,,,,,,,,,,,
1577376466,37,0,4869.230957,4784.615234,4134.358887,4515.897461,4100,0,4,,,,0,2,0,0,4,0,,,,,,,,,,,,,,,,,,,,,,,,,,,,,,,,,,,,,
1577376466,38,0,4881.025879,4820.512695,4245.128418,4362.563965,4117.436035,0,4,,,,0,2,0,0,4,0,19,0,0.594984,0.601318,-0.416748,-0.332764,-0.029297,-0.975601,0.086915,13.903321,-52.11985,40.226643,,,,,,,,,,,,,,,,,,,,,,,,,
1577376466,39,0,4981.025879,4864.102539,4253.846191,4290.256348,4137.436035,0,4,,,,0,2,0,0,4,0,,,,,,,,,,,,,,,,,,,,,,,,,,,,,,,,,,,,,
1577376466,40,0,4847.179688,4836.410156,4229.743652,4374.871582,4117.94873,0,4,,,,0,2,0,0,4,0,20,0,0.594071,0.602051,-0.416016,-0.333984,-0.024414,-0.983902,0.100587,14.726158,-52.171616,40.211609,,,,,,,,,,,,,,,,,,,,,,,,,
1577376466,41,0,4670.256348,4886.666504,4237.436035,4473.333496,4133.333496,0,4,,,,0,2,0,0,4,0,,,,,,,,,,,,,,,,,,,,,,,,,,,,,,,,,,,,,
1577376466,42,0,4789.230957,4979.487305,4205.641113,4487.179688,4116.410156,0,4,,,,0,2,0,0,4,0,21,0,0.593538,0.602539,-0.415283,-0.334961,-0.030762,-0.980972,0.086915,11.698342,-52.038761,40.198078,,,,,,,,,,,,,,,,,,,,,,,,,
1577376466,43,0,4985.128418,4928.205078,4226.153809,4483.077148,4135.897461,0,4,,,,0,2,0,0,4,0,,,,,,,,,,,,,,,,,,,,,,,,,,,,,,,,,,,,,
1577376466,44,0,4906.666504,4851.282227,4222.563965,4480,4146.666504,0,4,,,,0,2,0,0,4,0,22,0,0.592615,0.603271,-0.414551,-0.336182,-0.027344,-0.959976,0.096193,12.562231,-51.919189,40.365345,,,,,,,,,,,,,,,,,,,,,,,,,
1577376466,45,0,4755.897461,4911.794922,4229.743652,4418.974121,4118.461426,0,4,,,,0,2,0,0,4,0,,,,,,,,,,,,,,,,,,,,,,,,,,,,,,,,,,,,,
1577376466,46,0,4834.358887,4931.794922,4250.256348,4452.307617,4163.077148,0,4,,,,0,2,0,0,4,0,23,0,0.594071,0.602051,-0.416016,-0.333984,-0.024414,-0.983902,0.100587,13.519176,-51.991024,40.336441,,,,,,,,,,,,,,,,,,,,,,,,,
1577376466,47,0,4954.871582,4893.333496,4220.512695,4516.410156,4164.615234,0,4,,,,0,2,0,0,4,0,,,,,,,,,,,,,,,,,,,,,,,,,,,,,,,,,,,,,
1577376466,48,0,4900,4902.05127,4220.512695,4489.743652,4127.692383,0,4,,,,0,2,0,0,4,0,24,0,0.592615,0.603271,-0.414551,-0.336182,-0.027344,-0.959976,0.096193,14.200981,-51.876228,40.489872,,,,,,,,,,,,,,,,,,,,,,,,,
1577376466,49,0,4810.256348,4877.94873,4215.897461,4446.666504,4115.897461,0,4,,,,0,2,0,0,4,0,,,,,,,,,,,,,,,,,,,,,,,,,,,,,,,,,,,,,
1577376466,50,0,4785.128418,4846.153809,4221.025879,4422.05127,4113.846191,0,4,,,,0,2,0,0,4,0,25,0,0.592075,0.60376,-0.413818,-0.337158,-0.009766,-0.958999,0.086427,14.994051,-52.012173,40.568146,,,,,,,,,,,,,,,,,,,,,,,,,
1577376466,51,0,4897.94873,4897.436035,4241.538574,4472.307617,4158.974121,0,4,,,,0,2,0,0,4,0,,,,,,,,,,,,,6.532433,11.186359,9.087095,26.400047,11.167896,6.230708,8.316765,6.211857,4.628622,8.097672,1.747459,0.228366,0.665535,14.229624,3.782041,8.709891,8.907359,4.961236,4.351214,5.135326,3.634075,2.027408,2.199098,38.825188,12.412319
1577376466,52,0,4912.820313,4909.743652,4207.179688,4491.794922,4148.717773,0,4,,,,0,2,0,0,4,0,26,0,0.591282,0.604492,-0.413086,-0.338135,-0.025391,-0.969741,0.085451,15.588184,-52.074707,40.698406,,,,,,,,,,,,,,,,,,,,,,,,,
1577376466,53,0,4791.794922,4890.256348,4224.102539,4428.205078,4120.512695,0,4,,,,0,2,0,0,4,0,,,,,,,,,,,,,,,,,,,,,,,,,,,,,,,,,,,,,
1577376466,54,0,4821.025879,4914.871582,4246.153809,4457.94873,4104.615234,0,4,,,,0,2,0,0,4,0,27,0,0.591124,0.604736,-0.412354,-0.338867,-0.000977,-0.977554,0.092775,12.414351,-52.071175,40.636196,,,,,,,,,,,,,,,,,,,,,,,,,
1577376466,55,0,4904.615234,4884.102539,4218.461426,4502.05127,4081.538574,0,4,,,,0,2,0,0,4,0,,,,,,,,,,,,,,,,,,,,,,,,,,,,,,,,,,,,,
1577376466,56,0,4914.358887,4844.615234,4228.205078,4491.794922,4150.769043,0,4,,,,0,2,0,0,4,0,28,0,0.590684,0.605225,-0.411865,-0.339355,-0.006348,-0.976089,0.083986,9.5579,-52.187622,40.640018,,,,,,,,,,,,,,,,,,,,,,,,,
1577376466,57,0,4867.692383,4871.794922,4231.282227,4464.102539,4209.230957,0,4,,,,0,2,0,0,4,0,,,,,,,,,,,,,,,,,,,,,,,,,,,,,,,,,,,,,
1577376466,58,0,4761.538574,4913.333496,4243.077148,4402.05127,4138.461426,0,4,,,,0,2,0,0,4,0,29,0,0.590494,0.605469,-0.411377,-0.339844,-0.018555,-0.966323,0.09131,10.815279,-52.292431,40.763092,,,,,,,,,,,,,,,,,,,,,,,,,
1577376466,59,0,4784.102539,4929.743652,4243.589844,4416.922852,4072.820557,0,4,,,,0,2,0,0,4,0,,,,,,,,,,,,,,,,,,,,,,,,,,,,,,,,,,,,,
1577376466,60,0,4917.436035,4918.461426,4215.384766,4453.333496,4075.384521,0,4,,,,0,2,0,0,4,0,30,0,0.590552,0.605469,-0.410889,-0.340332,-0.012207,-0.985855,0.100587,11.82729,-52.326939,40.574783,,,,,,,,,,,,,,,,,,,,,,,,,
1577376466,61,0,4958.974121,4884.615234,4231.282227,4461.025879,4148.205078,0,4,,,,0,2,0,0,4,0,,,,,,,,,,,,,,,,,,,,,,,,,,,,,,,,,,,,,
1577376466,62,0,4880.512695,4880,4237.94873,4470.769043,4163.077148,0,4,,,,0,2,0,0,4,0,31,0,0.590751,0.605469,-0.4104,-0.340576,-0.018067,-0.9673,0.100587,12.797914,-52.29818,40.584751,,,,,,,,,,,,,,,,,,,,,,,,,
1577376466,63,0,4809.743652,4936.922852,4237.94873,4428.205078,4121.025879,0,4,,,,0,2,0,0,4,0,,,,,,,,,,,,,,,,,,,,,,,,,,,,,,,,,,,,,
1577376466,64,0,4832.820313,4926.666504,4240.512695,4435.897461,4167.692383,450,4,,,,0,2,0,0,4,0,32,0,0.590639,0.605469,-0.410156,-0.341064,-0.01709,-0.980484,0.08838,13.61166,-52.212486,40.533905,,,,,,,,,,,,,,,,,,,,,,,,,
1577376466,65,0,4860,4869.743652,4228.205078,4477.94873,4212.820313,450,4,,,,0,2,0,0,4,0,,,,,,,,,,,,,,,,,,,,,,,,,,,,,,,,,,,,,
1577376466,66,0,4868.717773,4894.871582,4250.256348,4466.153809,4194.358887,148,4,,,,0,1,0,0,4,0,33,0,0.590304,0.605713,-0.409668,-0.341797,-0.008301,-0.99855,0.091798,14.344031,-52.25499,40.368511,,,,,,,,,,,,,,,,,,,,,,,,,
1577376466,67,0,4871.794922,4908.205078,4222.563965,4433.846191,4123.589844,450,4,,,,0,1,0,0,4,0,,,,,,,,,,,,,5.92069,12.512874,9.160727,33.33474,14.848148,7.902093,10.408735,6.703495,6.481014,8.862435,1.625256,0.251893,0.608696,11.052941,3.522156,10.487416,9.616775,5.484438,5.903848,7.407731,2.799061,1.953596,2.435572,32.477428,11.171428
1577376466,68,0,4817.436035,4895.897461,4213.333496,4406.666504,4089.230713,0,4,,,,0,1,0,0,4,0,34,0,0.59067,0.605713,-0.408936,-0.342041,0.001953,-0.991226,0.084474,15.062982,-52.353058,40.399105,,,,,,,,,,,,,,,,,,,,,,,,,
1577376466,69,0,4812.307617,4891.282227,4258.461426,4466.666504,4185.128418,450,4,,,,0,1,0,0,4,0,,,,,,,,,,,,,,,,,,,,,,,,,,,,,,,,,,,,,
1577376466,70,0,4831.794922,4855.897461,4217.94873,4497.94873,4195.384766,0,4,,,,0,1,0,0,4,0,35,0,0.590475,0.605957,-0.408447,-0.342529,-0.005859,-1.000992,0.08838,11.762222,-52.202057,40.42664,,,,,,,,,,,,,,,,,,,,,,,,,
1577376466,71,0,4801.538574,4883.589844,4212.820313,4436.410156,4151.794922,450,4,,,,0,1,0,0,4,0,,,,,,,,,,,,,,,,,,,,,,,,,,,,,,,,,,,,,
1577376466,72,0,4817.94873,4917.436035,4253.846191,4443.589844,4140,450,4,,,,0,1,0,0,2,0,36,0,0.590671,0.605957,-0.407959,-0.342773,-0.001953,-1.002945,0.092775,12.739353,-52.066158,40.571053,,,,,,,,,,,,,,,,,,,,,,,,,
1577376466,73,0,4861.538574,4854.358887,4239.487305,4480,4104.615234,216,4,,,,0,1,0,0,2,0,,,,,,,,,,,,,,,,,,,,,,,,,,,,,,,,,,,,,
1577376466,74,0,4897.94873,4828.205078,4221.538574,4503.077148,4153.333496,450,4,,,,0,1,0,0,2,0,37,0,0.590447,0.606201,-0.407715,-0.343018,-0.005859,-0.975113,0.104982,9.910218,-52.06348,40.641209,,,,,,,,,,,,,,,,,,,,,,,,,
1577376466,75,0,4862.05127,4863.077148,4200.512695,4480.512695,4189.230957,3,4,,,,0,1,0,0,2,0,,,,,,,,,,,,,,,,,,,,,,,,,,,,,,,,,,,,,
1577376466,76,0,4760,4907.692383,4227.179688,4417.436035,4173.333496,450,4,,,,0,1,0,0,2,0,38,0,0.590784,0.606201,-0.407227,-0.343018,0.004395,-0.993667,0.097169,7.244367,-52.061069,40.584717,,,,,,,,,,,,,,,,,,,,,,,,,
1577376466,77,0,4794.871582,4904.615234,4247.179688,4449.743652,4150.769043,450,4,,,,0,1,0,0,2,0,,,,,,,,,,,,,,,,,,,,,,,,,,,,,,,,,,,,,
1577376467,78,0,4891.794922,4838.461426,4217.436035,4494.358887,4123.589844,450,4,,,,0,1,0,0,2,0,39,0,0.59081,0.606201,-0.406982,-0.343262,-0.004395,-0.996109,0.100587,8.613467,-51.999081,40.653503,,,,,,,,,,,,,,,,,,,,,,,,,
1577376467,79,0,4931.282227,4795.897461,4216.922852,4487.692383,4179.487305,3,4,,,,0,1,0,0,2,0,,,,,,,,,,,,,,,,,,,,,,,,,,,,,,,,,,,,,
1577376467,80,0,4858.461426,4830.256348,4223.077148,4466.666504,4202.563965,450,4,,,,0,1,0,0,2,0,40,0,0.590978,0.606201,-0.406738,-0.343262,-0.00293,-0.99025,0.104494,9.845658,-52.122742,40.595783,,,,,,,,,,,,,,,,,,,,,,,,,
1577376467,81,0,4741.025879,4915.897461,4243.077148,4426.666504,4151.282227,450,4,,,,0,1,0,0,2,0,,,,,,,,,,,,,,,,,,,,,,,,,,,,,,,,,,,,,
1577376467,82,0,4812.820313,4930.769043,4243.589844,4450.256348,4148.717773,450,4,,,,0,1,0,0,2,0,41,0,0.591005,0.606201,-0.406494,-0.343506,-0.001953,-0.993667,0.092775,10.835,-52.174221,40.603649,,,,,,,,,,,,,,,,,,,,,,,,,
1577376467,83,0,4933.846191,4848.717773,4211.282227,4485.128418,4156.410156,3,4,,,,0,1,0,0,2,0,,,,,,,,,,,,,4.488628,12.75474,9.029919,38.909008,19.077713,9.573742,11.646427,6.909951,8.79742,9.88626,1.407597,0.286106,0.644451,8.402691,3.465137,11.709484,9.932435,6.503802,8.0541,9.96853,2.295687,1.821768,2.724597,26.249628,10.411455
1577376467,84,0,4882.563965,4815.897461,4234.358887,4483.589844,4189.230957,450,4,,,,0,1,0,0,2,0,42,0,0.59103,0.606201,-0.40625,-0.34375,0.004395,-0.988296,0.089845,11.845037,-52.160736,40.610729,,,,,,,,,,,,,,,,,,,,,,,,,
1577376467,85,0,4764.102539,4875.384766,4233.846191,4473.846191,4181.538574,450,4,,,,0,1,0,0,2,0,,,,,,,,,,,,,,,,,,,,,,,,,,,,,,,,,,,,,
1577376467,86,0,4727.692383,4913.333496,4223.589844,4456.410156,4097.94873,450,4,,,,0,1,0,0,2,0,43,0,0.591198,0.606201,-0.406006,-0.34375,-0.005859,-0.989273,0.093263,8.985703,-52.148598,40.557285,,,,,,,,,,,,,,,,,,,,,,,,,
1577376467,87,0,4870.256348,4892.307617,4249.743652,4515.897461,4104.615234,3,4,,,,0,1,0,0,2,0,,,,,,,,,,,,,,,,,,,,,,,,,,,,,,,,,,,,,
1577376467,88,0,4978.461426,4894.358887,4241.025879,4560.512695,4157.436035,450,4,,,,0,1,0,0,2,0,44,0,0.591474,0.605957,-0.405762,-0.343994,0,-0.986831,0.090333,10.120855,-52.376938,40.569004,,,,,,,,,,,,,,,,,,,,,,,,,
1577376467,89,0,4869.230957,4913.333496,4235.384766,4501.025879,4182.563965,450,4,,,,0,1,0,0,2,0,,,,,,,,,,,,,,,,,,,,,,,,,,,,,,,,,,,,,
1577376467,90,0,4756.410156,4885.128418,4223.077148,4450.256348,4178.461426,450,4,,,,0,1,0,0,2,0,45,0,0.591499,0.605957,-0.405518,-0.344238,-0.000977,-0.993179,0.094728,11.202308,-52.343178,40.459915,,,,,,,,,,,,,,,,,,,,,,,,,
1577376467,91,0,4793.846191,4857.94873,4228.205078,4448.205078,4131.794922,3,4,,,,0,1,0,0,2,0,,,,,,,,,,,,,,,,,,,,,,,,,,,,,,,,,,,,,
1577376467,92,0,4893.333496,4866.153809,4249.230957,4512.307617,4136.410156,450,4,,,,0,1,0,0,2,0,46,0,0.591751,0.606201,-0.404785,-0.344238,0.009277,-1.000504,0.099611,12.1158,-52.312798,40.481369,,,,,,,,,,,,,,,,,,,,,,,,,
1577376467,93,0,4834.871582,4842.05127,4225.128418,4534.871582,4164.615234,450,4,,,,0,1,0,0,2,0,,,,,,,,,,,,,,,,,,,,,,,,,,,,,,,,,,,,,
1577376467,94,0,4724.615234,4856.922852,4237.94873,4467.692383,4176.922852,450,4,,,,0,1,0,0,2,0,47,0,0.591467,0.606689,-0.404053,-0.344727,-0.005371,-1.016129,0.085451,13.057573,-52.405087,40.620308,,,,,,,,,,,,,,,,,,,,,,,,,
1577376467,95,0,4818.974121,4898.461426,4230.769043,4467.179688,4170.256348,3,4,,,,0,1,0,0,2,0,,,,,,,,,,,,,,,,,,,,,,,,,,,,,,,,,,,,,
1577376467,96,0,4927.179688,4845.128418,4198.461426,4510.256348,4150.769043,450,4,,,,0,1,0,0,2,0,48,0,0.591096,0.607422,-0.403076,-0.345215,0.008301,-1.025406,0.097169,10.136801,-52.488144,40.685539,,,,,,,,,,,,,,,,,,,,,,,,,
1577376467,97,0,4875.897461,4768.717773,4241.538574,4540,4183.589844,450,4,,,,0,1,0,0,2,0,,,,,,,,,,,,,,,,,,,,,,,,,,,,,,,,,,,,,
1577376467,98,0,4772.307617,4817.436035,4262.563965,4531.282227,4183.589844,450,4,,,,0,1,0,0,2,0,49,0,0.59022,0.608643,-0.4021,-0.345703,0.005371,-1.016129,0.090822,11.156843,-52.503082,40.624615,,,,,,,,,,,,,,,,,,,,,,,,,
1577376467,99,0,4720,4947.179688,4258.974121,4469.743652,4131.282227,3,4,,,,0,1,0,0,2,0,,,,,,,,,,,,,3.874013,11.87152,8.668303,42.008327,23.702602,11.097672,11.769835,7.004377,11.241285,11.009284,1.198282,0.318639,0.760013,6.586829,3.707615,12.776614,10.18522,8.367929,10.576126,12.411008,2.035152,1.691501,2.966901,20.836739,9.865968
1577376467,100,0,4821.538574,4923.077148,4232.307617,4474.358887,4132.307617,450,4,,,,0,1,0,0,2,0,50,0,0.58936,0.609863,-0.400879,-0.346436,-0.000488,-1.0215,0.094728,12.194512,-52.576344,40.689411,,,,,,,,,,,,,,,,,,,,,,,,,
1577376467,101,0,4906.666504,4807.692383,4214.358887,4512.820313,4143.589844,450,4,,,,0,1,0,0,2,0,,,,,,,,,,,,,,,,,,,,,,,,,,,,,,,,,,,,,
1577376467,102,0,4878.461426,4828.717773,4246.153809,4531.794922,4193.333496,450,4,,,,0,1,0,0,2,0,51,0,0.588493,0.611084,-0.399658,-0.347168,0.013184,-1.002945,0.095216,13.008783,-52.702091,40.687916,,,,,,,,,,,,,,,,,,,,,,,,,
1577376467,103,0,4822.563965,4893.333496,4207.179688,4530.256348,4198.461426,3,4,,,,0,1,0,0,2,0,,,,,,,,,,,,,,,,,,,,,,,,,,,,,,,,,,,,,
1577376467,104,0,4772.820313,4892.307617,4204.102539,4485.128418,4107.692383,450,4,,,,0,1,0,0,2,0,52,0,0.59022,0.608643,-0.4021,-0.345703,0.005371,-1.016129,0.090822,13.861258,-52.755451,40.626755,,,,,,,,,,,,,,,,,,,,,,,,,
1577376467,105,0,4813.333496,4886.666504,4252.820313,4508.205078,4093.846191,450,4,,,,0,1,0,0,2,0,,,,,,,,,,,,,,,,,,,,,,,,,,,,,,,,,,,,,
1577376467,106,0,4903.589844,4904.615234,4211.282227,4558.461426,4136.922852,450,4,,,,0,1,0,0,2,0,53,0,0.588493,0.611084,-0.399658,-0.347168,0.013184,-1.002945,0.095216,14.508855,-52.863289,40.631523,,,,,,,,,,,,,,,,,,,,,,,,,
1577376467,107,0,4883.589844,4899.487305,4208.717773,4537.436035,4174.871582,3,4,,,,0,1,0,0,2,0,,,,,,,,,,,,,,,,,,,,,,,,,,,,,,,,,,,,,
1577376467,108,0,4786.153809,4863.077148,4244.102539,4503.077148,4180,450,4,,,,0,1,0,0,2,0,54,0,0.587343,0.612549,-0.398682,-0.347656,0.013184,-0.98732,0.100099,15.211323,-52.900528,40.576,,,,,,,,,,,,,,,,,,,,,,,,,
1577376467,109,0,4748.205078,4847.692383,4280.512695,4488.717773,4127.692383,450,4,,,,0,1,0,0,2,0,,,,,,,,,,,,,,,,,,,,,,,,,,,,,,,,,,,,,
1577376467,110,0,4837.436035,4877.94873,4252.820313,4535.897461,4112.307617,450,4,,,,0,1,0,0,2,0,55,0,0.586441,0.61377,-0.397705,-0.348145,0.028809,-0.999527,0.101076,15.664097,-52.93404,40.705475,,,,,,,,,,,,,,,,,,,,,,,,,
1577376467,111,0,4908.205078,4897.436035,4152.820313,4568.717773,4135.897461,3,4,,,,0,1,0,0,2,0,,,,,,,,,,,,,,,,,,,,,,,,,,,,,,,,,,,,,
1577376467,112,0,4822.563965,4910.769043,4175.897461,4518.461426,4167.692383,450,4,,,,0,1,0,0,2,0,56,0,0.585769,0.614746,-0.396973,-0.348389,0.024414,-0.992691,0.104982,16.191225,-52.964203,40.702374,,,,,,,,,,,,,,,,,,,,,,,,,
1577376467,113,0,4745.641113,4915.897461,4266.153809,4487.179688,4165.641113,450,4,,,,0,1,0,0,2,0,,,,,,,,,,,,,,,,,,,,,,,,,,,,,,,,,,,,,
1577376467,114,0,4804.615234,4849.230957,4302.05127,4504.615234,4135.897461,450,4,,,,0,1,0,0,2,0,57,0,0.585094,0.615723,-0.39624,-0.348633,0.024414,-0.963394,0.1084,16.66564,-52.931538,40.639767,,,,,,,,,,,,,,,,,,,,,,,,,
1577376467,115,0,4914.871582,4826.153809,4253.846191,4556.922852,4175.897461,3,4,,,,0,1,0,0,2,0,,,,,,,,,,,,,3.381799,10.166445,8.081725,42.216183,28.525015,12.205874,10.93098,7.09472,13.358298,12.015156,0.900708,0.348141,0.944233,5.622417,4.234023,13.664157,10.69077,11.118528,12.98515,14.325008,1.941114,1.6475,3.108828,16.442778,9.352715
1577376467,116,0,4831.794922,4868.205078,4139.487305,4558.974121,4164.102539,450,4,,,,0,1,0,0,2,0,58,0,0.584526,0.616455,-0.395508,-0.349121,0.035645,-0.965835,0.109377,17.092615,-52.961948,40.703049,,,,,,,,,,,,,,,,,,,,,,,,,
1577376467,117,0,4678.974121,4910.256348,4190.256348,4484.615234,4090.256348,450,4,,,,0,1,0,0,2,0,,,,,,,,,,,,,,,,,,,,,,,,,,,,,,,,,,,,,
1577376467,118,0,4806.666504,4928.205078,4271.794922,4494.871582,4105.128418,450,4,,,,0,1,0,0,2,0,59,0,0.584122,0.617188,-0.394531,-0.349609,0.033204,-0.957534,0.117678,13.648707,-52.989323,40.640373,,,,,,,,,,,,,,,,,,,,,,,,,
1577376467,119,0,4969.230957,4871.794922,4252.820313,4550.256348,4138.974121,3,4,,,,0,1,0,0,2,0,,,,,,,,,,,,,,,,,,,,,,,,,,,,,,,,,,,,,
1577376467,120,0,4865.641113,4800.512695,4239.487305,4555.384766,4156.410156,450,4,,,,0,1,0,0,2,0,60,0,0.583661,0.617676,-0.393799,-0.350342,0.020508,-0.978042,0.11426,14.317559,-53.013958,40.64378,,,,,,,,,,,,,,,,,,,,,,,,,
1577376467,121,0,4717.436035,4828.717773,4188.205078,4534.871582,4147.692383,450,4,,,,0,1,0,0,2,0,,,,,,,,,,,,,,,,,,,,,,,,,,,,,,,,,,,,,
1577376467,122,0,4711.794922,4952.820313,4191.282227,4495.897461,4105.128418,450,4,,,,0,1,0,0,2,0,61,0,0.583179,0.618164,-0.393311,-0.35083,0.024903,-0.967788,0.12256,14.919525,-52.976315,40.766479,,,,,,,,,,,,,,,,,,,,,,,,,
1577376467,123,0,4835.384766,4965.641113,4259.487305,4505.128418,4100.512695,3,4,,,,0,1,0,0,2,0,,,,,,,,,,,,,,,,,,,,,,,,,,,,,,,,,,,,,
1577376467,124,0,4903.077148,4869.743652,4283.077148,4529.743652,4114.871582,450,4,,,,0,1,0,0,2,0,62,0,0.583267,0.618408,-0.392578,-0.351074,0.049317,-0.977066,0.110842,17.195942,-53.181698,40.757275,,,,,,,,,,,,,,,,,,,,,,,,,
1577376467,125,0,4854.358887,4877.436035,4262.05127,4535.384766,4200,450,4,,,,0,1,0,0,2,0,,,,,,,,,,,,,,,,,,,,,,,,,,,,,,,,,,,,,
1577376467,126,0,4772.307617,4936.410156,4188.717773,4541.025879,4212.820313,450,4,,,,0,1,0,0,2,0,63,0,0.583207,0.618652,-0.391846,-0.351563,0.050782,-0.966812,0.101076,17.510069,-53.24691,40.808807,,,,,,,,,,,,,,,,,,,,,,,,,
1577376467,127,0,4757.436035,4923.077148,4185.641113,4502.05127,4087.179443,239,4,,,,0,1,0,0,2,0,,,,,,,,,,,,,,,,,,,,,,,,,,,,,,,,,,,,,
1577376467,0,0,4860,4880,4245.641113,4506.666504,4094.871826,450,4,,,,0,1,0,0,2,0,0,0,0.58324,0.618652,-0.391357,-0.352051,0.058106,-0.974136,0.112306,17.613338,-53.305603,40.855186,,,,,,,,,,,,,,,,,,,,,,,,,
1577376467,1,0,4937.436035,4884.615234,4254.358887,4539.487305,4193.333496,450,4,,,,0,2,0,0,2,0,,,,,,,,,,,,,,,,,,,,,,,,,,,,,,,,,,,,,
1577376467,2,0,4821.025879,4936.410156,4261.025879,4523.077148,4242.563965,217,4,,,,0,2,0,0,2,0,1,0,0.583325,0.618896,-0.390625,-0.352295,0.044923,-0.982437,0.108888,17.766096,-53.238792,40.837112,,,,,,,,,,,,,,,,,,,,,,,,,
1577376467,3,0,4725.128418,4914.871582,4212.307617,4514.871582,4187.692383,450,4,,,,0,2,0,0,2,0,,,,,,,,,,,,,3.14962,8.220087,7.421866,40.073082,33.47382,12.807221,9.555511,7.158194,14.793197,12.757147,0.708721,0.372802,1.15177,5.328963,4.883213,14.441208,11.535647,14.243846,14.629496,15.450356,1.976945,1.777751,3.152167,13.001874,8.890529
1577376467,4,0,4797.436035,4828.205078,4193.333496,4502.563965,4070.769287,0,4,,,,0,2,0,0,2,0,2,0,0.583341,0.618896,-0.390381,-0.352539,0.05127,-0.991226,0.122072,14.195026,-53.178665,40.880661,,,,,,,,,,,,,,,,,,,,,,,,,
1577376467,5,0,4942.563965,4831.794922,4248.717773,4555.897461,4096.922852,450,4,,,,0,2,0,0,2,0,,,,,,,,,,,,,,,,,,,,,,,,,,,,,,,,,,,,,
1577376467,6,0,4920,4893.846191,4224.615234,4583.589844,4116.922852,0,4,,,,0,2,0,0,2,0,3,0,0.583519,0.618896,-0.389893,-0.352783,0.044923,-0.994156,0.117678,10.981062,-53.124554,40.860043,,,,,,,,,,,,,,,,,,,,,,,,,
1577376467,7,0,4751.794922,4933.333496,4223.077148,4490.769043,4086.153809,450,4,,,,0,2,0,0,2,0,,,,,,,,,,,,,,,,,,,,,,,,,,,,,,,,,,,,,
1577376467,8,0,4763.589844,4922.563965,4248.717773,4506.153809,4106.153809,450,4,,,,0,2,0,0,2,0,4,0,0.583535,0.618896,-0.389648,-0.353027,0.043946,-0.980972,0.117189,11.797048,-53.19548,40.901299,,,,,,,,,,,,,,,,,,,,,,,,,
1577376467,9,0,4906.153809,4867.692383,4229.230957,4590.256348,4083.589844,235,4,,,,0,2,0,0,2,0,,,,,,,,,,,,,,,,,,,,,,,,,,,,,,,,,,,,,
1577376467,10,0,4928.205078,4841.538574,4230.769043,4606.153809,4099.487305,450,4,,,,0,2,0,0,2,0,5,0,0.583291,0.619141,-0.389404,-0.353271,0.043946,-0.979019,0.118654,12.710881,-53.259315,40.878613,,,,,,,,,,,,,,,,,,,,,,,,,
1577376467,11,0,4815.384766,4867.692383,4216.410156,4559.487305,4129.743652,0,4,,,,0,2,0,0,2,0,,,,,,,,,,,,,,,,,,,,,,,,,,,,,,,,,,,,,
1577376467,12,0,4726.666504,4907.692383,4232.820313,4489.230957,4107.692383,450,4,,,,0,2,0,0,2,0,6,0,0.583306,0.619141,-0.38916,-0.353516,0.045899,-0.976089,0.109865,13.353885,-53.017689,40.977825,,,,,,,,,,,,,,,,,,,,,,,,,
1577376467,13,0,4841.025879,4896.410156,4249.743652,4527.179688,4118.974121,450,4,,,,0,2,0,0,2,0,,,,,,,,,,,,,,,,,,,,,,,,,,,,,,,,,,,,,
1577376467,14,0,4969.743652,4877.436035,4214.871582,4584.102539,4140,450,4,,,,0,2,0,0,2,0,7,0,0.583306,0.619141,-0.38916,-0.353516,0.055665,-0.981949,0.108888,13.932588,-53.278751,41.007305,,,,,,,,,,,,,,,,,,,,,,,,,
1577376467,15,0,4915.897461,4882.05127,4216.922852,4565.128418,4145.641113,0,4,,,,0,2,0,0,2,0,,,,,,,,,,,,,,,,,,,,,,,,,,,,,,,,,,,,,
1577376467,16,0,4769.743652,4869.743652,4230.256348,4530.769043,4117.436035,0,4,,,,0,2,0,0,2,0,8,0,0.583321,0.619141,-0.388916,-0.35376,0.056153,-0.983902,0.107424,14.573051,-53.274441,41.033833,,,,,,,,,,,,,,,,,,,,,,,,,
1577376467,17,0,4710.769043,4888.205078,4249.743652,4500.512695,4079.487061,0,4,,,,0,2,0,0,2,0,,,,,,,,,,,,,,,,,,,,,,,,,,,,,,,,,,,,,
1577376467,18,0,4870.769043,4928.205078,4255.384766,4539.487305,4133.846191,0,4,,,,0,2,0,0,2,0,9,0,0.58358,0.618896,-0.388916,-0.35376,0.038575,-0.968277,0.11133,15.029838,-53.270565,40.93808,,,,,,,,,,,,,,,,,,,,,,,,,
1577376467,19,0,4976.922852,4901.025879,4212.307617,4552.820313,4213.846191,0,4,,,,0,2,0,0,2,0,,,,,,,,,,,,,3.296392,6.521146,6.863296,36.687317,38.580833,12.966412,8.124365,7.02881,15.478285,13.218745,0.568843,0.403637,1.365212,5.513145,5.455172,15.092118,12.372939,16.823704,14.993016,15.757706,2.214468,2.113693,3.142309,10.448238,8.615208
1577376467,20,0,4860,4848.205078,4226.153809,4518.461426,4278.974121,0,4,,,,0,2,0,0,2,0,10,0,0.583987,0.618652,-0.388916,-0.353516,0.049317,-0.982437,0.106935,11.792209,-53.267075,40.792088,,,,,,,,,,,,,,,,,,,,,,,,,
1577376467,21,0,4781.538574,4840,4233.333496,4549.230957,4201.538574,0,4,,,,0,2,0,0,2,0,,,,,,,,,,,,,,,,,,,,,,,,,,,,,,,,,,,,,
1577376467,22,0,4828.205078,4876.410156,4215.384766,4538.974121,4055.384521,0,4,,,,0,2,0,0,2,0,11,0,0.58392,0.618408,-0.389404,-0.353516,0.047364,-0.982437,0.099123,12.64671,-53.443382,40.780323,,,,,,,,,,,,,,,,,,,,,,,,,
1577376467,23,0,4884.102539,4895.897461,4237.436035,4545.128418,4134.871582,0,4,,,,0,2,0,0,2,0,,,,,,,,,,,,,,,,,,,,,,,,,,,,,,,,,,,,,
1577376467,24,0,4867.692383,4873.846191,4230.769043,4588.717773,4236.922852,0,4,,,,0,2,0,0,2,0,12,0,0.584163,0.618164,-0.389648,-0.353271,0.052247,-0.97023,0.099123,9.587578,-53.422611,40.889366,,,,,,,,,,,,,,,,,,,,,,,,,
1577376467,25,0,4801.025879,4904.615234,4230.769043,4561.025879,4190.769043,0,4,,,,0,2,0,0,2,0,,,,,,,,,,,,,,,,,,,,,,,,,,,,,,,,,,,,,
1577376467,26,0,4820,4926.666504,4229.230957,4552.820313,4106.666504,0,4,,,,0,2,0,0,2,0,13,0,0.584664,0.617676,-0.389893,-0.353027,0.053223,-0.965835,0.10547,10.542912,-53.463734,40.80806,,,,,,,,,,,,,,,,,,,,,,,,,
1577376467,27,0,4905.641113,4871.282227,4220.512695,4557.436035,4054.871826,0,4,,,,0,2,0,0,2,0,,,,,,,,,,,,,,,,,,,,,,,,,,,,,,,,,,,,,
1577376467,28,0,4952.820313,4854.871582,4241.025879,4583.589844,4137.436035,0,4,,,,0,2,0,0,2,0,14,0,0.584891,0.617432,-0.390381,-0.352539,0.05127,-0.959487,0.097169,11.462528,-53.440929,40.675068,,,,,,,,,,,,,,,,,,,,,,,,,
1577376467,29,0,4892.307617,4829.743652,4216.922852,4581.025879,4161.538574,0,4,,,,0,2,0,0,2,0,,,,,,,,,,,,,,,,,,,,,,,,,,,,,,,,,,,,,
1577376467,30,0,4758.461426,4815.897461,4216.410156,4515.897461,4091.281982,0,4,,,,0,2,0,0,2,0,15,0,0.58539,0.616943,-0.390625,-0.352295,0.0542,-0.978042,0.101076,12.290182,-53.420403,40.675007,,,,,,,,,,,,,,,,,,,,,,,,,
1577376467,31,0,4762.05127,4876.410156,4251.282227,4539.487305,4125.128418,0,4,,,,0,2,0,0,2,0,,,,,,,,,,,,,,,,,,,,,,,,,,,,,,,,,,,,,
1577376467,32,0,4877.94873,4892.307617,4246.153809,4586.666504,4207.692383,0,4,,,,0,2,0,0,2,0,16,0,0.585794,0.616699,-0.390625,-0.352051,0.046876,-0.997086,0.097169,9.206887,-53.401928,40.734764,,,,,,,,,,,,,,,,,,,,,,,,,
1577376467,33,0,4943.589844,4830.769043,4238.461426,4605.128418,4239.487305,0,4,,,,0,2,0,0,2,0,,,,,,,,,,,,,,,,,,,,,,,,,,,,,,,,,,,,,
1577376467,34,0,4864.615234,4845.641113,4210.256348,4595.897461,4161.025879,0,4,,,,0,2,0,0,2,0,17,0,0.584891,0.617432,-0.390381,-0.352539,0.05127,-0.959487,0.097169,6.431922,-53.445118,40.728733,,,,,,,,,,,,,,,,,,,,,,,,,
1577376467,35,0,4747.692383,4955.384766,4229.743652,4527.179688,4076.923096,0,4,,,,0,2,0,0,2,0,,,,,,,,,,,,,3.384859,5.308235,6.473782,33.158855,44.132973,12.766902,6.947715,6.503337,15.675097,13.508497,0.505772,0.447747,1.544955,6.027226,5.852708,14.876495,12.588921,17.888472,13.932191,15.43701,2.70941,2.649452,3.143752,8.902488,8.6849
1577376467,36,0,4838.974121,4936.922852,4258.461426,4557.94873,4132.307617,0,4,,,,0,2,0,0,2,0,18,0,0.585794,0.616699,-0.390625,-0.352051,0.046876,-0.997086,0.097169,3.934454,-53.424175,40.783119,,,,,,,,,,,,,,,,,,,,,,,,,
1577376467,37,0,4953.333496,4843.589844,4210.769043,4607.692383,4196.922852,0,4,,,,0,2,0,0,2,0,,,,,,,,,,,,,,,,,,,,,,,,,,,,,,,,,,,,,
1577376467,38,0,4885.641113,4870.769043,4216.922852,4573.333496,4233.846191,0,4,,,,0,2,0,0,2,0,19,0,0.585888,0.616455,-0.390869,-0.352051,0.035645,-1.002945,0.104982,1.626917,-53.524956,40.891884,,,,,,,,,,,,,,,,,,,,,,,,,
1577376467,39,0,4819.487305,4904.102539,4234.871582,4582.05127,4226.153809,0,4,,,,0,2,0,0,2,0,,,,,,,,,,,,,,,,,,,,,,,,,,,,,,,,,,,,,
1577376467,40,0,4824.615234,4891.282227,4220,4574.871582,4139.487305,0,4,,,,0,2,0,0,2,0,20,0,0.585998,0.616211,-0.390869,-0.352295,0.03711,-1.014176,0.097169,3.438132,-53.496029,40.87014,,,,,,,,,,,,,,,,,,,,,,,,,
1577376467,41,0,4878.974121,4888.717773,4233.333496,4547.692383,4132.307617,0,4,,,,0,2,0,0,2,0,,,,,,,,,,,,,,,,,,,,,,,,,,,,,,,,,,,,,
1577376467,42,0,4906.666504,4911.282227,4232.820313,4568.717773,4170.256348,0,4,,,,0,2,0,0,2,0,21,0,0.586364,0.615723,-0.390869,-0.352539,0.033692,-1.009293,0.101564,5.068226,-53.469994,40.850571,,,,,,,,,,,,,,,,,,,,,,,,,
1577376467,43,0,4846.666504,4943.077148,4244.102539,4587.692383,4206.153809,0,4,,,,0,2,0,0,2,0,,,,,,,,,,,,,,,,,,,,,,,,,,,,,,,,,,,,,
1577376467,44,0,4803.077148,4920.512695,4236.922852,4603.077148,4202.05127,0,4,,,,0,2,0,0,2,0,22,0,0.586474,0.615479,-0.390869,-0.352783,0.027344,-1.000504,0.102052,6.654941,-53.506378,40.832958,,,,,,,,,,,,,,,,,,,,,,,,,
1577376467,45,0,4856.410156,4838.974121,4222.563965,4587.692383,4142.05127,0,4,,,,0,2,0,0,2,0,,,,,,,,,,,,,,,,,,,,,,,,,,,,,,,,,,,,,
1577376467,46,0,4912.307617,4796.410156,4240.512695,4578.974121,4162.05127,0,4,,,,0,2,0,0,2,0,23,0,0.586692,0.61499,-0.390869,-0.353271,0.030274,-1.000992,0.102541,8.1428,-53.479305,40.817108,,,,,,,,,,,,,,,,,,,,,,,,,
1577376467,47,0,4854.358887,4871.794922,4236.922852,4585.128418,4190.769043,0,4,,,,0,2,0,0,2,0,,,,,,,,,,,,,,,,,,,,,,,,,,,,,,,,,,,,,
1577376467,48,0,4755.384766,4978.461426,4246.153809,4559.487305,4181.025879,0,4,,,,0,2,0,0,2,0,24,0,0.586801,0.614746,-0.390869,-0.353516,0.041505,-1.019058,0.098146,9.302427,-53.514759,40.802841,,,,,,,,,,,,,,,,,,,,,,,,,
1577376467,49,0,4799.487305,4947.692383,4243.589844,4588.205078,4180,0,4,,,,0,2,0,0,2,0,,,,,,,,,,,,,,,,,,,,,,,,,,,,,,,,,,,,,
1577376467,50,0,4907.692383,4833.333496,4221.538574,4638.974121,4157.94873,0,4,,,,0,2,0,0,2,0,25,0,0.586925,0.614502,-0.390625,-0.354004,0.04004,-1.013687,0.089845,10.286276,-53.367218,40.730186,,,,,,,,,,,,,,,,,,,,,,,,,
1577376467,51,0,4960,4833.846191,4241.025879,4623.077148,4197.436035,0,4,,,,0,2,0,0,2,0,,,,,,,,,,,,,3.337873,4.506828,6.105448,30.131195,50.467949,12.274724,6.024875,5.570457,15.828268,13.767924,0.485408,0.506113,1.665271,6.803219,6.120556,13.805417,11.759912,16.966932,11.728122,14.774575,3.829011,3.326135,3.261098,8.605985,9.226931
1577376467,52,0,4903.589844,4882.563965,4229.230957,4560.512695,4210.256348,0,4,,,,0,2,0,0,2,0,26,0,0.58663,0.614502,-0.390625,-0.354492,0.038087,-1.00734,0.116213,11.171741,-53.413879,40.784428,,,,,,,,,,,,,,,,,,,,,,,,,
1577376467,53,0,4765.128418,4887.179688,4233.846191,4529.743652,4151.794922,0,4,,,,0,2,0,0,2,0,,,,,,,,,,,,,,,,,,,,,,,,,,,,,,,,,,,,,
1577376467,54,0,4800,4902.563965,4247.179688,4615.384766,4148.717773,0,4,,,,0,2,0,0,2,0,27,0,0.586335,0.614502,-0.390625,-0.35498,0.044923,-1.004898,0.096681,8.140474,-53.396061,40.77343,,,,,,,,,,,,,,,,,,,,,,,,,
1577376467,55,0,4937.436035,4904.615234,4225.128418,4679.487305,4160,0,4,,,,0,2,0,0,2,0,,,,,,,,,,,,,,,,,,,,,,,,,,,,,,,,,,,,,
1577376467,56,0,4947.179688,4872.307617,4235.384766,4623.589844,4176.922852,0,4,,,,0,2,0,0,2,0,28,0,0.586605,0.614258,-0.390381,-0.355225,0.046876,-1.004898,0.091798,9.240519,-53.559467,40.823349,,,,,,,,,,,,,,,,,,,,,,,,,
1577376467,57,0,4866.666504,4888.205078,4222.563965,4582.05127,4191.282227,0,4,,,,0,2,0,0,2,0,,,,,,,,,,,,,,,,,,,,,,,,,,,,,,,,,,,,,
1577376467,58,0,4797.94873,4956.410156,4222.563965,4575.897461,4165.128418,0,4,,,,0,2,0,0,2,0,29,0,0.58662,0.614258,-0.390137,-0.355469,0.03711,-1.00148,0.087404,6.34256,-53.586903,40.868275,,,,,,,,,,,,,,,,,,,,,,,,,
1577376467,59,0,4845.641113,4933.333496,4246.153809,4617.94873,4162.05127,0,4,,,,0,2,0,0,2,0,,,,,,,,,,,,,,,,,,,,,,,,,,,,,,,,,,,,,
1577376467,60,0,4910.769043,4865.128418,4239.487305,4636.922852,4147.692383,0,4,,,,0,2,0,0,2,0,30,0,0.586472,0.614258,-0.390137,-0.355713,0.047364,-0.98732,0.098146,7.622396,-53.611595,40.789074,,,,,,,,,,,,,,,,,,,,,,,,,
1577376467,61,0,4865.641113,4890.256348,4257.94873,4593.333496,4170.769043,0,4,,,,0,2,0,0,2,0,,,,,,,,,,,,,,,,,,,,,,,,,,,,,,,,,,,,,
1577376467,62,0,4842.563965,4908.717773,4222.05127,4631.282227,4205.128418,0,4,,,,0,2,0,0,2,0,31,0,0.586323,0.614258,-0.390137,-0.355957,0.029297,-0.993667,0.096193,8.774248,-53.574005,40.777615,,,,,,,,,,,,,,,,,,,,,,,,,
1577376467,63,0,4894.358887,4875.384766,4179.487305,4674.358887,4149.230957,0,4,,,,0,2,0,0,2,0,,,,,,,,,,,,,,,,,,,,,,,,,,,,,,,,,,,,,
1577376467,64,0,4922.05127,4847.692383,4228.717773,4624.102539,4122.05127,450,4,,,,0,2,0,0,2,0,32,0,0.586323,0.614258,-0.390137,-0.355957,0.020996,-0.997574,0.100587,9.87073,-53.599987,40.707481,,,,,,,,,,,,,,,,,,,,,,,,,
1577376467,65,0,4885.128418,4842.563965,4264.615234,4575.384766,4155.384766,450,4,,,,0,2,0,0,2,0,,,,,,,,,,,,,,,,,,,,,,,,,,,,,,,,,,,,,
1577376467,66,0,4815.384766,4912.307617,4268.717773,4594.358887,4188.717773,204,4,,,,0,2,0,0,2,0,33,0,0.586175,0.614258,-0.390137,-0.356201,0.028321,-0.991226,0.103517,10.797749,-53.623371,40.584549,,,,,,,,,,,,,,,,,,,,,,,,,
1577376467,67,0,4817.94873,4964.615234,4214.871582,4664.615234,4180.512695,450,4,,,,0,2,0,0,2,0,,,,,,,,,,,,,3.208673,3.893417,5.527949,27.587261,57.672161,11.537139,5.240061,4.575471,16.224785,14.05666,0.482815,0.569018,1.69196,7.8222,6.370512,11.482988,9.887906,14.276094,9.008192,14.015824,5.947829,4.104923,3.579822,9.632457,10.339826
1577376467,68,0,4868.205078,4878.974121,4191.794922,4655.384766,4138.974121,0,4,,,,0,2,0,0,2,0,34,0,0.586593,0.614014,-0.389893,-0.356201,0.03125,-0.992203,0.090333,7.863698,-53.704231,40.713169,,,,,,,,,,,,,,,,,,,,,,,,,
1577376467,69,0,4943.589844,4807.179688,4247.692383,4629.230957,4189.230957,450,4,,,,0,2,0,0,2,0,,,,,,,,,,,,,,,,,,,,,,,,,,,,,,,,,,,,,
1577376467,70,0,4903.589844,4842.563965,4238.461426,4622.563965,4189.743652,0,4,,,,0,2,0,0,2,0,35,0,0.586445,0.614014,-0.389893,-0.356445,0.039063,-0.980972,0.096193,9.051235,-53.717194,40.649479,,,,,,,,,,,,,,,,,,,,,,,,,
1577376467,71,0,4750.256348,4914.871582,4257.94873,4586.666504,4095.897461,450,4,,,,0,2,0,0,2,0,,,,,,,,,,,,,,,,,,,,,,,,,,,,,,,,,,,,,
1577376467,72,0,4822.05127,4926.666504,4254.358887,4624.615234,4100.512695,450,4,,,,0,2,0,0,2,0,36,0,0.586459,0.614014,-0.389648,-0.356689,0.041993,-0.984878,0.094728,10.120018,-53.549408,40.651978,,,,,,,,,,,,,,,,,,,,,,,,,
1577376467,73,0,4986.153809,4873.333496,4156.922852,4679.487305,4147.692383,259,4,,,,0,2,0,0,2,0,,,,,,,,,,,,,,,,,,,,,,,,,,,,,,,,,,,,,
1577376467,74,0,4973.846191,4877.94873,4190.769043,4665.128418,4178.974121,450,4,,,,0,2,0,0,2,0,37,0,0.586472,0.614014,-0.389404,-0.356934,0.034668,-0.994156,0.090822,7.25374,-53.637669,40.654224,,,,,,,,,,,,,,,,,,,,,,,,,
1577376467,75,0,4856.410156,4908.205078,4288.205078,4597.436035,4172.820313,0,4,,,,0,2,0,0,2,0,,,,,,,,,,,,,,,,,,,,,,,,,,,,,,,,,,,,,
1577376467,76,0,4758.974121,4898.974121,4326.153809,4569.230957,4120.512695,450,4,,,,0,2,0,0,2,0,38,0,0.586324,0.614014,-0.389404,-0.357178,0.020508,-0.992691,0.10547,4.67409,-53.597469,40.416985,,,,,,,,,,,,,,,,,,,,,,,,,
1577376468,77,0,4840.512695,4892.307617,4240,4658.974121,4112.307617,450,4,,,,0,2,0,0,2,0,,,,,,,,,,,,,,,,,,,,,,,,,,,,,,,,,,,,,
1577376468,78,0,4955.897461,4891.282227,4130.769043,4701.538574,4142.05127,450,4,,,,0,2,0,0,2,0,39,0,0.586337,0.614014,-0.38916,-0.357422,0.035157,-0.995132,0.099611,6.120773,-53.561287,40.323101,,,,,,,,,,,,,,,,,,,,,,,,,
1577376468,79,0,4912.820313,4902.05127,4197.436035,4620.512695,4172.820313,0,4,,,,0,2,0,0,2,0,,,,,,,,,,,,,,,,,,,,,,,,,,,,,,,,,,,,,
1577376468,80,0,4812.820313,4927.692383,4287.692383,4623.077148,4172.820313,450,4,,,,0,2,0,0,2,0,40,0,0.586188,0.614014,-0.38916,-0.357666,0.059083,-1.000992,0.096681,7.362972,-53.648357,40.29842,,,,,,,,,,,,,,,,,,,,,,,,,
1577376468,81,0,4794.358887,4931.282227,4281.538574,4669.743652,4136.410156,450,4,,,,0,2,0,0,2,0,,,,,,,,,,,,,,,,,,,,,,,,,,,,,,,,,,,,,
1577376468,82,0,4896.410156,4882.05127,4232.307617,4618.974121,4136.410156,450,4,,,,0,2,0,0,2,0,41,0,0.586256,0.614258,-0.388672,-0.357666,0.055177,-0.993179,0.092287,8.540766,-53.786537,40.216393,,,,,,,,,,,,,,,,,,,,,,,,,
1577376468,83,0,4961.538574,4858.461426,4197.436035,4544.615234,4136.410156,0,4,,,,0,2,0,0,2,0,,,,,,,,,,,,,2.863593,3.312577,4.675786,25.259399,65.189926,10.653668,4.530054,4.043769,16.887341,14.37546,0.455311,0.6217,1.616131,8.970891,6.624406,8.76393,7.434526,10.60547,6.535499,13.293302,9.140857,4.928461,4.113334,11.706383,11.990381
1577376468,84,0,4860.512695,4912.820313,4263.077148,4584.615234,4170.769043,450,4,,,,0,2,0,0,2,0,42,0,0.586269,0.614258,-0.388428,-0.35791,0.041505,-0.999039,0.087892,9.540966,-53.791264,40.262199,,,,,,,,,,,,,,,,,,,,,,,,,
1577376468,85,0,4801.025879,4896.922852,4235.384766,4701.538574,4185.128418,450,4,,,,0,2,0,0,2,0,,,,,,,,,,,,,,,,,,,,,,,,,,,,,,,,,,,,,
1577376468,86,0,4877.94873,4809.743652,4186.153809,4689.230957,4117.94873,450,4,,,,0,2,0,0,2,0,43,0,0.585877,0.614502,-0.388184,-0.358398,0.052247,-1.013199,0.098146,12.295422,-53.675892,40.243607,,,,,,,,,,,,,,,,,,,,,,,,,
1577376468,87,0,4928.205078,4822.05127,4253.333496,4628.717773,4145.641113,0,4,,,,0,2,0,0,2,0,,,,,,,,,,,,,,,,,,,,,,,,,,,,,,,,,,,,,
1577376468,88,0,4853.846191,4906.153809,4249.230957,4608.205078,4178.461426,450,4,,,,0,2,0,0,2,0,44,0,0.586051,0.614502,-0.387695,-0.358643,0.060548,-1.00734,0.100099,12.979972,-53.63187,40.286694,,,,,,,,,,,,,,,,,,,,,,,,,
1577376468,89,0,4785.128418,4944.102539,4220,4598.461426,4101.538574,450,4,,,,0,2,0,0,2,0,,,,,,,,,,,,,,,,,,,,,,,,,,,,,,,,,,,,,
1577376468,90,0,4868.205078,4907.179688,4255.384766,4685.128418,4077.94873,450,4,,,,0,2,0,0,2,0,45,0,0.586269,0.614258,-0.388428,-0.35791,0.041505,-0.999039,0.087892,13.536251,-53.652065,40.325466,,,,,,,,,,,,,,,,,,,,,,,,,
1577376468,91,0,4954.871582,4855.384766,4285.641113,4697.436035,4126.153809,0,4,,,,0,2,0,0,2,0,,,,,,,,,,,,,,,,,,,,,,,,,,,,,,,,,,,,,
1577376468,92,0,4928.717773,4885.128418,4261.538574,4631.794922,4207.692383,450,4,,,,0,2,0,0,2,0,46,0,0.586051,0.614502,-0.387695,-0.358643,0.060548,-1.00734,0.100099,14.096718,-53.610428,40.360367,,,,,,,,,,,,,,,,,,,,,,,,,
1577376468,93,0,4843.077148,4888.717773,4184.102539,4611.794922,4169.230957,450,4,,,,0,2,0,0,2,0,,,,,,,,,,,,,,,,,,,,,,,,,,,,,,,,,,,,,
1577376468,94,0,4777.436035,4832.820313,4207.179688,4605.128418,4058.974365,450,4,,,,0,2,0,0,2,0,47,0,0.585818,0.614746,-0.387207,-0.359131,0.043946,-0.991226,0.097169,10.772954,-53.752396,40.272144,,,,,,,,,,,,,,,,,,,,,,,,,
1577376468,95,0,4843.589844,4848.717773,4264.102539,4626.153809,4101.025879,0,4,,,,0,2,0,0,2,0,,,,,,,,,,,,,,,,,,,,,,,,,,,,,,,,,,,,,
1577376468,96,0,4928.205078,4894.871582,4230.769043,4637.436035,4196.922852,450,4,,,,0,2,0,0,2,0,48,0,0.585841,0.614746,-0.386719,-0.359619,0.045899,-0.98732,0.09424,11.669565,-53.76054,40.25256,,,,,,,,,,,,,,,,,,,,,,,,,
1577376468,97,0,4905.128418,4874.871582,4227.692383,4639.487305,4239.487305,450,4,,,,0,2,0,0,2,0,,,,,,,,,,,,,,,,,,,,,,,,,,,,,,,,,,,,,
1577376468,98,0,4816.410156,4867.179688,4224.615234,4644.615234,4179.487305,450,4,,,,0,2,0,0,2,0,49,0,0.585457,0.61499,-0.38623,-0.360352,0.052735,-0.992203,0.090822,12.476516,-53.708054,40.115303,,,,,,,,,,,,,,,,,,,,,,,,,
1577376468,99,0,4781.538574,4927.692383,4236.922852,4605.128418,4062.564209,0,4,,,,0,2,0,0,2,0,,,,,,,,,,,,,2.470681,2.753325,3.638141,23.014511,71.837616,9.738068,3.945468,4.371925,17.638727,14.697683,0.412475,0.649897,1.473132,9.902195,6.780331,5.966626,5.045926,6.936328,4.95064,12.640876,12.957659,5.714581,4.784141,14.245674,13.947898
1577376468,100,0,4894.358887,4904.615234,4252.307617,4617.436035,4099.487305,450,4,,,,0,2,0,0,2,0,50,0,0.585478,0.61499,-0.385742,-0.36084,0.049805,-0.975601,0.073732,13.202771,-53.660816,40.111401,,,,,,,,,,,,,,,,,,,,,,,,,
1577376468,101,0,4940.512695,4839.487305,4215.384766,4653.846191,4186.153809,450,4,,,,0,2,0,0,2,0,,,,,,,,,,,,,,,,,,,,,,,,,,,,,,,,,,,,,
1577376468,102,0,4842.563965,4893.333496,4243.077148,4622.05127,4243.077148,450,4,,,,0,2,0,0,2,0,51,0,0.585242,0.615234,-0.385254,-0.361328,0.066407,-0.983413,0.100099,10.028218,-53.678116,40.107891,,,,,,,,,,,,,,,,,,,,,,,,,
1577376468,103,0,4824.102539,4920,4263.077148,4631.282227,4200.512695,0,4,,,,0,2,0,0,2,0,,,,,,,,,,,,,,,,,,,,,,,,,,,,,,,,,,,,,
1577376468,104,0,4866.666504,4849.230957,4231.794922,4636.922852,4053.846191,450,4,,,,0,2,0,0,2,0,52,0,0.585005,0.615479,-0.384766,-0.361816,0.060548,-0.98732,0.099123,10.999304,-53.753506,40.044914,,,,,,,,,,,,,,,,,,,,,,,,,
1577376468,105,0,4919.487305,4850.256348,4243.589844,4669.230957,4082.05127,450,4,,,,0,2,0,0,2,0,,,,,,,,,,,,,,,,,,,,,,,,,,,,,,,,,,,,,
1577376468,106,0,4899.487305,4911.794922,4244.615234,4646.666504,4227.179688,450,4,,,,0,2,0,0,2,0,53,0,0.585078,0.615723,-0.384033,-0.362061,0.06836,-0.96437,0.091798,11.933095,-53.82135,39.988239,,,,,,,,,,,,,,,,,,,,,,,,,
1577376468,107,0,4775.384766,4952.307617,4255.384766,4555.384766,4269.230957,0,4,,,,0,2,0,0,2,0,,,,,,,,,,,,,,,,,,,,,,,,,,,,,,,,,,,,,
1577376468,108,0,4813.333496,4947.179688,4251.282227,4630.769043,4192.307617,450,4,,,,0,2,0,0,2,0,54,0,0.585096,0.615723,-0.383545,-0.362549,0.076661,-0.979507,0.096193,8.825694,-54.002045,40.176491,,,,,,,,,,,,,,,,,,,,,,,,,
1577376468,109,0,4951.794922,4856.410156,4222.05127,4697.436035,4117.94873,450,4,,,,0,2,0,0,2,0,,,,,,,,,,,,,,,,,,,,,,,,,,,,,,,,,,,,,
1577376468,110,0,4982.05127,4805.128418,4235.384766,4627.692383,4187.179688,450,4,,,,0,2,0,0,2,0,55,0,0.585113,0.615723,-0.383057,-0.363037,0.066407,-0.983413,0.099611,9.737586,-54.04504,40.046841,,,,,,,,,,,,,,,,,,,,,,,,,
1577376468,111,0,4900.512695,4900,4249.230957,4601.538574,4216.410156,0,4,,,,0,2,0,0,2,0,,,,,,,,,,,,,,,,,,,,,,,,,,,,,,,,,,,,,
1577376468,112,0,4788.717773,4975.384766,4262.05127,4608.717773,4106.666504,450,4,,,,0,2,0,0,2,0,56,0,0.584864,0.615967,-0.382813,-0.363281,0.053712,-0.979019,0.09424,12.532195,-54.023918,40.1096,,,,,,,,,,,,,,,,,,,,,,,,,
1577376468,113,0,4801.025879,4901.538574,4250.256348,4610.769043,4077.94873,450,4,,,,0,2,0,0,2,0,,,,,,,,,,,,,,,,,,,,,,,,,,,,,,,,,,,,,
1577376468,114,0,4923.589844,4867.179688,4216.922852,4610.256348,4158.974121,450,4,,,,0,2,0,0,2,0,57,0,0.58472,0.615967,-0.382568,-0.36377,0.075685,-0.992203,0.096681,13.013621,-54.124538,40.166084,,,,,,,,,,,,,,,,,,,,,,,,,
1577376468,115,0,4950.769043,4927.179688,4242.05127,4649.743652,4246.666504,0,4,,,,0,2,0,0,2,0,,,,,,,,,,,,,2.080121,2.366865,2.697137,21.108246,76.288139,8.829747,3.575857,5.627156,18.20351,15.00103,0.351792,0.645159,1.314904,10.358479,6.778893,4.003478,3.294268,4.095133,4.63165,12.071525,16.459181,6.345425,5.463793,16.585051,15.828873
1577376468,116,0,4829.743652,4888.205078,4230.256348,4662.563965,4177.94873,450,4,,,,0,2,0,0,2,0,58,0,0.584631,0.616211,-0.38208,-0.364014,0.068849,-0.99025,0.084962,13.626351,-54.09547,40.336552,,,,,,,,,,,,,,,,,,,,,,,,,
1577376468,117,0,4761.538574,4853.846191,4224.102539,4587.179688,4054.871826,450,4,,,,0,2,0,0,2,0,,,,,,,,,,,,,,,,,,,,,,,,,,,,,,,,,,,,,
1577376468,118,0,4918.974121,4906.153809,4261.538574,4606.666504,4124.615234,450,4,,,,0,2,0,0,2,0,59,0,0.584486,0.616211,-0.381836,-0.364502,0.066896,-0.994644,0.095705,14.117992,-53.949673,40.310528,,,,,,,,,,,,,,,,,,,,,,,,,
1577376468,119,0,5006.666504,4906.153809,4230.256348,4658.461426,4231.282227,0,4,,,,0,2,0,0,2,0,,,,,,,,,,,,,,,,,,,,,,,,,,,,,,,,,,,,,
1577376468,120,0,4881.025879,4884.615234,4213.846191,4633.333496,4274.358887,450,4,,,,0,2,0,0,2,0,60,0,0.584235,0.616455,-0.381592,-0.364746,0.067384,-0.979507,0.100099,16.414745,-53.997906,40.34692,,,,,,,,,,,,,,,,,,,,,,,,,
1577376468,121,0,4814.358887,4908.717773,4231.794922,4663.077148,4236.922852,450,4,,,,0,2,0,0,2,0,,,,,,,,,,,,,,,,,,,,,,,,,,,,,,,,,,,,,
1577376468,122,0,4847.692383,4926.666504,4247.692383,4655.897461,4121.538574,450,4,,,,0,2,0,0,2,0,61,0,0.584235,0.616455,-0.381592,-0.364746,0.077638,-0.983902,0.095705,16.747179,-54.041313,40.439487,,,,,,,,,,,,,,,,,,,,,,,,,
1577376468,123,0,4882.05127,4879.487305,4252.820313,4594.358887,4136.922852,0,4,,,,0,2,0,0,2,0,,,,,,,,,,,,,,,,,,,,,,,,,,,,,,,,,,,,,
1577376468,124,0,4861.025879,4820.512695,4210.256348,4555.897461,4187.179688,450,4,,,,0,2,0,0,2,0,62,0,0.584083,0.616455,-0.381592,-0.36499,0.074708,-0.993667,0.101564,18.840828,-53.960751,40.5228,,,,,,,,,,,,,,,,,,,,,,,,,
1577376468,125,0,4801.538574,4885.641113,4221.025879,4565.641113,4215.384766,450,4,,,,0,2,0,0,2,0,,,,,,,,,,,,,,,,,,,,,,,,,,,,,,,,,,,,,
1577376468,126,0,4816.922852,4966.153809,4254.358887,4644.615234,4213.846191,450,4,,,,0,2,0,0,2,0,63,0,0.584083,0.616455,-0.381592,-0.36499,0.068849,-0.979507,0.093751,18.811022,-54.007874,40.537964,,,,,,,,,,,,,,,,,,,,,,,,,
1577376468,127,0,4889.743652,4883.589844,4240,4668.717773,4147.179688,239,4,,,,0,2,0,0,2,0,,,,,,,,,,,,,,,,,,,,,,,,,,,,,,,,,,,,,
1577376468,0,0,4973.846191,4794.358887,4228.717773,4651.282227,4168.717773,450,4,,,,0,2,0,0,2,0,0,0,0.58409,0.616455,-0.381348,-0.365234,0.072755,-0.981949,0.104005,18.844011,-54.349361,40.551613,,,,,,,,,,,,,,,,,,,,,,,,,
1577376468,1,0,4906.153809,4875.897461,4213.846191,4607.179688,4210.769043,450,4,,,,0,2,0,0,2,0,,,,,,,,,,,,,,,,,,,,,,,,,,,,,,,,,,,,,
1577376468,2,0,4747.692383,4980.512695,4245.641113,4565.128418,4167.179688,161,4,,,,0,2,0,0,2,0,1,0,0.583839,0.616699,-0.381104,-0.365479,0.07715,-0.980484,0.107424,20.727978,-54.237991,40.623711,,,,,,,,,,,,,,,,,,,,,,,,,
1577376468,3,0,4828.205078,4927.179688,4254.871582,4658.461426,4151.794922,450,4,,,,0,2,0,0,2,0,,,,,,,,,,,,,1.780558,2.249404,2.188587,19.870972,77.668648,8.04513,3.463769,7.611885,18.300287,15.281604,0.301187,0.618867,1.190615,10.321883,6.703032,2.964577,2.355852,2.414281,5.613988,11.655156,18.504955,6.659339,5.983736,18.256908,17.325518
1577376468,4,0,4958.461426,4842.563965,4207.179688,4668.205078,4193.333496,0,4,,,,0,2,0,0,2,0,2,0,0.583533,0.616699,-0.381104,-0.365967,0.069337,-1.004898,0.084962,20.509457,-54.197575,40.688599,,,,,,,,,,,,,,,,,,,,,,,,,
1577376468,5,0,4928.205078,4848.717773,4225.641113,4624.102539,4270.256348,450,4,,,,0,2,0,0,2,0,,,,,,,,,,,,,,,,,,,,,,,,,,,,,,,,,,,,,
1577376468,6,0,4809.743652,4836.922852,4226.153809,4634.358887,4245.641113,0,4,,,,0,2,0,0,2,0,3,0,0.583539,0.616699,-0.380859,-0.366211,0.078614,-0.980972,0.08838,20.312788,-54.28083,40.627369,,,,,,,,,,,,,,,,,,,,,,,,,
1577376468,7,0,4710.256348,4834.871582,4217.436035,4558.974121,4140.512695,450,4,,,,0,2,0,0,2,0,,,,,,,,,,,,,,,,,,,,,,,,,,,,,,,,,,,,,
1577376468,8,0,4808.205078,4877.94873,4247.179688,4555.897461,4137.436035,450,4,,,,0,2,0,0,2,0,4,0,0.583386,0.616699,-0.380859,-0.366455,0.076173,-0.979019,0.084474,16.187971,-54.475391,40.572262,,,,,,,,,,,,,,,,,,,,,,,,,
1577376468,9,0,4927.692383,4903.077148,4233.846191,4628.205078,4179.487305,200,4,,,,0,2,0,0,2,0,,,,,,,,,,,,,,,,,,,,,,,,,,,,,,,,,,,,,
1577376468,10,0,4868.717773,4923.077148,4230.256348,4617.436035,4221.538574,450,4,,,,0,2,0,0,2,0,5,0,0.583133,0.616943,-0.380615,-0.366699,0.065919,-0.98439,0.080079,12.774713,-54.411236,40.462849,,,,,,,,,,,,,,,,,,,,,,,,,
1577376468,11,0,4760.512695,4906.153809,4224.615234,4595.384766,4227.692383,2,4,,,,0,2,0,0,2,0,,,,,,,,,,,,,,,,,,,,,,,,,,,,,,,,,,,,,
1577376468,12,0,4758.974121,4871.794922,4227.179688,4595.897461,4150.769043,450,4,,,,0,2,0,0,2,0,6,0,0.583139,0.616943,-0.380371,-0.366943,0.067384,-0.980972,0.085451,13.411333,-54.353497,40.424194,,,,,,,,,,,,,,,,,,,,,,,,,
1577376468,13,0,4885.641113,4885.128418,4243.077148,4593.846191,4131.794922,450,4,,,,0,2,0,0,2,0,,,,,,,,,,,,,,,,,,,,,,,,,,,,,,,,,,,,,
1577376468,14,0,4930.256348,4874.871582,4220.512695,4588.717773,4174.871582,450,4,,,,0,2,0,0,2,0,7,0,0.582886,0.617188,-0.380127,-0.367188,0.07422,-0.990738,0.098146,13.984292,-54.361343,40.449219,,,,,,,,,,,,,,,,,,,,,,,,,
1577376468,15,0,4814.358887,4855.897461,4222.563965,4597.436035,4206.153809,2,4,,,,0,2,0,0,2,0,,,,,,,,,,,,,,,,,,,,,,,,,,,,,,,,,,,,,
1577376468,16,0,4760,4887.692383,4224.615234,4610.256348,4195.897461,0,4,,,,0,2,0,0,2,0,8,0,0.582892,0.617188,-0.379883,-0.367432,0.07129,-0.979995,0.083497,16.294415,-54.368408,40.471745,,,,,,,,,,,,,,,,,,,,,,,,,
1577376468,17,0,4827.179688,4878.974121,4220.512695,4584.615234,4169.230957,0,4,,,,0,2,0,0,2,0,,,,,,,,,,,,,,,,,,,,,,,,,,,,,,,,,,,,,
1577376468,18,0,4888.205078,4838.461426,4239.487305,4612.307617,4198.974121,0,4,,,,0,2,0,0,2,0,9,0,0.582892,0.617188,-0.379883,-0.367432,0.070802,-0.977554,0.090333,16.459435,-54.374767,40.55183,,,,,,,,,,,,,,,,,,,,,,,,,
1577376468,19,0,4810.256348,4838.461426,4223.077148,4626.666504,4190.769043,0,4,,,,0,2,0,0,2,0,,,,,,,,,,,,,1.601654,2.324692,2.288881,19.351551,75.998306,7.440409,3.484784,9.882348,17.844025,15.589924,0.275819,0.597406,1.134724,10.007723,6.712275,2.502014,2.076226,1.730759,7.686187,11.473754,18.364462,6.600994,6.151814,19.122992,18.477747
1577376468,20,0,4703.077148,4865.128418,4241.538574,4546.153809,4143.589844,0,4,,,,0,2,0,0,2,0,10,0,0.582886,0.617188,-0.380127,-0.367188,0.07422,-0.990738,0.098146,16.727583,-54.260857,40.564091,,,,,,,,,,,,,,,,,,,,,,,,,
1577376468,21,0,4782.05127,4869.230957,4231.282227,4554.358887,4152.307617,0,4,,,,0,2,0,0,2,0,,,,,,,,,,,,,,,,,,,,,,,,,,,,,,,,,,,,,
1577376468,22,0,4897.436035,4828.205078,4216.410156,4608.717773,4175.897461,0,4,,,,0,2,0,0,2,0,11,0,0.582892,0.617188,-0.379883,-0.367432,0.070802,-0.977554,0.090333,16.849285,-54.277969,40.634941,,,,,,,,,,,,,,,,,,,,,,,,,
1577376468,23,0,4858.974121,4811.794922,4254.871582,4624.615234,4225.128418,0,4,,,,0,2,0,0,2,0,,,,,,,,,,,,,,,,,,,,,,,,,,,,,,,,,,,,,
1577376468,24,0,4741.538574,4869.230957,4212.307617,4604.102539,4235.897461,0,4,,,,0,2,0,0,2,0,12,0,0.582897,0.617188,-0.379639,-0.367676,0.084474,-0.989761,0.07715,13.19045,-54.233555,40.638893,,,,,,,,,,,,,,,,,,,,,,,,,
1577376468,25,0,4683.077148,4953.333496,4192.307617,4546.153809,4165.128418,0,4,,,,0,2,0,0,2,0,,,,,,,,,,,,,,,,,,,,,,,,,,,,,,,,,,,,,
1577376468,26,0,4791.794922,4939.487305,4236.410156,4563.077148,4137.436035,0,4,,,,0,2,0,0,2,0,13,0,0.582902,0.617188,-0.379395,-0.36792,0.076173,-0.989273,0.08838,13.785497,-54.133766,40.582634,,,,,,,,,,,,,,,,,,,,,,,,,
1577376468,27,0,4888.205078,4851.794922,4258.461426,4611.282227,4162.563965,0,4,,,,0,2,0,0,2,0,,,,,,,,,,,,,,,,,,,,,,,,,,,,,,,,,,,,,
1577376468,28,0,4839.487305,4832.307617,4272.820313,4617.436035,4226.153809,0,4,,,,0,2,0,0,2,0,14,0,0.583065,0.617188,-0.378906,-0.368164,0.071778,-1.008316,0.093263,14.380854,-54.163589,40.472183,,,,,,,,,,,,,,,,,,,,,,,,,
1577376468,29,0,4762.05127,4866.153809,4199.487305,4604.615234,4219.487305,0,4,,,,0,2,0,0,2,0,,,,,,,,,,,,,,,,,,,,,,,,,,,,,,,,,,,,,
1577376468,30,0,4744.102539,4930.769043,4161.538574,4557.436035,4132.820313,0,4,,,,0,2,0,0,2,0,15,0,0.583328,0.616943,-0.378662,-0.368408,0.067872,-0.98439,0.09424,14.85686,-54.250244,40.37278,,,,,,,,,,,,,,,,,,,,,,,,,
1577376468,31,0,4833.846191,4942.05127,4243.589844,4569.743652,4149.230957,0,4,,,,0,2,0,0,2,0,,,,,,,,,,,,,,,,,,,,,,,,,,,,,,,,,,,,,
1577376468,32,0,4879.487305,4894.871582,4296.410156,4621.025879,4209.230957,0,4,,,,0,2,0,0,2,0,16,0,0.58349,0.616943,-0.378174,-0.368652,0.097169,-0.997086,0.099611,11.277637,-54.38805,40.462761,,,,,,,,,,,,,,,,,,,,,,,,,
1577376468,33,0,4803.077148,4911.794922,4269.230957,4588.717773,4230.769043,0,4,,,,0,2,0,0,2,0,,,,,,,,,,,,,,,,,,,,,,,,,,,,,,,,,,,,,
1577376468,34,0,4763.589844,4882.05127,4184.615234,4549.743652,4205.128418,0,4,,,,0,2,0,0,2,0,17,0,0.583494,0.616943,-0.37793,-0.368896,0.079103,-0.984878,0.083497,11.884519,-54.452259,40.3643,,,,,,,,,,,,,,,,,,,,,,,,,
1577376468,35,0,4779.487305,4813.333496,4169.230957,4560,4140.512695,0,4,,,,0,2,0,0,2,0,,,,,,,,,,,,,1.485516,2.461346,2.992352,19.226173,72.258865,6.968762,3.470971,11.974622,16.981632,16.026403,0.293524,0.599039,1.151148,9.701619,6.953163,2.150071,2.176258,1.629068,10.399977,11.529165,16.105343,6.35182,5.844028,19.441757,19.615614
1577376468,36,0,4846.666504,4855.384766,4244.102539,4611.282227,4155.384766,0,4,,,,0,2,0,0,2,0,18,0,0.583656,0.616943,-0.377441,-0.369141,0.086427,-0.994156,0.099123,8.722159,-54.45023,40.21587,,,,,,,,,,,,,,,,,,,,,,,,,
1577376468,37,0,4853.846191,4880,4275.897461,4615.897461,4150.769043,0,4,,,,0,2,0,0,2,0,,,,,,,,,,,,,,,,,,,,,,,,,,,,,,,,,,,,,
1577376468,38,0,4744.615234,4872.820313,4293.846191,4552.307617,4152.307617,0,4,,,,0,2,0,0,2,0,19,0,0.583347,0.616943,-0.377441,-0.369629,0.073732,-0.994156,0.087892,5.876037,-54.388588,40.261726,,,,,,,,,,,,,,,,,,,,,,,,,
1577376468,39,0,4756.410156,4913.333496,4218.461426,4577.94873,4169.230957,0,4,,,,0,2,0,0,2,0,,,,,,,,,,,,,,,,,,,,,,,,,,,,,,,,,,,,,
1577376468,40,0,4864.615234,4877.94873,4140.512695,4640.512695,4112.820313,0,4,,,,0,2,0,0,2,0,20,0,0.58335,0.616943,-0.377197,-0.369873,0.095705,-0.99855,0.081544,7.142709,-54.452744,40.42263,,,,,,,,,,,,,,,,,,,,,,,,,
1577376468,41,0,4896.410156,4805.128418,4227.692383,4648.717773,4159.487305,0,4,,,,0,2,0,0,2,0,,,,,,,,,,,,,,,,,,,,,,,,,,,,,,,,,,,,,
1577376468,42,0,4803.077148,4867.692383,4284.102539,4618.461426,4248.205078,0,4,,,,0,2,0,0,2,0,21,0,0.583353,0.616943,-0.376953,-0.370117,0.089357,-0.97023,0.089845,8.402346,-54.390854,40.507626,,,,,,,,,,,,,,,,,,,,,,,,,
1577376468,43,0,4686.666504,4947.692383,4276.922852,4546.153809,4214.358887,0,4,,,,0,2,0,0,2,0,,,,,,,,,,,,,,,,,,,,,,,,,,,,,,,,,,,,,
1577376468,44,0,4776.410156,4909.230957,4226.666504,4555.897461,4160,0,4,,,,0,2,0,0,2,0,22,0,0.583356,0.616943,-0.376709,-0.370361,0.087404,-0.980972,0.096193,5.588204,-54.335152,40.524307,,,,,,,,,,,,,,,,,,,,,,,,,
1577376468,45,0,4928.205078,4881.538574,4194.358887,4601.025879,4150.256348,0,4,,,,0,2,0,0,2,0,,,,,,,,,,,,,,,,,,,,,,,,,,,,,,,,,,,,,
1577376468,46,0,4855.384766,4892.307617,4251.282227,4603.589844,4216.922852,0,4,,,,0,2,0,0,2,0,23,0,0.583356,0.616943,-0.376709,-0.370361,0.089357,-0.970718,0.08838,2.935846,-54.464466,40.658955,,,,,,,,,,,,,,,,,,,,,,,,,
1577376468,47,0,4718.974121,4896.922852,4242.05127,4585.128418,4242.563965,0,4,,,,0,2,0,0,2,0,,,,,,,,,,,,,,,,,,,,,,,,,,,,,,,,,,,,,
