title:calm_4, start timestamp:2019-12-27T06:55:23.062972+03:00, stop timestamp:2019-12-27T06:55:54.199758+03:00, headset type:INSIGHT, headset serial:A2D200FB, headset firmware:930, subject name:Qasim, channels:75, sampling rate:eeg_128;pm_0.1;pow_8, samples:3994      , version:2.0
Timestamp,EEG.Counter,EEG.Interpolated,EEG.AF3,EEG.T7,EEG.Pz,EEG.T8,EEG.AF4,EEG.RawCq,EEG.Battery,MarkerIndex,MarkerType,MarkerValueInt,EEG.MarkerHardware,CQ.AF3,CQ.T7,CQ.Pz,CQ.T8,CQ.AF4,PM.Engagement.IsActive,PM.Engagement.Scaled,PM.Engagement.Raw,PM.Engagement.Min,PM.Engagement.Max,PM.Excitement.IsActive,PM.Excitement.Scaled,PM.Excitement.Raw,PM.Excitement.Min,PM.Excitement.Max,PM.LongTermExcitement,PM.Stress.IsActive,PM.Stress.Scaled,PM.Stress.Raw,PM.Stress.Min,PM.Stress.Max,PM.Relaxation.IsActive,PM.Relaxation.Scaled,PM.Relaxation.Raw,PM.Relaxation.Min,PM.Relaxation.Max,PM.Interest.IsActive,PM.Interest.Scaled,PM.Interest.Raw,PM.Interest.Min,PM.Interest.Max,PM.Focus.IsActive,PM.Focus.Scaled,PM.Focus.Raw,PM.Focus.Min,PM.Focus.Max,POW.AF3.Theta,POW.AF3.Alpha,POW.AF3.BetaL,POW.AF3.BetaH,POW.AF3.Gamma,POW.T7.Theta,POW.T7.Alpha,POW.T7.BetaL,POW.T7.BetaH,POW.T7.Gamma,POW.Pz.Theta,POW.Pz.Alpha,POW.Pz.BetaL,POW.Pz.BetaH,POW.Pz.Gamma,POW.T8.Theta,POW.T8.Alpha,POW.T8.BetaL,POW.T8.BetaH,POW.T8.Gamma,POW.AF4.Theta,POW.AF4.Alpha,POW.AF4.BetaL,POW.AF4.BetaH,POW.AF4.Gamma
1577418923.062972,124.000000,0.000000,4276.410156,4376.922852,4261.025879,4026.153809,4220.512695,450.000000,4.000000,,,,0.000000,4.000000,4.000000,0.000000,4.000000,4.000000,,,,,,,,,,,,,,,,,,,,,,,,,,,,,,,,,,,,,,,,,,,,,,,,,,,,,,,,
1577418923.070674,125.000000,0.000000,4274.358887,4380.000000,4288.205078,4053.333252,4223.077148,450.000000,4.000000,,,,0.000000,4.000000,4.000000,0.000000,4.000000,4.000000,,,,,,,,,,,,,,,,,,,,,,,,,,,,,,,,,,,,,,,,,,,,,,,,,,,,,,,,
1577418923.078574,126.000000,0.000000,4278.461426,4372.820313,4211.794922,4042.051270,4230.769043,450.000000,4.000000,,,,0.000000,4.000000,4.000000,0.000000,4.000000,4.000000,,,,,,,,,,,,,,,,,,,,,,,,,,,,,,,,,,,,,,,,,,,,,,,,,,,,,,,,
1577418923.086376,127.000000,0.000000,4269.230957,4367.692383,4195.384766,4044.615479,4224.615234,238.000000,4.000000,,,,0.000000,4.000000,4.000000,0.000000,4.000000,4.000000,,,,,,,,,,,,,,,,,,,,,,,,,,,,,,,,,,,,,,,,,,,,,,,,,,,,,,,,
1577418923.094276,0.000000,0.000000,4271.794922,4360.000000,4168.717773,4057.435791,4222.563965,450.000000,4.000000,,,,0.000000,4.000000,4.000000,0.000000,4.000000,4.000000,,,,,,,,,,,,,,,,,,,,,,,,,,,,,,,,,,,,,,,,,,,,,,,,,,,,,,,,
1577418923.102078,1.000000,0.000000,4271.794922,4334.871582,4181.025879,4054.871826,4228.205078,450.000000,4.000000,,,,0.000000,4.000000,4.000000,0.000000,4.000000,4.000000,,,,,,,,,,,,,,,,,,,,,,,,,,,,,,,,,,,,,,,,,,,,,,,,,,,,,,,,
1577418923.109978,2.000000,0.000000,4252.820313,4335.897461,4244.615234,4053.846191,4209.230957,16248.000000,4.000000,,,,0.000000,4.000000,4.000000,0.000000,4.000000,4.000000,,,,,,,,,,,,,,,,,,,,,,,,,,,,,,,,,,,,,,,,,,,,,,,,,,,,,,,,
1577418923.117780,3.000000,0.000000,4254.358887,4357.948730,4232.820313,4045.641113,4200.000000,450.000000,4.000000,,,,0.000000,4.000000,4.000000,0.000000,4.000000,4.000000,,,,,,,,,,,,,,,,,,,,,,,,,,,,,,,,,,,,,,,,,,,,,,,,,,,,,,,,
1577418923.125680,4.000000,0.000000,4265.128418,4349.230957,4240.000000,4052.307617,4213.333496,16217.000000,4.000000,,,,0.000000,4.000000,4.000000,0.000000,4.000000,4.000000,,,,,,,,,,,,,,,,,,,,,,,,,,,,,,,,,,,,,,,,,,,,,,,,,,,,,,,,
1577418923.133482,5.000000,0.000000,4273.846191,4340.512695,4207.179688,4063.076904,4221.025879,450.000000,4.000000,,,,0.000000,4.000000,4.000000,0.000000,4.000000,4.000000,,,,,,,,,,,,,,,,,,,,,,,,,,,,,,,,,,,,,,,,,,,,,,,,,,,,,,,,
1577418923.141383,6.000000,0.000000,4269.743652,4338.461426,4146.153809,4056.410156,4222.051270,39.000000,4.000000,,,,0.000000,4.000000,4.000000,0.000000,4.000000,4.000000,,,,,,,,,,,,,,,,,,,,,,,,,,,,,,,,,,,,,,,,,,,,,,,,,,,,,,,,
1577418923.149184,7.000000,0.000000,4267.692383,4338.974121,4177.948730,4063.076904,4235.384766,450.000000,4.000000,,,,0.000000,4.000000,4.000000,0.000000,4.000000,4.000000,,,,,,,,,,,,,,,,,,,,,,,,,,,,,,,,,,,,,,,,,,,,,,,,,,,,,,,,
1577418923.157085,8.000000,0.000000,4292.820313,4360.000000,4218.974121,4071.794922,4258.974121,450.000000,4.000000,,,,0.000000,4.000000,4.000000,0.000000,4.000000,4.000000,,,,,,,,,,,,,,,,,,,,,,,,,,,,,,,,,,,,,,,,,,,,,,,,,,,,,,,,
1577418923.164886,9.000000,0.000000,4290.256348,4354.871582,4266.153809,4083.076904,4252.307617,16191.000000,4.000000,,,,0.000000,4.000000,4.000000,0.000000,4.000000,4.000000,,,,,,,,,,,,,,,,,,,,,,,,,,,,,,,,32.610931,6.988436,1.785753,1.004547,0.918251,0.681926,1.509819,1.475547,1.788629,2.073349,10.139385,14.331044,11.886627,69.646591,27.430183,16.251131,2.636275,2.151337,2.602062,2.759387,20.050821,7.824183,2.757177,1.886437,0.811519
1577418923.172787,10.000000,0.000000,4269.230957,4333.333496,4247.179688,4086.153809,4236.410156,450.000000,4.000000,,,,0.000000,4.000000,4.000000,0.000000,4.000000,4.000000,,,,,,,,,,,,,,,,,,,,,,,,,,,,,,,,,,,,,,,,,,,,,,,,,,,,,,,,
1577418923.180588,11.000000,0.000000,4251.282227,4327.179688,4137.436035,4053.333252,4240.000000,16197.000000,4.000000,,,,0.000000,4.000000,4.000000,0.000000,4.000000,4.000000,,,,,,,,,,,,,,,,,,,,,,,,,,,,,,,,,,,,,,,,,,,,,,,,,,,,,,,,
1577418923.188489,12.000000,0.000000,4230.256348,4341.025879,4135.384766,4035.384521,4221.538574,450.000000,4.000000,,,,0.000000,4.000000,4.000000,0.000000,4.000000,4.000000,,,,,,,,,,,,,,,,,,,,,,,,,,,,,,,,,,,,,,,,,,,,,,,,,,,,,,,,
1577418923.196390,13.000000,0.000000,4231.282227,4369.743652,4218.974121,4036.923096,4206.666504,450.000000,4.000000,,,,0.000000,4.000000,4.000000,0.000000,4.000000,4.000000,,,,,,,,,,,,,,,,,,,,,,,,,,,,,,,,,,,,,,,,,,,,,,,,,,,,,,,,
1577418923.204191,14.000000,0.000000,4214.871582,4348.717773,4291.794922,4043.076904,4213.846191,450.000000,4.000000,,,,0.000000,4.000000,4.000000,0.000000,4.000000,4.000000,,,,,,,,,,,,,,,,,,,,,,,,,,,,,,,,,,,,,,,,,,,,,,,,,,,,,,,,
1577418923.211992,15.000000,0.000000,4185.641113,4314.358887,4256.922852,4043.589844,4201.538574,16197.000000,4.000000,,,,0.000000,4.000000,4.000000,0.000000,4.000000,4.000000,,,,,,,,,,,,,,,,,,,,,,,,,,,,,,,,,,,,,,,,,,,,,,,,,,,,,,,,
1577418923.219893,16.000000,0.000000,4194.358887,4335.384766,4147.179688,4024.102539,4198.461426,0.000000,4.000000,,,,0.000000,4.000000,4.000000,0.000000,4.000000,4.000000,,,,,,,,,,,,,,,,,,,,,,,,,,,,,,,,,,,,,,,,,,,,,,,,,,,,,,,,
1577418923.227694,17.000000,0.000000,4213.333496,4357.948730,4143.077148,4038.461426,4218.461426,0.000000,4.000000,,,,0.000000,4.000000,4.000000,0.000000,4.000000,4.000000,,,,,,,,,,,,,,,,,,,,,,,,,,,,,,,,,,,,,,,,,,,,,,,,,,,,,,,,
1577418923.235495,18.000000,0.000000,4225.128418,4348.717773,4192.820313,4059.487061,4229.743652,0.000000,4.000000,,,,0.000000,4.000000,4.000000,0.000000,4.000000,4.000000,,,,,,,,,,,,,,,,,,,,,,,,,,,,,,,,,,,,,,,,,,,,,,,,,,,,,,,,
1577418923.243396,19.000000,0.000000,4221.538574,4341.538574,4228.205078,4049.230713,4232.307617,0.000000,4.000000,,,,0.000000,4.000000,4.000000,0.000000,4.000000,4.000000,,,,,,,,,,,,,,,,,,,,,,,,,,,,,,,,,,,,,,,,,,,,,,,,,,,,,,,,
1577418923.251197,20.000000,0.000000,4225.641113,4359.487305,4242.563965,4046.153809,4233.333496,0.000000,4.000000,,,,0.000000,4.000000,4.000000,0.000000,4.000000,4.000000,,,,,,,,,,,,,,,,,,,,,,,,,,,,,,,,,,,,,,,,,,,,,,,,,,,,,,,,
1577418923.259098,21.000000,0.000000,4254.871582,4362.051270,4241.025879,4033.846191,4231.282227,0.000000,4.000000,,,,0.000000,4.000000,4.000000,0.000000,4.000000,4.000000,,,,,,,,,,,,,,,,,,,,,,,,,,,,,,,,,,,,,,,,,,,,,,,,,,,,,,,,
1577418923.266899,22.000000,0.000000,4252.820313,4348.205078,4256.922852,4028.718018,4218.974121,0.000000,4.000000,,,,0.000000,4.000000,4.000000,0.000000,4.000000,4.000000,,,,,,,,,,,,,,,,,,,,,,,,,,,,,,,,,,,,,,,,,,,,,,,,,,,,,,,,
1577418923.274800,23.000000,0.000000,4239.487305,4358.461426,4176.410156,4037.948730,4206.153809,0.000000,4.000000,,,,0.000000,4.000000,4.000000,0.000000,4.000000,4.000000,,,,,,,,,,,,,,,,,,,,,,,,,,,,,,,,,,,,,,,,,,,,,,,,,,,,,,,,
1577418923.282601,24.000000,0.000000,4229.743652,4355.897461,4118.461426,4024.102539,4194.358887,0.000000,4.000000,,,,0.000000,4.000000,4.000000,0.000000,4.000000,4.000000,,,,,,,,,,,,,,,,,,,,,,,,,,,,,,,,,,,,,,,,,,,,,,,,,,,,,,,,
1577418923.290502,25.000000,0.000000,4201.538574,4344.102539,4203.589844,4006.153809,4177.436035,0.000000,4.000000,,,,0.000000,4.000000,4.000000,0.000000,4.000000,4.000000,,,,,,,,,,,,,,,,,,,,,,,,,,,,,,,,47.103851,8.524573,1.567137,1.074466,0.834722,0.735218,1.724950,1.401149,1.678104,2.051162,11.761875,15.594035,11.820352,66.395554,22.972790,16.356844,2.331571,2.159001,2.327111,2.852994,25.359818,8.087853,3.061683,1.682613,0.760085
1577418923.298303,26.000000,0.000000,4195.384766,4345.128418,4270.256348,3986.666748,4162.051270,0.000000,4.000000,,,,0.000000,4.000000,4.000000,0.000000,4.000000,4.000000,,,,,,,,,,,,,,,,,,,,,,,,,,,,,,,,,,,,,,,,,,,,,,,,,,,,,,,,
1577418923.306204,27.000000,0.000000,4189.230957,4334.871582,4288.717773,3985.128174,4151.282227,0.000000,4.000000,,,,0.000000,4.000000,4.000000,0.000000,4.000000,4.000000,,,,,,,,,,,,,,,,,,,,,,,,,,,,,,,,,,,,,,,,,,,,,,,,,,,,,,,,
1577418923.314005,28.000000,0.000000,4187.179688,4352.820313,4217.436035,4007.692383,4153.846191,0.000000,4.000000,,,,0.000000,4.000000,4.000000,0.000000,4.000000,4.000000,,,,,,,,,,,,,,,,,,,,,,,,,,,,,,,,,,,,,,,,,,,,,,,,,,,,,,,,
1577418923.321906,29.000000,0.000000,4211.282227,4378.461426,4135.384766,4016.410156,4161.538574,0.000000,4.000000,,,,0.000000,4.000000,4.000000,0.000000,4.000000,4.000000,,,,,,,,,,,,,,,,,,,,,,,,,,,,,,,,,,,,,,,,,,,,,,,,,,,,,,,,
1577418923.329707,30.000000,0.000000,4211.282227,4356.922852,4183.589844,4025.641113,4163.077148,0.000000,4.000000,,,,0.000000,4.000000,4.000000,0.000000,4.000000,4.000000,,,,,,,,,,,,,,,,,,,,,,,,,,,,,,,,,,,,,,,,,,,,,,,,,,,,,,,,
1577418923.337508,31.000000,0.000000,4205.641113,4343.589844,4256.410156,4020.000000,4168.717773,0.000000,4.000000,,,,0.000000,4.000000,4.000000,0.000000,4.000000,4.000000,,,,,,,,,,,,,,,,,,,,,,,,,,,,,,,,,,,,,,,,,,,,,,,,,,,,,,,,
1577418923.345209,32.000000,0.000000,4208.205078,4346.153809,4315.384766,4006.153809,4172.820313,0.000000,4.000000,,,,0.000000,4.000000,4.000000,0.000000,4.000000,4.000000,,,,,,,,,,,,,,,,,,,,,,,,,,,,,,,,,,,,,,,,,,,,,,,,,,,,,,,,
1577418923.353110,33.000000,0.000000,4210.769043,4355.384766,4258.974121,4008.718018,4175.897461,0.000000,4.000000,,,,0.000000,4.000000,4.000000,0.000000,4.000000,4.000000,,,,,,,,,,,,,,,,,,,,,,,,,,,,,,,,,,,,,,,,,,,,,,,,,,,,,,,,
1577418923.360911,34.000000,0.000000,4218.974121,4373.333496,4145.641113,4001.025635,4173.846191,0.000000,4.000000,,,,0.000000,4.000000,4.000000,0.000000,4.000000,4.000000,,,,,,,,,,,,,,,,,,,,,,,,,,,,,,,,,,,,,,,,,,,,,,,,,,,,,,,,
1577418923.368812,35.000000,0.000000,4214.358887,4361.025879,4178.974121,4007.692383,4164.615234,0.000000,4.000000,,,,0.000000,4.000000,4.000000,0.000000,4.000000,4.000000,,,,,,,,,,,,,,,,,,,,,,,,,,,,,,,,,,,,,,,,,,,,,,,,,,,,,,,,
1577418923.376613,36.000000,0.000000,4209.743652,4341.538574,4224.102539,4015.897461,4167.179688,0.000000,4.000000,,,,0.000000,4.000000,4.000000,0.000000,4.000000,4.000000,,,,,,,,,,,,,,,,,,,,,,,,,,,,,,,,,,,,,,,,,,,,,,,,,,,,,,,,
1577418923.384514,37.000000,0.000000,4195.897461,4355.384766,4244.102539,3994.871826,4161.538574,0.000000,4.000000,,,,0.000000,4.000000,4.000000,0.000000,4.000000,4.000000,,,,,,,,,,,,,,,,,,,,,,,,,,,,,,,,,,,,,,,,,,,,,,,,,,,,,,,,
1577418923.392416,38.000000,0.000000,4182.051270,4378.974121,4244.615234,3989.230713,4149.743652,0.000000,4.000000,,,,0.000000,4.000000,4.000000,0.000000,4.000000,4.000000,,,,,,,,,,,,,,,,,,,,,,,,,,,,,,,,,,,,,,,,,,,,,,,,,,,,,,,,
1577418923.400217,39.000000,0.000000,4198.461426,4373.333496,4200.512695,3997.435791,4153.846191,0.000000,4.000000,,,,0.000000,4.000000,4.000000,0.000000,4.000000,4.000000,,,,,,,,,,,,,,,,,,,,,,,,,,,,,,,,,,,,,,,,,,,,,,,,,,,,,,,,
1577418923.408018,40.000000,0.000000,4213.846191,4354.358887,4216.922852,4001.025635,4160.512695,0.000000,4.000000,,,,0.000000,4.000000,4.000000,0.000000,4.000000,4.000000,,,,,,,,,,,,,,,,,,,,,,,,,,,,,,,,,,,,,,,,,,,,,,,,,,,,,,,,
1577418923.415919,41.000000,0.000000,4220.000000,4371.794922,4226.666504,3999.487061,4173.846191,0.000000,4.000000,,,,0.000000,4.000000,4.000000,0.000000,4.000000,4.000000,,,,,,,,,,,,,,,,,,,,,,,,,,,,,,,,60.210602,9.973223,1.384692,1.201252,0.756621,0.915409,1.856629,1.423621,1.567384,2.053110,12.527304,14.987512,10.618887,65.031120,18.645176,16.494028,2.264723,2.261287,1.957844,2.713789,29.513351,7.998354,3.232576,1.478452,0.711434
1577418923.423720,42.000000,0.000000,4219.487305,4383.589844,4225.641113,4003.076904,4182.051270,0.000000,4.000000,,,,0.000000,4.000000,4.000000,0.000000,4.000000,4.000000,,,,,,,,,,,,,,,,,,,,,,,,,,,,,,,,,,,,,,,,,,,,,,,,,,,,,,,,
1577418923.431421,43.000000,0.000000,4211.794922,4365.128418,4234.358887,4018.461426,4183.077148,0.000000,4.000000,,,,0.000000,4.000000,4.000000,0.000000,4.000000,4.000000,,,,,,,,,,,,,,,,,,,,,,,,,,,,,,,,,,,,,,,,,,,,,,,,,,,,,,,,
1577418923.439222,44.000000,0.000000,4219.487305,4368.205078,4229.743652,4018.974365,4196.922852,0.000000,4.000000,,,,0.000000,4.000000,4.000000,0.000000,4.000000,4.000000,,,,,,,,,,,,,,,,,,,,,,,,,,,,,,,,,,,,,,,,,,,,,,,,,,,,,,,,
1577418923.446924,45.000000,0.000000,4230.769043,4381.538574,4275.384766,4015.384521,4201.025879,0.000000,4.000000,,,,0.000000,4.000000,4.000000,0.000000,4.000000,4.000000,,,,,,,,,,,,,,,,,,,,,,,,,,,,,,,,,,,,,,,,,,,,,,,,,,,,,,,,
1577418923.454725,46.000000,0.000000,4240.512695,4382.051270,4259.487305,4010.769287,4190.256348,0.000000,4.000000,,,,0.000000,4.000000,4.000000,0.000000,4.000000,4.000000,,,,,,,,,,,,,,,,,,,,,,,,,,,,,,,,,,,,,,,,,,,,,,,,,,,,,,,,
1577418923.462426,47.000000,0.000000,4245.128418,4380.512695,4209.743652,4008.205078,4173.846191,0.000000,4.000000,,,,0.000000,4.000000,4.000000,0.000000,4.000000,4.000000,,,,,,,,,,,,,,,,,,,,,,,,,,,,,,,,,,,,,,,,,,,,,,,,,,,,,,,,
1577418923.470227,48.000000,0.000000,4245.128418,4373.846191,4231.794922,4028.205078,4172.820313,0.000000,4.000000,,,,0.000000,4.000000,4.000000,0.000000,4.000000,4.000000,,,,,,,,,,,,,,,,,,,,,,,,,,,,,,,,,,,,,,,,,,,,,,,,,,,,,,,,
1577418923.477928,49.000000,0.000000,4244.102539,4367.692383,4235.897461,4025.641113,4180.512695,0.000000,4.000000,,,,0.000000,4.000000,4.000000,0.000000,4.000000,4.000000,,,,,,,,,,,,,,,,,,,,,,,,,,,,,,,,,,,,,,,,,,,,,,,,,,,,,,,,
1577418923.485729,50.000000,0.000000,4210.769043,4356.410156,4260.512695,4003.076904,4151.282227,0.000000,4.000000,,,,0.000000,4.000000,4.000000,0.000000,4.000000,4.000000,,,,,,,,,,,,,,,,,,,,,,,,,,,,,,,,,,,,,,,,,,,,,,,,,,,,,,,,
1577418923.493430,51.000000,0.000000,4190.256348,4348.205078,4283.589844,3992.820557,4128.717773,0.000000,4.000000,,,,0.000000,4.000000,4.000000,0.000000,4.000000,4.000000,,,,,,,,,,,,,,,,,,,,,,,,,,,,,,,,,,,,,,,,,,,,,,,,,,,,,,,,
1577418923.501231,52.000000,0.000000,4206.153809,4350.256348,4225.641113,3981.025635,4132.820313,0.000000,4.000000,,,,0.000000,4.000000,4.000000,0.000000,4.000000,4.000000,,,,,,,,,,,,,,,,,,,,,,,,,,,,,,,,,,,,,,,,,,,,,,,,,,,,,,,,
1577418923.508932,53.000000,0.000000,4210.769043,4371.282227,4204.102539,3986.666748,4131.794922,0.000000,4.000000,,,,0.000000,4.000000,4.000000,0.000000,4.000000,4.000000,,,,,,,,,,,,,,,,,,,,,,,,,,,,,,,,,,,,,,,,,,,,,,,,,,,,,,,,
1577418923.516833,54.000000,0.000000,4214.871582,4402.051270,4229.743652,4006.153809,4131.282227,0.000000,4.000000,,,,0.000000,4.000000,4.000000,0.000000,4.000000,4.000000,,,,,,,,,,,,,,,,,,,,,,,,,,,,,,,,,,,,,,,,,,,,,,,,,,,,,,,,
1577418923.524634,55.000000,0.000000,4212.820313,4388.205078,4258.461426,4017.948730,4120.512695,0.000000,4.000000,,,,0.000000,4.000000,4.000000,0.000000,4.000000,4.000000,,,,,,,,,,,,,,,,,,,,,,,,,,,,,,,,,,,,,,,,,,,,,,,,,,,,,,,,
1577418923.532535,56.000000,0.000000,4214.871582,4356.410156,4178.974121,4022.051270,4124.615234,0.000000,4.000000,,,,0.000000,4.000000,4.000000,0.000000,4.000000,4.000000,,,,,,,,,,,,,,,,,,,,,,,,,,,,,,,,,,,,,,,,,,,,,,,,,,,,,,,,
1577418923.540336,57.000000,0.000000,4235.897461,4370.769043,4067.692383,4023.076904,4144.615234,0.000000,4.000000,,,,0.000000,4.000000,4.000000,0.000000,4.000000,4.000000,,,,,,,,,,,,,,,,,,,,,,,,,,,,,,,,67.870049,11.111427,1.274573,1.360324,0.705152,1.176183,1.891943,1.497513,1.445551,2.099399,12.129634,12.597487,8.572421,65.529236,15.135335,16.907177,2.487673,2.505038,1.588704,2.383168,31.183537,7.765649,3.221115,1.297188,0.667561
1577418923.548237,58.000000,0.000000,4234.871582,4401.538574,4150.256348,4031.794922,4139.487305,0.000000,4.000000,,,,0.000000,4.000000,4.000000,0.000000,4.000000,4.000000,,,,,,,,,,,,,,,,,,,,,,,,,,,,,,,,,,,,,,,,,,,,,,,,,,,,,,,,
1577418923.556038,59.000000,0.000000,4233.846191,4398.974121,4279.487305,4032.820557,4128.717773,0.000000,4.000000,,,,0.000000,4.000000,4.000000,0.000000,4.000000,4.000000,,,,,,,,,,,,,,,,,,,,,,,,,,,,,,,,,,,,,,,,,,,,,,,,,,,,,,,,
1577418923.563939,60.000000,0.000000,4245.641113,4365.128418,4286.666504,4050.256348,4131.794922,0.000000,4.000000,,,,0.000000,4.000000,4.000000,0.000000,4.000000,4.000000,,,,,,,,,,,,,,,,,,,,,,,,,,,,,,,,,,,,,,,,,,,,,,,,,,,,,,,,
1577418923.571740,61.000000,0.000000,4260.512695,4369.743652,4191.794922,4082.564209,4151.794922,0.000000,4.000000,,,,0.000000,4.000000,4.000000,0.000000,4.000000,4.000000,,,,,,,,,,,,,,,,,,,,,,,,,,,,,,,,,,,,,,,,,,,,,,,,,,,,,,,,
1577418923.579641,62.000000,0.000000,4271.282227,4408.205078,4132.307617,4068.205078,4166.666504,0.000000,4.000000,,,,0.000000,4.000000,4.000000,0.000000,4.000000,4.000000,,,,,,,,,,,,,,,,,,,,,,,,,,,,,,,,,,,,,,,,,,,,,,,,,,,,,,,,
1577418923.587442,63.000000,0.000000,4254.871582,4404.102539,4236.922852,4050.256348,4158.461426,0.000000,4.000000,,,,0.000000,4.000000,4.000000,0.000000,4.000000,4.000000,,,,,,,,,,,,,,,,,,,,,,,,,,,,,,,,,,,,,,,,,,,,,,,,,,,,,,,,
1577418923.595343,64.000000,0.000000,4253.333496,4387.179688,4289.743652,4051.794922,4158.461426,450.000000,4.000000,,,,0.000000,4.000000,4.000000,0.000000,4.000000,4.000000,,,,,,,,,,,,,,,,,,,,,,,,,,,,,,,,,,,,,,,,,,,,,,,,,,,,,,,,
1577418923.603144,65.000000,0.000000,4263.077148,4392.307617,4246.153809,4054.871826,4155.897461,450.000000,4.000000,,,,0.000000,4.000000,4.000000,0.000000,4.000000,4.000000,,,,,,,,,,,,,,,,,,,,,,,,,,,,,,,,,,,,,,,,,,,,,,,,,,,,,,,,
1577418923.610845,66.000000,0.000000,4261.025879,4394.358887,4224.102539,4058.974365,4137.948730,16244.000000,4.000000,,,,0.000000,4.000000,4.000000,0.000000,4.000000,4.000000,,,,,,,,,,,,,,,,,,,,,,,,,,,,,,,,,,,,,,,,,,,,,,,,,,,,,,,,
1577418923.618646,67.000000,0.000000,4253.846191,4382.051270,4214.358887,4042.051270,4134.871582,450.000000,4.000000,,,,0.000000,4.000000,4.000000,0.000000,4.000000,4.000000,,,,,,,,,,,,,,,,,,,,,,,,,,,,,,,,,,,,,,,,,,,,,,,,,,,,,,,,
1577418923.626348,68.000000,0.000000,4229.743652,4366.153809,4276.922852,4044.102539,4139.487305,16204.000000,4.000000,,,,0.000000,4.000000,4.000000,0.000000,4.000000,4.000000,,,,,,,,,,,,,,,,,,,,,,,,,,,,,,,,,,,,,,,,,,,,,,,,,,,,,,,,
1577418923.634249,69.000000,0.000000,4229.743652,4378.974121,4270.769043,4061.538574,4146.666504,450.000000,4.000000,,,,0.000000,4.000000,4.000000,0.000000,4.000000,4.000000,,,,,,,,,,,,,,,,,,,,,,,,,,,,,,,,,,,,,,,,,,,,,,,,,,,,,,,,
1577418923.642050,70.000000,0.000000,4242.051270,4385.641113,4148.205078,4050.256348,4150.256348,48.000000,4.000000,,,,0.000000,4.000000,4.000000,0.000000,4.000000,4.000000,,,,,,,,,,,,,,,,,,,,,,,,,,,,,,,,,,,,,,,,,,,,,,,,,,,,,,,,
1577418923.649951,71.000000,0.000000,4236.410156,4361.025879,4136.922852,4047.692383,4142.563965,450.000000,4.000000,,,,0.000000,4.000000,4.000000,0.000000,4.000000,4.000000,,,,,,,,,,,,,,,,,,,,,,,,,,,,,,,,,,,,,,,,,,,,,,,,,,,,,,,,
1577418923.657752,72.000000,0.000000,4245.128418,4354.358887,4222.051270,4057.948730,4150.769043,450.000000,4.000000,,,,0.000000,4.000000,4.000000,0.000000,4.000000,4.000000,,,,,,,,,,,,,,,,,,,,,,,,,,,,,,,,,,,,,,,,,,,,,,,,,,,,,,,,
1577418923.665653,73.000000,0.000000,4238.461426,4366.153809,4297.948730,4070.256348,4156.410156,16168.000000,4.000000,,,,0.000000,4.000000,4.000000,0.000000,4.000000,4.000000,,,,,,,,,,,,,,,,,,,,,,,,,,,,,,,,67.242592,11.859467,1.264349,1.515872,0.684404,1.430459,1.854868,1.561196,1.304626,2.185897,10.582203,9.156549,6.307756,67.009247,12.796579,16.914574,2.958474,2.856564,1.300024,1.956398,29.656380,7.694124,3.036864,1.149400,0.627567
1577418923.673454,74.000000,0.000000,4222.051270,4377.948730,4231.794922,4071.281982,4145.128418,450.000000,4.000000,,,,0.000000,4.000000,4.000000,0.000000,4.000000,4.000000,,,,,,,,,,,,,,,,,,,,,,,,,,,,,,,,,,,,,,,,,,,,,,,,,,,,,,,,
1577418923.681355,75.000000,0.000000,4223.589844,4377.436035,4091.281982,4050.256348,4147.179688,16250.000000,4.000000,,,,0.000000,4.000000,4.000000,0.000000,4.000000,4.000000,,,,,,,,,,,,,,,,,,,,,,,,,,,,,,,,,,,,,,,,,,,,,,,,,,,,,,,,
1577418923.689156,76.000000,0.000000,4221.538574,4367.179688,4133.846191,4050.256348,4148.717773,450.000000,4.000000,,,,0.000000,4.000000,4.000000,0.000000,4.000000,4.000000,,,,,,,,,,,,,,,,,,,,,,,,,,,,,,,,,,,,,,,,,,,,,,,,,,,,,,,,
1577418923.697057,77.000000,0.000000,4221.025879,4364.102539,4252.307617,4061.025635,4142.051270,450.000000,4.000000,,,,0.000000,4.000000,4.000000,0.000000,4.000000,4.000000,,,,,,,,,,,,,,,,,,,,,,,,,,,,,,,,,,,,,,,,,,,,,,,,,,,,,,,,
1577418923.704858,78.000000,0.000000,4205.641113,4339.487305,4309.230957,4065.128174,4133.333496,450.000000,4.000000,,,,0.000000,4.000000,4.000000,0.000000,4.000000,4.000000,,,,,,,,,,,,,,,,,,,,,,,,,,,,,,,,,,,,,,,,,,,,,,,,,,,,,,,,
1577418923.712759,79.000000,0.000000,4201.025879,4335.384766,4244.615234,4078.461426,4132.820313,16250.000000,4.000000,,,,0.000000,4.000000,4.000000,0.000000,4.000000,4.000000,,,,,,,,,,,,,,,,,,,,,,,,,,,,,,,,,,,,,,,,,,,,,,,,,,,,,,,,
1577418923.720560,80.000000,0.000000,4224.102539,4373.846191,4118.974121,4075.897461,4148.205078,450.000000,4.000000,,,,0.000000,4.000000,4.000000,0.000000,4.000000,4.000000,,,,,,,,,,,,,,,,,,,,,,,,,,,,,,,,,,,,,,,,,,,,,,,,,,,,,,,,
1577418923.728461,81.000000,0.000000,4211.794922,4375.384766,4153.846191,4071.281982,4143.589844,450.000000,4.000000,,,,0.000000,4.000000,4.000000,0.000000,4.000000,4.000000,,,,,,,,,,,,,,,,,,,,,,,,,,,,,,,,,,,,,,,,,,,,,,,,,,,,,,,,
1577418923.736262,82.000000,0.000000,4196.922852,4340.000000,4212.307617,4077.435791,4132.820313,450.000000,4.000000,,,,0.000000,4.000000,4.000000,0.000000,4.000000,4.000000,,,,,,,,,,,,,,,,,,,,,,,,,,,,,,,,,,,,,,,,,,,,,,,,,,,,,,,,
1577418923.744163,83.000000,0.000000,4203.077148,4325.128418,4188.717773,4069.230713,4135.897461,16250.000000,4.000000,,,,0.000000,4.000000,4.000000,0.000000,4.000000,4.000000,,,,,,,,,,,,,,,,,,,,,,,,,,,,,,,,,,,,,,,,,,,,,,,,,,,,,,,,
1577418923.751964,84.000000,0.000000,4206.666504,4348.205078,4175.384766,4062.564209,4143.077148,450.000000,4.000000,,,,0.000000,4.000000,4.000000,0.000000,4.000000,4.000000,,,,,,,,,,,,,,,,,,,,,,,,,,,,,,,,,,,,,,,,,,,,,,,,,,,,,,,,
1577418923.759865,85.000000,0.000000,4225.641113,4368.717773,4188.205078,4064.615479,4168.717773,450.000000,4.000000,,,,0.000000,4.000000,4.000000,0.000000,4.000000,4.000000,,,,,,,,,,,,,,,,,,,,,,,,,,,,,,,,,,,,,,,,,,,,,,,,,,,,,,,,
1577418923.767666,86.000000,0.000000,4233.333496,4363.077148,4246.666504,4082.051270,4184.102539,450.000000,4.000000,,,,0.000000,4.000000,4.000000,0.000000,4.000000,4.000000,,,,,,,,,,,,,,,,,,,,,,,,,,,,,,,,,,,,,,,,,,,,,,,,,,,,,,,,
1577418923.775367,87.000000,0.000000,4222.563965,4353.333496,4216.922852,4082.051270,4168.205078,16250.000000,4.000000,,,,0.000000,4.000000,4.000000,0.000000,4.000000,4.000000,,,,,,,,,,,,,,,,,,,,,,,,,,,,,,,,,,,,,,,,,,,,,,,,,,,,,,,,
1577418923.783168,88.000000,0.000000,4217.948730,4330.256348,4116.922852,4065.128174,4166.666504,450.000000,4.000000,,,,0.000000,4.000000,4.000000,0.000000,4.000000,4.000000,,,,,,,,,,,,,,,,,,,,,,,,,,,,,,,,,,,,,,,,,,,,,,,,,,,,,,,,
1577418923.790869,89.000000,0.000000,4225.641113,4328.205078,4111.794922,4087.692383,4186.153809,450.000000,4.000000,,,,0.000000,4.000000,4.000000,0.000000,4.000000,4.000000,,,,,,,,,,,,,,,,,,,,,,,,,,,,,,,,58.603043,12.270729,1.362948,1.630301,0.684043,1.674514,1.789801,1.555971,1.161654,2.288112,8.410315,5.698203,4.392274,67.938599,11.651608,16.145769,3.580198,3.213814,1.143207,1.539981,25.322512,7.994848,2.751303,1.023099,0.589657
1577418923.798670,90.000000,0.000000,4238.974121,4354.871582,4167.692383,4091.281982,4199.487305,450.000000,4.000000,,,,0.000000,4.000000,4.000000,0.000000,4.000000,4.000000,,,,,,,,,,,,,,,,,,,,,,,,,,,,,,,,,,,,,,,,,,,,,,,,,,,,,,,,
1577418923.806371,91.000000,0.000000,4218.974121,4341.025879,4258.974121,4068.205078,4194.358887,16250.000000,4.000000,,,,0.000000,4.000000,4.000000,0.000000,4.000000,4.000000,,,,,,,,,,,,,,,,,,,,,,,,,,,,,,,,,,,,,,,,,,,,,,,,,,,,,,,,
1577418923.814272,92.000000,0.000000,4209.230957,4330.769043,4232.820313,4069.743652,4185.128418,450.000000,4.000000,,,,0.000000,4.000000,4.000000,0.000000,4.000000,4.000000,,,,,,,,,,,,,,,,,,,,,,,,,,,,,,,,,,,,,,,,,,,,,,,,,,,,,,,,
1577418923.822073,93.000000,0.000000,4237.948730,4361.538574,4103.077148,4068.205078,4194.871582,450.000000,4.000000,,,,0.000000,4.000000,4.000000,0.000000,4.000000,4.000000,,,,,,,,,,,,,,,,,,,,,,,,,,,,,,,,,,,,,,,,,,,,,,,,,,,,,,,,
1577418923.829974,94.000000,0.000000,4248.717773,4366.666504,4132.820313,4086.153809,4213.333496,450.000000,4.000000,,,,0.000000,4.000000,4.000000,0.000000,4.000000,4.000000,,,,,,,,,,,,,,,,,,,,,,,,,,,,,,,,,,,,,,,,,,,,,,,,,,,,,,,,
1577418923.837775,95.000000,0.000000,4242.563965,4340.512695,4224.615234,4100.512695,4222.051270,16250.000000,4.000000,,,,0.000000,4.000000,4.000000,0.000000,4.000000,4.000000,,,,,,,,,,,,,,,,,,,,,,,,,,,,,,,,,,,,,,,,,,,,,,,,,,,,,,,,
1577418923.845676,96.000000,0.000000,4221.025879,4330.256348,4272.307617,4073.846191,4215.384766,450.000000,4.000000,,,,0.000000,4.000000,4.000000,0.000000,4.000000,4.000000,,,,,,,,,,,,,,,,,,,,,,,,,,,,,,,,,,,,,,,,,,,,,,,,,,,,,,,,
1577418923.853477,97.000000,0.000000,4213.846191,4358.974121,4216.922852,4067.179443,4213.846191,450.000000,4.000000,,,,0.000000,4.000000,4.000000,0.000000,4.000000,4.000000,,,,,,,,,,,,,,,,,,,,,,,,,,,,,,,,,,,,,,,,,,,,,,,,,,,,,,,,
1577418923.861278,98.000000,0.000000,4250.769043,4368.205078,4110.769043,4087.692383,4229.230957,450.000000,4.000000,,,,0.000000,4.000000,4.000000,0.000000,4.000000,4.000000,,,,,,,,,,,,,,,,,,,,,,,,,,,,,,,,,,,,,,,,,,,,,,,,,,,,,,,,
1577418923.868980,99.000000,0.000000,4257.436035,4325.641113,4156.922852,4098.974121,4237.436035,16250.000000,4.000000,,,,0.000000,4.000000,4.000000,0.000000,4.000000,4.000000,,,,,,,,,,,,,,,,,,,,,,,,,,,,,,,,,,,,,,,,,,,,,,,,,,,,,,,,
1577418923.876781,100.000000,0.000000,4239.487305,4318.974121,4203.077148,4084.615479,4235.384766,450.000000,4.000000,,,,0.000000,4.000000,4.000000,0.000000,4.000000,4.000000,,,,,,,,,,,,,,,,,,,,,,,,,,,,,,,,,,,,,,,,,,,,,,,,,,,,,,,,
1577418923.884482,101.000000,0.000000,4238.461426,4356.922852,4161.025879,4068.205078,4233.333496,450.000000,4.000000,,,,0.000000,4.000000,4.000000,0.000000,4.000000,4.000000,,,,,,,,,,,,,,,,,,,,,,,,,,,,,,,,,,,,,,,,,,,,,,,,,,,,,,,,
1577418923.892283,102.000000,0.000000,4244.102539,4377.948730,4142.563965,4083.589844,4234.358887,450.000000,4.000000,,,,0.000000,4.000000,4.000000,0.000000,4.000000,4.000000,,,,,,,,,,,,,,,,,,,,,,,,,,,,,,,,,,,,,,,,,,,,,,,,,,,,,,,,
1577418923.899984,103.000000,0.000000,4270.256348,4364.615234,4133.333496,4095.384521,4245.128418,16250.000000,4.000000,,,,0.000000,4.000000,4.000000,0.000000,4.000000,4.000000,,,,,,,,,,,,,,,,,,,,,,,,,,,,,,,,,,,,,,,,,,,,,,,,,,,,,,,,
1577418923.907885,104.000000,0.000000,4280.000000,4330.769043,4172.307617,4101.538574,4250.256348,450.000000,4.000000,,,,0.000000,4.000000,4.000000,0.000000,4.000000,4.000000,,,,,,,,,,,,,,,,,,,,,,,,,,,,,,,,,,,,,,,,,,,,,,,,,,,,,,,,
1577418923.915686,105.000000,0.000000,4269.230957,4348.717773,4189.230957,4097.948730,4250.256348,450.000000,4.000000,,,,0.000000,4.000000,4.000000,0.000000,4.000000,4.000000,,,,,,,,,,,,,,,,,,,,,,,,,,,,,,,,44.938393,12.434852,1.554144,1.677085,0.687954,1.853152,1.715107,1.476638,1.063793,2.369723,6.521697,3.223709,3.214545,66.793655,11.607347,14.237485,4.212194,3.424287,1.115709,1.209380,19.612871,8.668547,2.472046,0.906977,0.555859
1577418923.923587,106.000000,0.000000,4269.743652,4387.692383,4170.769043,4073.333252,4250.769043,450.000000,4.000000,,,,0.000000,4.000000,4.000000,0.000000,4.000000,4.000000,,,,,,,,,,,,,,,,,,,,,,,,,,,,,,,,,,,,,,,,,,,,,,,,,,,,,,,,
1577418923.931388,107.000000,0.000000,4270.256348,4360.512695,4177.436035,4077.435791,4245.128418,16250.000000,4.000000,,,,0.000000,4.000000,4.000000,0.000000,4.000000,4.000000,,,,,,,,,,,,,,,,,,,,,,,,,,,,,,,,,,,,,,,,,,,,,,,,,,,,,,,,
1577418923.939289,108.000000,0.000000,4288.205078,4352.820313,4167.692383,4098.461426,4256.410156,450.000000,4.000000,,,,0.000000,4.000000,4.000000,0.000000,4.000000,4.000000,,,,,,,,,,,,,,,,,,,,,,,,,,,,,,,,,,,,,,,,,,,,,,,,,,,,,,,,
1577418923.947090,109.000000,0.000000,4307.179688,4390.256348,4194.358887,4114.358887,4282.563965,450.000000,4.000000,,,,0.000000,4.000000,4.000000,0.000000,4.000000,4.000000,,,,,,,,,,,,,,,,,,,,,,,,,,,,,,,,,,,,,,,,,,,,,,,,,,,,,,,,
1577418923.954791,110.000000,0.000000,4310.256348,4394.871582,4194.358887,4122.563965,4294.358887,450.000000,4.000000,,,,0.000000,4.000000,4.000000,0.000000,4.000000,4.000000,,,,,,,,,,,,,,,,,,,,,,,,,,,,,,,,,,,,,,,,,,,,,,,,,,,,,,,,
1577418923.962592,111.000000,0.000000,4308.205078,4368.717773,4150.256348,4096.922852,4280.512695,16250.000000,4.000000,,,,0.000000,4.000000,4.000000,0.000000,4.000000,4.000000,,,,,,,,,,,,,,,,,,,,,,,,,,,,,,,,,,,,,,,,,,,,,,,,,,,,,,,,
1577418923.970493,112.000000,0.000000,4289.743652,4344.102539,4188.205078,4088.718018,4264.615234,450.000000,4.000000,,,,0.000000,4.000000,4.000000,0.000000,4.000000,4.000000,,,,,,,,,,,,,,,,,,,,,,,,,,,,,,,,,,,,,,,,,,,,,,,,,,,,,,,,
1577418923.978294,113.000000,0.000000,4283.589844,4352.820313,4214.358887,4100.512695,4265.128418,450.000000,4.000000,,,,0.000000,4.000000,4.000000,0.000000,4.000000,4.000000,,,,,,,,,,,,,,,,,,,,,,,,,,,,,,,,,,,,,,,,,,,,,,,,,,,,,,,,
1577418923.985995,114.000000,0.000000,4297.436035,4384.102539,4232.820313,4097.436035,4261.538574,450.000000,4.000000,,,,0.000000,4.000000,4.000000,0.000000,4.000000,4.000000,,,,,,,,,,,,,,,,,,,,,,,,,,,,,,,,,,,,,,,,,,,,,,,,,,,,,,,,
1577418923.993796,115.000000,0.000000,4304.102539,4397.436035,4191.282227,4094.358887,4257.436035,16250.000000,4.000000,,,,0.000000,4.000000,4.000000,0.000000,4.000000,4.000000,,,,,,,,,,,,,,,,,,,,,,,,,,,,,,,,,,,,,,,,,,,,,,,,,,,,,,,,
1577418924.001497,116.000000,0.000000,4310.256348,4388.205078,4120.512695,4101.538574,4270.769043,450.000000,4.000000,,,,0.000000,4.000000,4.000000,0.000000,4.000000,4.000000,,,,,,,,,,,,,,,,,,,,,,,,,,,,,,,,,,,,,,,,,,,,,,,,,,,,,,,,
1577418924.009298,117.000000,0.000000,4315.897461,4384.102539,4188.717773,4123.589844,4292.820313,450.000000,4.000000,,,,0.000000,4.000000,4.000000,0.000000,4.000000,4.000000,,,,,,,,,,,,,,,,,,,,,,,,,,,,,,,,,,,,,,,,,,,,,,,,,,,,,,,,
1577418924.017000,118.000000,0.000000,4324.615234,4406.666504,4225.128418,4124.615234,4310.769043,450.000000,4.000000,,,,0.000000,4.000000,4.000000,0.000000,4.000000,4.000000,,,,,,,,,,,,,,,,,,,,,,,,,,,,,,,,,,,,,,,,,,,,,,,,,,,,,,,,
1577418924.024801,119.000000,0.000000,4333.846191,4422.563965,4176.410156,4109.743652,4309.743652,16250.000000,4.000000,,,,0.000000,4.000000,4.000000,0.000000,4.000000,4.000000,,,,,,,,,,,,,,,,,,,,,,,,,,,,,,,,,,,,,,,,,,,,,,,,,,,,,,,,
1577418924.032502,120.000000,0.000000,4337.436035,4403.077148,4142.563965,4114.871582,4300.000000,450.000000,4.000000,,,,0.000000,4.000000,4.000000,0.000000,4.000000,4.000000,,,,,,,,,,,,,,,,,,,,,,,,,,,,,,,,,,,,,,,,,,,,,,,,,,,,,,,,
1577418924.040303,121.000000,0.000000,4326.666504,4378.974121,4113.333496,4102.563965,4283.589844,450.000000,4.000000,,,,0.000000,4.000000,4.000000,0.000000,4.000000,4.000000,,,,,,,,,,,,,,,,,,,,,,,,,,,,,,,,30.665625,12.361835,1.765168,1.645181,0.686671,1.974484,1.621323,1.383409,1.067276,2.403828,5.723082,2.322278,2.851784,62.768200,12.704260,11.348124,4.706525,3.373200,1.182987,0.988038,14.659014,9.457230,2.238857,0.792908,0.530203
1577418924.048004,122.000000,0.000000,4295.897461,4372.307617,4153.846191,4080.512939,4250.256348,450.000000,4.000000,,,,0.000000,4.000000,4.000000,0.000000,4.000000,4.000000,,,,,,,,,,,,,,,,,,,,,,,,,,,,,,,,,,,,,,,,,,,,,,,,,,,,,,,,
1577418924.055805,123.000000,0.000000,4291.282227,4377.436035,4200.000000,4078.974365,4247.692383,16250.000000,4.000000,,,,0.000000,4.000000,4.000000,0.000000,4.000000,4.000000,,,,,,,,,,,,,,,,,,,,,,,,,,,,,,,,,,,,,,,,,,,,,,,,,,,,,,,,
1577418924.063506,124.000000,0.000000,4313.846191,4378.974121,4172.307617,4089.743652,4269.230957,450.000000,4.000000,,,,0.000000,4.000000,4.000000,0.000000,4.000000,4.000000,,,,,,,,,,,,,,,,,,,,,,,,,,,,,,,,,,,,,,,,,,,,,,,,,,,,,,,,
1577418924.071407,125.000000,0.000000,4312.820313,4378.461426,4133.333496,4087.692383,4260.000000,450.000000,4.000000,,,,0.000000,4.000000,4.000000,0.000000,4.000000,4.000000,,,,,,,,,,,,,,,,,,,,,,,,,,,,,,,,,,,,,,,,,,,,,,,,,,,,,,,,
1577418924.079208,126.000000,0.000000,4303.589844,4389.743652,4126.666504,4080.512939,4241.025879,450.000000,4.000000,,,,0.000000,4.000000,4.000000,0.000000,4.000000,4.000000,,,,,,,,,,,,,,,,,,,,,,,,,,,,,,,,,,,,,,,,,,,,,,,,,,,,,,,,
1577418924.087109,127.000000,0.000000,4307.179688,4383.589844,4159.487305,4100.000000,4243.077148,238.000000,4.000000,,,,0.000000,4.000000,4.000000,0.000000,4.000000,4.000000,,,,,,,,,,,,,,,,,,,,,,,,,,,,,,,,,,,,,,,,,,,,,,,,,,,,,,,,
1577418924.094910,0.000000,0.000000,4301.025879,4365.641113,4165.641113,4106.153809,4244.615234,450.000000,4.000000,,,,0.000000,4.000000,4.000000,0.000000,4.000000,4.000000,,,,,,,,,,,,,,,,,,,,,,,,,,,,,,,,,,,,,,,,,,,,,,,,,,,,,,,,
1577418924.102811,1.000000,0.000000,4285.641113,4378.461426,4164.102539,4091.281982,4232.307617,450.000000,4.000000,,,,0.000000,4.000000,4.000000,0.000000,4.000000,4.000000,,,,,,,,,,,,,,,,,,,,,,,,,,,,,,,,,,,,,,,,,,,,,,,,,,,,,,,,
1577418924.110612,2.000000,0.000000,4278.461426,4392.820313,4216.922852,4099.487305,4232.820313,16195.000000,4.000000,,,,0.000000,4.000000,4.000000,0.000000,4.000000,4.000000,,,,,,,,,,,,,,,,,,,,,,,,,,,,,,,,,,,,,,,,,,,,,,,,,,,,,,,,
1577418924.118513,3.000000,0.000000,4281.025879,4370.256348,4235.384766,4100.512695,4245.641113,450.000000,4.000000,,,,0.000000,4.000000,4.000000,0.000000,4.000000,4.000000,,,,,,,,,,,,,,,,,,,,,,,,,,,,,,,,,,,,,,,,,,,,,,,,,,,,,,,,
1577418924.126314,4.000000,0.000000,4276.410156,4366.666504,4241.538574,4086.666748,4235.384766,16185.000000,4.000000,,,,0.000000,4.000000,4.000000,0.000000,4.000000,4.000000,,,,,,,,,,,,,,,,,,,,,,,,,,,,,,,,,,,,,,,,,,,,,,,,,,,,,,,,
1577418924.134215,5.000000,0.000000,4289.743652,4417.948730,4188.717773,4087.179443,4230.769043,450.000000,4.000000,,,,0.000000,4.000000,4.000000,0.000000,4.000000,4.000000,,,,,,,,,,,,,,,,,,,,,,,,,,,,,,,,,,,,,,,,,,,,,,,,,,,,,,,,
1577418924.142016,6.000000,0.000000,4311.794922,4430.256348,4131.282227,4101.025879,4244.102539,31.000000,4.000000,,,,0.000000,4.000000,4.000000,0.000000,4.000000,4.000000,,,,,,,,,,,,,,,,,,,,,,,,,,,,,,,,,,,,,,,,,,,,,,,,,,,,,,,,
1577418924.149917,7.000000,0.000000,4293.333496,4387.179688,4223.077148,4111.794922,4232.307617,450.000000,4.000000,,,,0.000000,4.000000,4.000000,0.000000,4.000000,4.000000,,,,,,,,,,,,,,,,,,,,,,,,,,,,,,,,,,,,,,,,,,,,,,,,,,,,,,,,
1577418924.157718,8.000000,0.000000,4274.358887,4371.282227,4265.128418,4100.000000,4211.794922,450.000000,4.000000,,,,0.000000,4.000000,4.000000,0.000000,4.000000,4.000000,,,,,,,,,,,,,,,,,,,,,,,,,,,,,,,,,,,,,,,,,,,,,,,,,,,,,,,,
1577418924.165419,9.000000,0.000000,4274.358887,4376.410156,4220.000000,4096.410156,4214.358887,16197.000000,4.000000,,,,0.000000,4.000000,4.000000,0.000000,4.000000,4.000000,,,,,,,,,,,,,,,,,,,,,,,,,,,,,,,,18.800924,11.945441,1.900068,1.558787,0.684816,1.944964,1.495584,1.343260,1.200981,2.396282,6.269395,2.922033,3.106022,56.220188,15.057348,8.529929,4.955657,3.043457,1.295818,0.857643,11.459872,9.957988,2.024555,0.689468,0.519081
1577418924.173220,10.000000,0.000000,4278.974121,4388.205078,4155.384766,4109.230957,4225.128418,450.000000,4.000000,,,,0.000000,4.000000,4.000000,0.000000,4.000000,4.000000,,,,,,,,,,,,,,,,,,,,,,,,,,,,,,,,,,,,,,,,,,,,,,,,,,,,,,,,
1577418924.180922,11.000000,0.000000,4283.077148,4401.538574,4114.358887,4101.538574,4206.153809,16235.000000,4.000000,,,,0.000000,4.000000,4.000000,0.000000,4.000000,4.000000,,,,,,,,,,,,,,,,,,,,,,,,,,,,,,,,,,,,,,,,,,,,,,,,,,,,,,,,
1577418924.188723,12.000000,0.000000,4273.846191,4394.871582,4206.153809,4099.487305,4176.410156,450.000000,4.000000,,,,0.000000,4.000000,4.000000,0.000000,4.000000,4.000000,,,,,,,,,,,,,,,,,,,,,,,,,,,,,,,,,,,,,,,,,,,,,,,,,,,,,,,,
1577418924.196424,13.000000,0.000000,4284.615234,4398.461426,4272.307617,4116.410156,4197.948730,450.000000,4.000000,,,,0.000000,4.000000,4.000000,0.000000,4.000000,4.000000,,,,,,,,,,,,,,,,,,,,,,,,,,,,,,,,,,,,,,,,,,,,,,,,,,,,,,,,
1577418924.204225,14.000000,0.000000,4298.974121,4409.230957,4166.666504,4124.102539,4241.025879,450.000000,4.000000,,,,0.000000,4.000000,4.000000,0.000000,4.000000,4.000000,,,,,,,,,,,,,,,,,,,,,,,,,,,,,,,,,,,,,,,,,,,,,,,,,,,,,,,,
1577418924.211926,15.000000,0.000000,4290.256348,4393.846191,4089.743652,4122.051270,4244.102539,16235.000000,4.000000,,,,0.000000,4.000000,4.000000,0.000000,4.000000,4.000000,,,,,,,,,,,,,,,,,,,,,,,,,,,,,,,,,,,,,,,,,,,,,,,,,,,,,,,,
1577418924.219727,16.000000,0.000000,4288.205078,4380.512695,4140.000000,4111.794922,4227.179688,0.000000,4.000000,,,,0.000000,4.000000,4.000000,0.000000,4.000000,4.000000,,,,,,,,,,,,,,,,,,,,,,,,,,,,,,,,,,,,,,,,,,,,,,,,,,,,,,,,
1577418924.227428,17.000000,0.000000,4303.589844,4390.769043,4188.205078,4112.820313,4237.948730,0.000000,4.000000,,,,0.000000,4.000000,4.000000,0.000000,4.000000,4.000000,,,,,,,,,,,,,,,,,,,,,,,,,,,,,,,,,,,,,,,,,,,,,,,,,,,,,,,,
1577418924.235329,18.000000,0.000000,4326.666504,4405.641113,4165.128418,4121.025879,4265.128418,0.000000,4.000000,,,,0.000000,4.000000,4.000000,0.000000,4.000000,4.000000,,,,,,,,,,,,,,,,,,,,,,,,,,,,,,,,,,,,,,,,,,,,,,,,,,,,,,,,
1577418924.243130,19.000000,0.000000,4337.948730,4416.922852,4200.512695,4126.153809,4264.615234,0.000000,4.000000,,,,0.000000,4.000000,4.000000,0.000000,4.000000,4.000000,,,,,,,,,,,,,,,,,,,,,,,,,,,,,,,,,,,,,,,,,,,,,,,,,,,,,,,,
1577418924.250931,20.000000,0.000000,4344.615234,4408.205078,4250.256348,4143.589844,4258.974121,0.000000,4.000000,,,,0.000000,4.000000,4.000000,0.000000,4.000000,4.000000,,,,,,,,,,,,,,,,,,,,,,,,,,,,,,,,,,,,,,,,,,,,,,,,,,,,,,,,
1577418924.258632,21.000000,0.000000,4355.384766,4383.589844,4183.077148,4147.179688,4274.871582,0.000000,4.000000,,,,0.000000,4.000000,4.000000,0.000000,4.000000,4.000000,,,,,,,,,,,,,,,,,,,,,,,,,,,,,,,,,,,,,,,,,,,,,,,,,,,,,,,,
1577418924.266533,22.000000,0.000000,4340.000000,4379.487305,4154.871582,4144.102539,4273.333496,0.000000,4.000000,,,,0.000000,4.000000,4.000000,0.000000,4.000000,4.000000,,,,,,,,,,,,,,,,,,,,,,,,,,,,,,,,,,,,,,,,,,,,,,,,,,,,,,,,
1577418924.274334,23.000000,0.000000,4332.307617,4401.538574,4170.769043,4142.051270,4258.461426,0.000000,4.000000,,,,0.000000,4.000000,4.000000,0.000000,4.000000,4.000000,,,,,,,,,,,,,,,,,,,,,,,,,,,,,,,,,,,,,,,,,,,,,,,,,,,,,,,,
1577418924.282235,24.000000,0.000000,4341.538574,4401.538574,4163.077148,4123.589844,4251.282227,0.000000,4.000000,,,,0.000000,4.000000,4.000000,0.000000,4.000000,4.000000,,,,,,,,,,,,,,,,,,,,,,,,,,,,,,,,,,,,,,,,,,,,,,,,,,,,,,,,
1577418924.290036,25.000000,0.000000,4326.666504,4393.846191,4230.256348,4121.025879,4236.922852,0.000000,4.000000,,,,0.000000,4.000000,4.000000,0.000000,4.000000,4.000000,,,,,,,,,,,,,,,,,,,,,,,,,,,,,,,,10.941345,11.015894,1.898008,1.464995,0.695126,1.900432,1.345882,1.392522,1.439714,2.380244,7.819729,4.350975,3.632890,48.366825,18.495481,6.446022,4.885985,2.551273,1.414006,0.790482,9.671721,9.831743,1.808369,0.626363,0.527489
1577418924.297937,26.000000,0.000000,4319.487305,4410.256348,4244.102539,4134.871582,4234.358887,0.000000,4.000000,,,,0.000000,4.000000,4.000000,0.000000,4.000000,4.000000,,,,,,,,,,,,,,,,,,,,,,,,,,,,,,,,,,,,,,,,,,,,,,,,,,,,,,,,
1577418924.305738,27.000000,0.000000,4308.717773,4391.794922,4212.820313,4146.153809,4236.922852,0.000000,4.000000,,,,0.000000,4.000000,4.000000,0.000000,4.000000,4.000000,,,,,,,,,,,,,,,,,,,,,,,,,,,,,,,,,,,,,,,,,,,,,,,,,,,,,,,,
1577418924.313639,28.000000,0.000000,4289.743652,4368.717773,4155.384766,4138.461426,4231.282227,0.000000,4.000000,,,,0.000000,4.000000,4.000000,0.000000,4.000000,4.000000,,,,,,,,,,,,,,,,,,,,,,,,,,,,,,,,,,,,,,,,,,,,,,,,,,,,,,,,
1577418924.321441,29.000000,0.000000,4297.948730,4396.410156,4130.256348,4118.974121,4230.256348,0.000000,4.000000,,,,0.000000,4.000000,4.000000,0.000000,4.000000,4.000000,,,,,,,,,,,,,,,,,,,,,,,,,,,,,,,,,,,,,,,,,,,,,,,,,,,,,,,,
1577418924.329242,30.000000,0.000000,4308.717773,4417.948730,4229.743652,4135.897461,4227.692383,0.000000,4.000000,,,,0.000000,4.000000,4.000000,0.000000,4.000000,4.000000,,,,,,,,,,,,,,,,,,,,,,,,,,,,,,,,,,,,,,,,,,,,,,,,,,,,,,,,
1577418924.336942,31.000000,0.000000,4309.743652,4409.230957,4237.948730,4159.487305,4231.794922,0.000000,4.000000,,,,0.000000,4.000000,4.000000,0.000000,4.000000,4.000000,,,,,,,,,,,,,,,,,,,,,,,,,,,,,,,,,,,,,,,,,,,,,,,,,,,,,,,,
1577418924.344843,32.000000,0.000000,4291.794922,4386.666504,4151.794922,4154.871582,4227.179688,0.000000,4.000000,,,,0.000000,4.000000,4.000000,0.000000,4.000000,4.000000,,,,,,,,,,,,,,,,,,,,,,,,,,,,,,,,,,,,,,,,,,,,,,,,,,,,,,,,
1577418924.352644,33.000000,0.000000,4271.794922,4373.333496,4083.076904,4144.102539,4211.282227,0.000000,4.000000,,,,0.000000,4.000000,4.000000,0.000000,4.000000,4.000000,,,,,,,,,,,,,,,,,,,,,,,,,,,,,,,,,,,,,,,,,,,,,,,,,,,,,,,,
1577418924.360545,34.000000,0.000000,4279.487305,4378.461426,4092.307617,4136.410156,4216.922852,0.000000,4.000000,,,,0.000000,4.000000,4.000000,0.000000,4.000000,4.000000,,,,,,,,,,,,,,,,,,,,,,,,,,,,,,,,,,,,,,,,,,,,,,,,,,,,,,,,
1577418924.368347,35.000000,0.000000,4280.512695,4381.538574,4235.384766,4149.230957,4223.077148,0.000000,4.000000,,,,0.000000,4.000000,4.000000,0.000000,4.000000,4.000000,,,,,,,,,,,,,,,,,,,,,,,,,,,,,,,,,,,,,,,,,,,,,,,,,,,,,,,,
1577418924.376048,36.000000,0.000000,4275.897461,4373.333496,4264.102539,4146.666504,4214.871582,0.000000,4.000000,,,,0.000000,4.000000,4.000000,0.000000,4.000000,4.000000,,,,,,,,,,,,,,,,,,,,,,,,,,,,,,,,,,,,,,,,,,,,,,,,,,,,,,,,
1577418924.383849,37.000000,0.000000,4276.410156,4365.128418,4145.128418,4120.000000,4208.717773,0.000000,4.000000,,,,0.000000,4.000000,4.000000,0.000000,4.000000,4.000000,,,,,,,,,,,,,,,,,,,,,,,,,,,,,,,,,,,,,,,,,,,,,,,,,,,,,,,,
1577418924.391550,38.000000,0.000000,4281.025879,4387.692383,4139.487305,4129.743652,4208.205078,0.000000,4.000000,,,,0.000000,4.000000,4.000000,0.000000,4.000000,4.000000,,,,,,,,,,,,,,,,,,,,,,,,,,,,,,,,,,,,,,,,,,,,,,,,,,,,,,,,
1577418924.399451,39.000000,0.000000,4286.153809,4397.948730,4185.641113,4149.743652,4209.743652,0.000000,4.000000,,,,0.000000,4.000000,4.000000,0.000000,4.000000,4.000000,,,,,,,,,,,,,,,,,,,,,,,,,,,,,,,,,,,,,,,,,,,,,,,,,,,,,,,,
1577418924.407252,40.000000,0.000000,4271.282227,4353.333496,4168.205078,4154.358887,4204.102539,0.000000,4.000000,,,,0.000000,4.000000,4.000000,0.000000,4.000000,4.000000,,,,,,,,,,,,,,,,,,,,,,,,,,,,,,,,,,,,,,,,,,,,,,,,,,,,,,,,
1577418924.415053,41.000000,0.000000,4280.000000,4353.333496,4116.922852,4160.512695,4214.358887,0.000000,4.000000,,,,0.000000,4.000000,4.000000,0.000000,4.000000,4.000000,,,,,,,,,,,,,,,,,,,,,,,,,,,,,,,,7.121880,9.512811,1.784304,1.415493,0.729937,1.811556,1.230140,1.514392,1.730453,2.399775,9.786862,5.750786,4.216913,40.555458,22.310282,4.840237,4.481411,2.061608,1.501439,0.771456,8.893100,9.004719,1.635907,0.641822,0.560225
1577418924.422754,42.000000,0.000000,4305.128418,4390.769043,4153.333496,4163.077148,4233.333496,0.000000,4.000000,,,,0.000000,4.000000,4.000000,0.000000,4.000000,4.000000,,,,,,,,,,,,,,,,,,,,,,,,,,,,,,,,,,,,,,,,,,,,,,,,,,,,,,,,
1577418924.430555,43.000000,0.000000,4297.436035,4372.820313,4272.820313,4155.897461,4218.461426,0.000000,4.000000,,,,0.000000,4.000000,4.000000,0.000000,4.000000,4.000000,,,,,,,,,,,,,,,,,,,,,,,,,,,,,,,,,,,,,,,,,,,,,,,,,,,,,,,,
1577418924.438256,44.000000,0.000000,4291.282227,4352.307617,4276.922852,4132.820313,4202.051270,0.000000,4.000000,,,,0.000000,4.000000,4.000000,0.000000,4.000000,4.000000,,,,,,,,,,,,,,,,,,,,,,,,,,,,,,,,,,,,,,,,,,,,,,,,,,,,,,,,
1577418924.446057,45.000000,0.000000,4287.692383,4371.282227,4207.179688,4126.666504,4204.102539,0.000000,4.000000,,,,0.000000,4.000000,4.000000,0.000000,4.000000,4.000000,,,,,,,,,,,,,,,,,,,,,,,,,,,,,,,,,,,,,,,,,,,,,,,,,,,,,,,,
1577418924.453759,46.000000,0.000000,4303.589844,4384.615234,4128.205078,4147.179688,4212.307617,0.000000,4.000000,,,,0.000000,4.000000,4.000000,0.000000,4.000000,4.000000,,,,,,,,,,,,,,,,,,,,,,,,,,,,,,,,,,,,,,,,,,,,,,,,,,,,,,,,
1577418924.461560,47.000000,0.000000,4345.128418,4372.307617,4106.666504,4150.769043,4242.051270,0.000000,4.000000,,,,0.000000,4.000000,4.000000,0.000000,4.000000,4.000000,,,,,,,,,,,,,,,,,,,,,,,,,,,,,,,,,,,,,,,,,,,,,,,,,,,,,,,,
1577418924.469261,48.000000,0.000000,4375.897461,4359.487305,4254.358887,4151.794922,4267.692383,0.000000,4.000000,,,,0.000000,4.000000,4.000000,0.000000,4.000000,4.000000,,,,,,,,,,,,,,,,,,,,,,,,,,,,,,,,,,,,,,,,,,,,,,,,,,,,,,,,
1577418924.477162,49.000000,0.000000,4420.512695,4355.897461,4303.077148,4145.128418,4282.051270,0.000000,4.000000,,,,0.000000,4.000000,4.000000,0.000000,4.000000,4.000000,,,,,,,,,,,,,,,,,,,,,,,,,,,,,,,,,,,,,,,,,,,,,,,,,,,,,,,,
1577418924.484963,50.000000,0.000000,4464.615234,4340.512695,4202.563965,4133.846191,4310.769043,0.000000,4.000000,,,,0.000000,4.000000,4.000000,0.000000,4.000000,4.000000,,,,,,,,,,,,,,,,,,,,,,,,,,,,,,,,,,,,,,,,,,,,,,,,,,,,,,,,
1577418924.492864,51.000000,0.000000,4505.641113,4346.153809,4079.487061,4155.897461,4353.333496,0.000000,4.000000,,,,0.000000,4.000000,4.000000,0.000000,4.000000,4.000000,,,,,,,,,,,,,,,,,,,,,,,,,,,,,,,,,,,,,,,,,,,,,,,,,,,,,,,,
1577418924.500665,52.000000,0.000000,4548.717773,4365.128418,4083.589844,4164.102539,4396.922852,0.000000,4.000000,,,,0.000000,4.000000,4.000000,0.000000,4.000000,4.000000,,,,,,,,,,,,,,,,,,,,,,,,,,,,,,,,,,,,,,,,,,,,,,,,,,,,,,,,
1577418924.508566,53.000000,0.000000,4547.692383,4356.410156,4260.512695,4160.000000,4414.358887,0.000000,4.000000,,,,0.000000,4.000000,4.000000,0.000000,4.000000,4.000000,,,,,,,,,,,,,,,,,,,,,,,,,,,,,,,,,,,,,,,,,,,,,,,,,,,,,,,,
1577418924.516367,54.000000,0.000000,4562.051270,4360.512695,4260.512695,4166.666504,4430.256348,0.000000,4.000000,,,,0.000000,4.000000,4.000000,0.000000,4.000000,4.000000,,,,,,,,,,,,,,,,,,,,,,,,,,,,,,,,,,,,,,,,,,,,,,,,,,,,,,,,
1577418924.524268,55.000000,0.000000,4602.051270,4354.871582,4154.358887,4169.743652,4462.563965,0.000000,4.000000,,,,0.000000,4.000000,4.000000,0.000000,4.000000,4.000000,,,,,,,,,,,,,,,,,,,,,,,,,,,,,,,,,,,,,,,,,,,,,,,,,,,,,,,,
1577418924.532069,56.000000,0.000000,4607.179688,4330.769043,4137.948730,4181.025879,4483.589844,0.000000,4.000000,,,,0.000000,4.000000,4.000000,0.000000,4.000000,4.000000,,,,,,,,,,,,,,,,,,,,,,,,,,,,,,,,,,,,,,,,,,,,,,,,,,,,,,,,
1577418924.539970,57.000000,0.000000,4615.897461,4354.871582,4117.436035,4172.820313,4494.358887,0.000000,4.000000,,,,0.000000,4.000000,4.000000,0.000000,4.000000,4.000000,,,,,,,,,,,,,,,,,,,,,,,,,,,,,,,,6.036035,7.592972,1.646880,1.437964,0.788900,1.727917,1.206621,1.665117,2.022164,2.476751,11.783332,6.546383,4.770657,33.702030,25.471514,3.754486,3.818854,1.719723,1.527844,0.794731,8.424942,7.739349,1.588079,0.750368,0.622064
1577418924.547771,58.000000,0.000000,4602.051270,4366.153809,4182.563965,4158.461426,4493.333496,0.000000,4.000000,,,,0.000000,4.000000,4.000000,0.000000,4.000000,4.000000,,,,,,,,,,,,,,,,,,,,,,,,,,,,,,,,,,,,,,,,,,,,,,,,,,,,,,,,
1577418924.555472,59.000000,0.000000,4586.666504,4352.820313,4213.846191,4168.717773,4490.769043,0.000000,4.000000,,,,0.000000,4.000000,4.000000,0.000000,4.000000,4.000000,,,,,,,,,,,,,,,,,,,,,,,,,,,,,,,,,,,,,,,,,,,,,,,,,,,,,,,,
1577418924.563273,60.000000,0.000000,4606.666504,4347.692383,4150.256348,4169.230957,4497.436035,0.000000,4.000000,,,,0.000000,4.000000,4.000000,0.000000,4.000000,4.000000,,,,,,,,,,,,,,,,,,,,,,,,,,,,,,,,,,,,,,,,,,,,,,,,,,,,,,,,
1577418924.570974,61.000000,0.000000,4580.000000,4334.871582,4174.871582,4182.051270,4491.282227,0.000000,4.000000,,,,0.000000,4.000000,4.000000,0.000000,4.000000,4.000000,,,,,,,,,,,,,,,,,,,,,,,,,,,,,,,,,,,,,,,,,,,,,,,,,,,,,,,,
1577418924.578775,62.000000,0.000000,4566.666504,4357.436035,4198.974121,4191.282227,4487.692383,0.000000,4.000000,,,,0.000000,4.000000,4.000000,0.000000,4.000000,4.000000,,,,,,,,,,,,,,,,,,,,,,,,,,,,,,,,,,,,,,,,,,,,,,,,,,,,,,,,
1577418924.586476,63.000000,0.000000,4580.000000,4366.666504,4208.717773,4188.205078,4489.743652,0.000000,4.000000,,,,0.000000,4.000000,4.000000,0.000000,4.000000,4.000000,,,,,,,,,,,,,,,,,,,,,,,,,,,,,,,,,,,,,,,,,,,,,,,,,,,,,,,,
1577418924.594277,64.000000,0.000000,4562.563965,4343.077148,4148.205078,4209.230957,4489.743652,450.000000,4.000000,,,,0.000000,4.000000,4.000000,0.000000,4.000000,4.000000,,,,,,,,,,,,,,,,,,,,,,,,,,,,,,,,,,,,,,,,,,,,,,,,,,,,,,,,
1577418924.601979,65.000000,0.000000,4550.769043,4356.410156,4118.461426,4194.358887,4482.051270,450.000000,4.000000,,,,0.000000,4.000000,4.000000,0.000000,4.000000,4.000000,,,,,,,,,,,,,,,,,,,,,,,,,,,,,,,,,,,,,,,,,,,,,,,,,,,,,,,,
1577418924.609780,66.000000,0.000000,4511.282227,4370.769043,4282.563965,4193.333496,4452.307617,16221.000000,4.000000,,,,0.000000,4.000000,4.000000,0.000000,4.000000,4.000000,,,,,,,,,,,,,,,,,,,,,,,,,,,,,,,,,,,,,,,,,,,,,,,,,,,,,,,,
1577418924.617481,67.000000,0.000000,4516.922852,4397.436035,4303.589844,4207.692383,4455.897461,450.000000,4.000000,,,,0.000000,4.000000,4.000000,0.000000,4.000000,4.000000,,,,,,,,,,,,,,,,,,,,,,,,,,,,,,,,,,,,,,,,,,,,,,,,,,,,,,,,
1577418924.625282,68.000000,0.000000,4463.077148,4336.410156,4342.051270,4163.077148,4409.743652,16206.000000,4.000000,,,,0.000000,4.000000,4.000000,0.000000,4.000000,4.000000,,,,,,,,,,,,,,,,,,,,,,,,,,,,,,,,,,,,,,,,,,,,,,,,,,,,,,,,
1577418924.632983,69.000000,0.000000,4346.666504,4288.717773,4291.794922,4179.487305,4325.128418,450.000000,4.000000,,,,0.000000,4.000000,4.000000,0.000000,4.000000,4.000000,,,,,,,,,,,,,,,,,,,,,,,,,,,,,,,,,,,,,,,,,,,,,,,,,,,,,,,,
1577418924.640884,70.000000,0.000000,4576.410156,4463.077148,3631.281982,4146.666504,4466.153809,21.000000,4.000000,,,,0.000000,4.000000,4.000000,0.000000,4.000000,4.000000,,,,,,,,,,,,,,,,,,,,,,,,,,,,,,,,,,,,,,,,,,,,,,,,,,,,,,,,
1577418924.648685,71.000000,0.000000,4381.538574,4284.102539,4497.436035,4154.358887,4368.717773,450.000000,4.000000,,,,0.000000,4.000000,4.000000,0.000000,4.000000,4.000000,,,,,,,,,,,,,,,,,,,,,,,,,,,,,,,,,,,,,,,,,,,,,,,,,,,,,,,,
1577418924.656586,72.000000,0.000000,4104.615234,4220.000000,4669.230957,4272.307617,4172.820313,450.000000,4.000000,,,,0.000000,4.000000,4.000000,0.000000,4.000000,4.000000,,,,,,,,,,,,,,,,,,,,,,,,,,,,,,,,,,,,,,,,,,,,,,,,,,,,,,,,
1577418924.664387,73.000000,0.000000,4968.205078,4788.205078,2213.846191,4082.564209,4683.077148,16150.000000,4.000000,,,,0.000000,4.000000,4.000000,0.000000,4.000000,4.000000,,,,,,,,,,,,,,,,,,,,,,,,,,,,,,,,6.445008,5.669843,1.581509,1.510295,0.853617,1.625188,1.297248,1.791488,2.280128,2.593454,13.632517,6.531431,5.320584,28.417286,27.183905,3.033517,3.006611,1.603461,1.496349,0.845765,8.108560,6.427247,1.715207,0.919338,0.710284
1577418924.672288,74.000000,0.000000,5269.230957,4727.692383,3593.333252,4347.692383,5097.948730,450.000000,4.000000,,,,0.000000,4.000000,4.000000,0.000000,4.000000,4.000000,,,,,,,,,,,,,,,,,,,,,,,,,,,,,,,,,,,,,,,,,,,,,,,,,,,,,,,,
1577418924.680089,75.000000,0.000000,4746.153809,4358.974121,5546.666504,4779.487305,4887.179688,16216.000000,4.000000,,,,0.000000,4.000000,4.000000,0.000000,4.000000,4.000000,,,,,,,,,,,,,,,,,,,,,,,,,,,,,,,,,,,,,,,,,,,,,,,,,,,,,,,,
1577418924.687990,76.000000,0.000000,4684.615234,4413.333496,3838.461426,4350.256348,4635.897461,450.000000,4.000000,,,,0.000000,4.000000,4.000000,0.000000,4.000000,4.000000,,,,,,,,,,,,,,,,,,,,,,,,,,,,,,,,,,,,,,,,,,,,,,,,,,,,,,,,
1577418924.695791,77.000000,0.000000,4574.871582,4357.948730,3885.128174,4180.000000,4526.153809,450.000000,4.000000,,,,0.000000,4.000000,4.000000,0.000000,4.000000,4.000000,,,,,,,,,,,,,,,,,,,,,,,,,,,,,,,,,,,,,,,,,,,,,,,,,,,,,,,,
1577418924.703692,78.000000,0.000000,4418.461426,4313.846191,4402.051270,4309.230957,4461.538574,450.000000,4.000000,,,,0.000000,4.000000,4.000000,0.000000,4.000000,4.000000,,,,,,,,,,,,,,,,,,,,,,,,,,,,,,,,,,,,,,,,,,,,,,,,,,,,,,,,
1577418924.711493,79.000000,0.000000,4361.025879,4323.077148,3958.461426,4171.282227,4355.384766,16216.000000,4.000000,,,,0.000000,4.000000,4.000000,0.000000,4.000000,4.000000,,,,,,,,,,,,,,,,,,,,,,,,,,,,,,,,,,,,,,,,,,,,,,,,,,,,,,,,
1577418924.719394,80.000000,0.000000,4297.948730,4315.384766,4046.153809,4182.051270,4305.128418,450.000000,4.000000,,,,0.000000,4.000000,4.000000,0.000000,4.000000,4.000000,,,,,,,,,,,,,,,,,,,,,,,,,,,,,,,,,,,,,,,,,,,,,,,,,,,,,,,,
1577418924.727195,81.000000,0.000000,4289.743652,4342.563965,4012.307617,4176.922852,4292.820313,450.000000,4.000000,,,,0.000000,4.000000,4.000000,0.000000,4.000000,4.000000,,,,,,,,,,,,,,,,,,,,,,,,,,,,,,,,,,,,,,,,,,,,,,,,,,,,,,,,
1577418924.735096,82.000000,0.000000,4242.051270,4333.333496,4005.128174,4144.102539,4252.820313,450.000000,4.000000,,,,0.000000,4.000000,4.000000,0.000000,4.000000,4.000000,,,,,,,,,,,,,,,,,,,,,,,,,,,,,,,,,,,,,,,,,,,,,,,,,,,,,,,,
1577418924.742897,83.000000,0.000000,4203.589844,4321.538574,3989.743652,4135.384766,4217.948730,16216.000000,4.000000,,,,0.000000,4.000000,4.000000,0.000000,4.000000,4.000000,,,,,,,,,,,,,,,,,,,,,,,,,,,,,,,,,,,,,,,,,,,,,,,,,,,,,,,,
1577418924.750698,84.000000,0.000000,4174.871582,4322.563965,3966.666748,4110.769043,4192.820313,450.000000,4.000000,,,,0.000000,4.000000,4.000000,0.000000,4.000000,4.000000,,,,,,,,,,,,,,,,,,,,,,,,,,,,,,,,,,,,,,,,,,,,,,,,,,,,,,,,
1577418924.758399,85.000000,0.000000,4165.641113,4354.358887,4009.743652,4120.512695,4195.384766,450.000000,4.000000,,,,0.000000,4.000000,4.000000,0.000000,4.000000,4.000000,,,,,,,,,,,,,,,,,,,,,,,,,,,,,,,,,,,,,,,,,,,,,,,,,,,,,,,,
1577418924.766100,86.000000,0.000000,4178.461426,4372.307617,3996.410156,4129.743652,4198.974121,450.000000,4.000000,,,,0.000000,4.000000,4.000000,0.000000,4.000000,4.000000,,,,,,,,,,,,,,,,,,,,,,,,,,,,,,,,,,,,,,,,,,,,,,,,,,,,,,,,
1577418924.773901,87.000000,0.000000,4158.974121,4347.692383,3998.461426,4121.538574,4186.666504,16216.000000,4.000000,,,,0.000000,4.000000,4.000000,0.000000,4.000000,4.000000,,,,,,,,,,,,,,,,,,,,,,,,,,,,,,,,,,,,,,,,,,,,,,,,,,,,,,,,
1577418924.781602,88.000000,0.000000,4127.692383,4344.615234,3986.666748,4107.179688,4172.307617,450.000000,4.000000,,,,0.000000,4.000000,4.000000,0.000000,4.000000,4.000000,,,,,,,,,,,,,,,,,,,,,,,,,,,,,,,,,,,,,,,,,,,,,,,,,,,,,,,,
1577418924.789503,89.000000,0.000000,4124.615234,4373.333496,3978.461426,4118.974121,4168.717773,450.000000,4.000000,,,,0.000000,4.000000,4.000000,0.000000,4.000000,4.000000,,,,,,,,,,,,,,,,,,,,,,,,,,,,,,,,9.870934,4.603852,1.821471,1.696104,1.041451,1.571148,1.519121,1.881735,2.504283,2.753749,15.430399,6.177295,6.530080,25.575527,28.988235,2.565983,2.298548,1.751008,1.438293,0.930569,9.216328,5.618625,2.153848,1.164037,0.877115
1577418924.797304,90.000000,0.000000,4125.128418,4372.820313,3995.384521,4138.461426,4168.205078,450.000000,4.000000,,,,0.000000,4.000000,4.000000,0.000000,4.000000,4.000000,,,,,,,,,,,,,,,,,,,,,,,,,,,,,,,,,,,,,,,,,,,,,,,,,,,,,,,,
1577418924.805105,91.000000,0.000000,4115.384766,4344.615234,3980.000000,4134.358887,4160.000000,16216.000000,4.000000,,,,0.000000,4.000000,4.000000,0.000000,4.000000,4.000000,,,,,,,,,,,,,,,,,,,,,,,,,,,,,,,,,,,,,,,,,,,,,,,,,,,,,,,,
1577418924.812807,92.000000,0.000000,4110.256348,4346.666504,3983.076904,4134.358887,4156.410156,450.000000,4.000000,,,,0.000000,4.000000,4.000000,0.000000,4.000000,4.000000,,,,,,,,,,,,,,,,,,,,,,,,,,,,,,,,,,,,,,,,,,,,,,,,,,,,,,,,
1577418924.820708,93.000000,0.000000,4111.282227,4371.794922,3996.410156,4142.051270,4162.563965,450.000000,4.000000,,,,0.000000,4.000000,4.000000,0.000000,4.000000,4.000000,,,,,,,,,,,,,,,,,,,,,,,,,,,,,,,,,,,,,,,,,,,,,,,,,,,,,,,,
1577418924.828509,94.000000,0.000000,4113.846191,4370.256348,3983.076904,4137.436035,4164.102539,450.000000,4.000000,,,,0.000000,4.000000,4.000000,0.000000,4.000000,4.000000,,,,,,,,,,,,,,,,,,,,,,,,,,,,,,,,,,,,,,,,,,,,,,,,,,,,,,,,
1577418924.836410,95.000000,0.000000,4111.794922,4340.000000,3992.820557,4136.410156,4162.563965,16216.000000,4.000000,,,,0.000000,4.000000,4.000000,0.000000,4.000000,4.000000,,,,,,,,,,,,,,,,,,,,,,,,,,,,,,,,,,,,,,,,,,,,,,,,,,,,,,,,
1577418924.844211,96.000000,0.000000,4116.922852,4342.051270,3989.743652,4142.051270,4169.230957,450.000000,4.000000,,,,0.000000,4.000000,4.000000,0.000000,4.000000,4.000000,,,,,,,,,,,,,,,,,,,,,,,,,,,,,,,,,,,,,,,,,,,,,,,,,,,,,,,,
1577418924.852012,97.000000,0.000000,4125.128418,4367.179688,3987.179443,4148.717773,4176.922852,450.000000,4.000000,,,,0.000000,4.000000,4.000000,0.000000,4.000000,4.000000,,,,,,,,,,,,,,,,,,,,,,,,,,,,,,,,,,,,,,,,,,,,,,,,,,,,,,,,
1577418924.859713,98.000000,0.000000,4120.000000,4355.384766,4003.589844,4151.794922,4174.871582,450.000000,4.000000,,,,0.000000,4.000000,4.000000,0.000000,4.000000,4.000000,,,,,,,,,,,,,,,,,,,,,,,,,,,,,,,,,,,,,,,,,,,,,,,,,,,,,,,,
1577418924.867614,99.000000,0.000000,4126.153809,4344.615234,3989.743652,4145.128418,4176.410156,16216.000000,4.000000,,,,0.000000,4.000000,4.000000,0.000000,4.000000,4.000000,,,,,,,,,,,,,,,,,,,,,,,,,,,,,,,,,,,,,,,,,,,,,,,,,,,,,,,,
1577418924.875515,100.000000,0.000000,4152.307617,4371.794922,3989.230713,4150.256348,4195.384766,450.000000,4.000000,,,,0.000000,4.000000,4.000000,0.000000,4.000000,4.000000,,,,,,,,,,,,,,,,,,,,,,,,,,,,,,,,,,,,,,,,,,,,,,,,,,,,,,,,
1577418924.883416,101.000000,0.000000,4162.051270,4389.743652,3996.923096,4162.051270,4206.666504,450.000000,4.000000,,,,0.000000,4.000000,4.000000,0.000000,4.000000,4.000000,,,,,,,,,,,,,,,,,,,,,,,,,,,,,,,,,,,,,,,,,,,,,,,,,,,,,,,,
1577418924.891218,102.000000,0.000000,4150.769043,4373.333496,3988.205078,4151.282227,4194.871582,450.000000,4.000000,,,,0.000000,4.000000,4.000000,0.000000,4.000000,4.000000,,,,,,,,,,,,,,,,,,,,,,,,,,,,,,,,,,,,,,,,,,,,,,,,,,,,,,,,
1577418924.899119,103.000000,0.000000,4149.230957,4352.307617,3993.846191,4137.436035,4187.179688,16216.000000,4.000000,,,,0.000000,4.000000,4.000000,0.000000,4.000000,4.000000,,,,,,,,,,,,,,,,,,,,,,,,,,,,,,,,,,,,,,,,,,,,,,,,,,,,,,,,
1577418924.906920,104.000000,0.000000,4160.000000,4353.846191,4000.000000,4147.692383,4201.025879,450.000000,4.000000,,,,0.000000,4.000000,4.000000,0.000000,4.000000,4.000000,,,,,,,,,,,,,,,,,,,,,,,,,,,,,,,,,,,,,,,,,,,,,,,,,,,,,,,,
1577418924.914821,105.000000,0.000000,4169.743652,4366.153809,4007.692383,4165.641113,4216.922852,450.000000,4.000000,,,,0.000000,4.000000,4.000000,0.000000,4.000000,4.000000,,,,,,,,,,,,,,,,,,,,,,,,,,,,,,,,21.766737,7.663207,4.732646,3.310543,2.697394,2.066557,2.383916,2.482687,3.115338,3.461727,17.953718,8.352756,12.422575,29.002413,49.109303,3.036000,2.744278,2.662423,1.694713,1.463687,16.190718,7.984860,4.801615,2.472857,1.712819
1577418924.922622,106.000000,0.000000,4173.333496,4372.820313,4007.692383,4161.538574,4215.384766,450.000000,4.000000,,,,0.000000,4.000000,4.000000,0.000000,4.000000,4.000000,,,,,,,,,,,,,,,,,,,,,,,,,,,,,,,,,,,,,,,,,,,,,,,,,,,,,,,,
1577418924.930524,107.000000,0.000000,4164.102539,4357.436035,3995.897461,4144.615234,4200.000000,16216.000000,4.000000,,,,0.000000,4.000000,4.000000,0.000000,4.000000,4.000000,,,,,,,,,,,,,,,,,,,,,,,,,,,,,,,,,,,,,,,,,,,,,,,,,,,,,,,,
1577418924.938425,108.000000,0.000000,4152.307617,4336.410156,4005.128174,4144.102539,4195.384766,450.000000,4.000000,,,,0.000000,4.000000,4.000000,0.000000,4.000000,4.000000,,,,,,,,,,,,,,,,,,,,,,,,,,,,,,,,,,,,,,,,,,,,,,,,,,,,,,,,
1577418924.946327,109.000000,0.000000,4154.358887,4354.871582,4010.256348,4147.692383,4197.436035,450.000000,4.000000,,,,0.000000,4.000000,4.000000,0.000000,4.000000,4.000000,,,,,,,,,,,,,,,,,,,,,,,,,,,,,,,,,,,,,,,,,,,,,,,,,,,,,,,,
1577418924.954129,110.000000,0.000000,4156.410156,4385.641113,4011.794922,4146.153809,4195.384766,450.000000,4.000000,,,,0.000000,4.000000,4.000000,0.000000,4.000000,4.000000,,,,,,,,,,,,,,,,,,,,,,,,,,,,,,,,,,,,,,,,,,,,,,,,,,,,,,,,
1577418924.961931,111.000000,0.000000,4149.230957,4369.743652,4023.589844,4144.615234,4195.897461,16216.000000,4.000000,,,,0.000000,4.000000,4.000000,0.000000,4.000000,4.000000,,,,,,,,,,,,,,,,,,,,,,,,,,,,,,,,,,,,,,,,,,,,,,,,,,,,,,,,
1577418924.969733,112.000000,0.000000,4146.153809,4345.128418,4013.333252,4130.769043,4193.846191,450.000000,4.000000,,,,0.000000,4.000000,4.000000,0.000000,4.000000,4.000000,,,,,,,,,,,,,,,,,,,,,,,,,,,,,,,,,,,,,,,,,,,,,,,,,,,,,,,,
1577418924.977635,113.000000,0.000000,4151.282227,4363.589844,4013.333252,4123.589844,4191.794922,450.000000,4.000000,,,,0.000000,4.000000,4.000000,0.000000,4.000000,4.000000,,,,,,,,,,,,,,,,,,,,,,,,,,,,,,,,,,,,,,,,,,,,,,,,,,,,,,,,
1577418924.985436,114.000000,0.000000,4157.948730,4386.153809,4018.974365,4132.307617,4195.897461,450.000000,4.000000,,,,0.000000,4.000000,4.000000,0.000000,4.000000,4.000000,,,,,,,,,,,,,,,,,,,,,,,,,,,,,,,,,,,,,,,,,,,,,,,,,,,,,,,,
1577418924.993338,115.000000,0.000000,4154.871582,4375.897461,4006.153809,4132.820313,4192.307617,16216.000000,4.000000,,,,0.000000,4.000000,4.000000,0.000000,4.000000,4.000000,,,,,,,,,,,,,,,,,,,,,,,,,,,,,,,,,,,,,,,,,,,,,,,,,,,,,,,,
1577418925.001139,116.000000,0.000000,4154.871582,4358.461426,4013.333252,4130.256348,4192.820313,450.000000,4.000000,,,,0.000000,4.000000,4.000000,0.000000,4.000000,4.000000,,,,,,,,,,,,,,,,,,,,,,,,,,,,,,,,,,,,,,,,,,,,,,,,,,,,,,,,
1577418925.009041,117.000000,0.000000,4163.589844,4363.077148,4018.974365,4131.282227,4195.384766,450.000000,4.000000,,,,0.000000,4.000000,4.000000,0.000000,4.000000,4.000000,,,,,,,,,,,,,,,,,,,,,,,,,,,,,,,,,,,,,,,,,,,,,,,,,,,,,,,,
1577418925.016842,118.000000,0.000000,4162.563965,4379.487305,4023.589844,4135.384766,4192.820313,450.000000,4.000000,,,,0.000000,4.000000,4.000000,0.000000,4.000000,4.000000,,,,,,,,,,,,,,,,,,,,,,,,,,,,,,,,,,,,,,,,,,,,,,,,,,,,,,,,
1577418925.024744,119.000000,0.000000,4156.922852,4371.282227,4026.153809,4135.897461,4192.820313,16216.000000,4.000000,,,,0.000000,4.000000,4.000000,0.000000,4.000000,4.000000,,,,,,,,,,,,,,,,,,,,,,,,,,,,,,,,,,,,,,,,,,,,,,,,,,,,,,,,
1577418925.032645,120.000000,0.000000,4151.794922,4351.794922,4007.179443,4125.128418,4184.615234,450.000000,4.000000,,,,0.000000,4.000000,4.000000,0.000000,4.000000,4.000000,,,,,,,,,,,,,,,,,,,,,,,,,,,,,,,,,,,,,,,,,,,,,,,,,,,,,,,,
1577418925.040447,121.000000,0.000000,4138.974121,4363.589844,4009.743652,4124.615234,4169.230957,450.000000,4.000000,,,,0.000000,4.000000,4.000000,0.000000,4.000000,4.000000,,,,,,,,,,,,,,,,,,,,,,,,,,,,,,,,51.376713,21.683527,15.128597,9.131258,8.372156,4.259698,5.077296,4.769912,5.023720,5.751368,22.262993,18.180841,29.986135,45.183849,123.634712,6.663538,6.352612,5.483552,3.067214,3.415270,36.685329,19.550947,13.620151,7.045490,4.358456
1577418925.048349,122.000000,0.000000,4135.897461,4377.948730,4008.718018,4132.820313,4163.589844,450.000000,4.000000,,,,0.000000,4.000000,4.000000,0.000000,4.000000,4.000000,,,,,,,,,,,,,,,,,,,,,,,,,,,,,,,,,,,,,,,,,,,,,,,,,,,,,,,,
1577418925.056150,123.000000,0.000000,4146.666504,4359.487305,4009.230713,4127.179688,4166.153809,16216.000000,4.000000,,,,0.000000,4.000000,4.000000,0.000000,4.000000,4.000000,,,,,,,,,,,,,,,,,,,,,,,,,,,,,,,,,,,,,,,,,,,,,,,,,,,,,,,,
1577418925.064052,124.000000,0.000000,4153.333496,4349.743652,4042.564209,4126.153809,4176.410156,450.000000,4.000000,,,,0.000000,4.000000,4.000000,0.000000,4.000000,4.000000,,,,,,,,,,,,,,,,,,,,,,,,,,,,,,,,,,,,,,,,,,,,,,,,,,,,,,,,
1577418925.071854,125.000000,0.000000,4156.410156,4370.256348,4047.692383,4132.820313,4185.641113,450.000000,4.000000,,,,0.000000,4.000000,4.000000,0.000000,4.000000,4.000000,,,,,,,,,,,,,,,,,,,,,,,,,,,,,,,,,,,,,,,,,,,,,,,,,,,,,,,,
1577418925.079756,126.000000,0.000000,4156.410156,4387.692383,4041.538574,4131.282227,4183.589844,450.000000,4.000000,,,,0.000000,4.000000,4.000000,0.000000,4.000000,4.000000,,,,,,,,,,,,,,,,,,,,,,,,,,,,,,,,,,,,,,,,,,,,,,,,,,,,,,,,
1577418925.087557,127.000000,0.000000,4155.897461,4383.589844,4042.564209,4130.769043,4182.051270,238.000000,4.000000,,,,0.000000,4.000000,4.000000,0.000000,4.000000,4.000000,,,,,,,,,,,,,,,,,,,,,,,,,,,,,,,,,,,,,,,,,,,,,,,,,,,,,,,,
1577418925.095459,0.000000,0.000000,4162.563965,4358.974121,4044.102539,4138.974121,4188.205078,450.000000,4.000000,,,,0.000000,4.000000,4.000000,0.000000,4.000000,4.000000,,,,,,,,,,,,,,,,,,,,,,,,,,,,,,,,,,,,,,,,,,,,,,,,,,,,,,,,
1577418925.103261,1.000000,0.000000,4172.820313,4349.743652,4066.666748,4147.179688,4195.897461,450.000000,4.000000,,,,0.000000,4.000000,4.000000,0.000000,4.000000,4.000000,,,,,,,,,,,,,,,,,,,,,,,,,,,,,,,,,,,,,,,,,,,,,,,,,,,,,,,,
1577418925.111162,2.000000,0.000000,4174.871582,4363.589844,4064.102539,4142.051270,4196.922852,16220.000000,4.000000,,,,0.000000,4.000000,4.000000,0.000000,4.000000,4.000000,,,,,,,,,,,,,,,,,,,,,,,,,,,,,,,,,,,,,,,,,,,,,,,,,,,,,,,,
1577418925.118964,3.000000,0.000000,4162.563965,4366.666504,4057.948730,4133.846191,4188.205078,450.000000,4.000000,,,,0.000000,4.000000,4.000000,0.000000,4.000000,4.000000,,,,,,,,,,,,,,,,,,,,,,,,,,,,,,,,,,,,,,,,,,,,,,,,,,,,,,,,
1577418925.126866,4.000000,0.000000,4158.974121,4369.743652,4064.615479,4134.358887,4182.051270,16201.000000,4.000000,,,,0.000000,4.000000,4.000000,0.000000,4.000000,4.000000,,,,,,,,,,,,,,,,,,,,,,,,,,,,,,,,,,,,,,,,,,,,,,,,,,,,,,,,
1577418925.134668,5.000000,0.000000,4160.000000,4371.794922,4058.974365,4133.846191,4183.077148,450.000000,4.000000,,,,0.000000,4.000000,4.000000,0.000000,4.000000,4.000000,,,,,,,,,,,,,,,,,,,,,,,,,,,,,,,,,,,,,,,,,,,,,,,,,,,,,,,,
1577418925.142569,6.000000,0.000000,4155.897461,4364.102539,4069.230713,4133.333496,4184.102539,242.000000,4.000000,,,,0.000000,4.000000,4.000000,2.000000,4.000000,4.000000,,,,,,,,,,,,,,,,,,,,,,,,,,,,,,,,,,,,,,,,,,,,,,,,,,,,,,,,
1577418925.150371,7.000000,0.000000,4157.436035,4364.102539,4075.897461,4133.846191,4182.051270,450.000000,4.000000,,,,0.000000,4.000000,4.000000,2.000000,4.000000,4.000000,,,,,,,,,,,,,,,,,,,,,,,,,,,,,,,,,,,,,,,,,,,,,,,,,,,,,,,,
1577418925.158272,8.000000,0.000000,4158.974121,4359.487305,4087.179443,4137.948730,4181.538574,450.000000,4.000000,,,,0.000000,4.000000,4.000000,2.000000,4.000000,4.000000,,,,,,,,,,,,,,,,,,,,,,,,,,,,,,,,,,,,,,,,,,,,,,,,,,,,,,,,
1577418925.166174,9.000000,0.000000,4162.051270,4355.897461,4104.615234,4147.179688,4186.666504,16163.000000,4.000000,,,,0.000000,4.000000,4.000000,2.000000,4.000000,4.000000,,,,,,,,,,,,,,,,,,,,,,,,,,,,,,,,104.766541,52.286888,36.848877,21.292492,19.874672,9.153598,10.622660,9.692854,8.939476,10.397799,28.723112,39.403481,63.917744,77.992317,279.579681,16.198706,14.615218,11.157317,6.252141,7.601350,76.590431,45.395187,31.845623,16.644203,9.635929
1577418925.174076,10.000000,1.000000,4165.355957,4359.487305,4104.900391,4148.604004,4189.800781,450.000000,4.000000,,,,0.000000,4.000000,4.000000,2.000000,4.000000,4.000000,,,,,,,,,,,,,,,,,,,,,,,,,,,,,,,,,,,,,,,,,,,,,,,,,,,,,,,,
1577418925.181878,11.000000,1.000000,4168.661133,4363.077148,4105.185059,4150.028320,4192.934570,16216.000000,4.000000,,,,0.000000,4.000000,4.000000,2.000000,4.000000,4.000000,,,,,,,,,,,,,,,,,,,,,,,,,,,,,,,,,,,,,,,,,,,,,,,,,,,,,,,,
1577418925.189680,12.000000,1.000000,4171.965820,4366.666504,4105.470215,4151.453125,4196.068359,450.000000,4.000000,,,,0.000000,4.000000,4.000000,2.000000,4.000000,4.000000,,,,,,,,,,,,,,,,,,,,,,,,,,,,,,,,,,,,,,,,,,,,,,,,,,,,,,,,
1577418925.197483,13.000000,1.000000,4175.270508,4370.256348,4105.754883,4152.877441,4199.202148,450.000000,4.000000,,,,0.000000,4.000000,4.000000,2.000000,4.000000,4.000000,,,,,,,,,,,,,,,,,,,,,,,,,,,,,,,,,,,,,,,,,,,,,,,,,,,,,,,,
1577418925.205285,14.000000,1.000000,4178.575684,4373.846191,4106.040039,4154.301758,4202.336426,450.000000,4.000000,,,,0.000000,4.000000,4.000000,2.000000,4.000000,4.000000,,,,,,,,,,,,,,,,,,,,,,,,,,,,,,,,,,,,,,,,,,,,,,,,,,,,,,,,
1577418925.213087,15.000000,1.000000,4181.880371,4377.436035,4106.324707,4155.726563,4205.470215,16216.000000,4.000000,,,,0.000000,4.000000,4.000000,2.000000,4.000000,4.000000,,,,,,,,,,,,,,,,,,,,,,,,,,,,,,,,,,,,,,,,,,,,,,,,,,,,,,,,
1577418925.220889,16.000000,1.000000,4185.185059,4381.025879,4106.609863,4157.150879,4208.604004,3591.777832,4.000000,,,,0.000000,4.000000,4.000000,2.000000,4.000000,4.000000,,,,,,,,,,,,,,,,,,,,,,,,,,,,,,,,,,,,,,,,,,,,,,,,,,,,,,,,
1577418925.228692,17.000000,1.000000,4188.490234,4384.615234,4106.894531,4158.575684,4211.737793,1795.888916,4.000000,,,,0.000000,4.000000,4.000000,2.000000,4.000000,4.000000,,,,,,,,,,,,,,,,,,,,,,,,,,,,,,,,,,,,,,,,,,,,,,,,,,,,,,,,
1577418925.236494,18.000000,0.000000,4191.794922,4388.205078,4107.179688,4160.000000,4214.871582,0.000000,4.000000,,,,0.000000,4.000000,4.000000,2.000000,4.000000,4.000000,,,,,,,,,,,,,,,,,,,,,,,,,,,,,,,,,,,,,,,,,,,,,,,,,,,,,,,,
1577418925.244395,19.000000,0.000000,4184.615234,4378.461426,4105.641113,4158.974121,4209.230957,0.000000,4.000000,,,,0.000000,4.000000,4.000000,2.000000,4.000000,4.000000,,,,,,,,,,,,,,,,,,,,,,,,,,,,,,,,,,,,,,,,,,,,,,,,,,,,,,,,
1577418925.252196,20.000000,0.000000,4168.717773,4370.769043,4093.846191,4145.641113,4194.871582,0.000000,4.000000,,,,0.000000,4.000000,4.000000,2.000000,4.000000,4.000000,,,,,,,,,,,,,,,,,,,,,,,,,,,,,,,,,,,,,,,,,,,,,,,,,,,,,,,,
1577418925.259997,21.000000,0.000000,4165.128418,4374.358887,4114.871582,4140.512695,4193.333496,0.000000,4.000000,,,,0.000000,4.000000,4.000000,2.000000,4.000000,4.000000,,,,,,,,,,,,,,,,,,,,,,,,,,,,,,,,,,,,,,,,,,,,,,,,,,,,,,,,
1577418925.267798,22.000000,0.000000,4168.717773,4375.897461,4132.820313,4145.128418,4192.820313,0.000000,4.000000,,,,0.000000,4.000000,4.000000,2.000000,4.000000,4.000000,,,,,,,,,,,,,,,,,,,,,,,,,,,,,,,,,,,,,,,,,,,,,,,,,,,,,,,,
1577418925.275499,23.000000,0.000000,4149.230957,4355.897461,4107.692383,4129.743652,4172.307617,0.000000,4.000000,,,,0.000000,4.000000,4.000000,2.000000,4.000000,4.000000,,,,,,,,,,,,,,,,,,,,,,,,,,,,,,,,,,,,,,,,,,,,,,,,,,,,,,,,
1577418925.283300,24.000000,0.000000,4132.307617,4333.846191,4106.153809,4117.436035,4160.512695,0.000000,4.000000,,,,0.000000,4.000000,4.000000,2.000000,4.000000,4.000000,,,,,,,,,,,,,,,,,,,,,,,,,,,,,,,,,,,,,,,,,,,,,,,,,,,,,,,,
1577418925.291001,25.000000,0.000000,4149.230957,4353.333496,4114.358887,4127.692383,4173.846191,0.000000,4.000000,,,,0.000000,4.000000,4.000000,2.000000,4.000000,4.000000,,,,,,,,,,,,,,,,,,,,,,,,,,,,,,,,177.919800,98.401573,68.989578,39.194637,36.451256,16.640038,18.894587,17.048708,14.682131,17.142420,36.508572,70.596184,111.721741,124.198944,508.449615,32.121479,27.092878,19.435148,11.218137,13.909308,133.825165,84.859024,58.796486,30.889353,17.213709
1577418925.298801,26.000000,0.000000,4162.051270,4383.589844,4123.077148,4140.000000,4187.179688,0.000000,4.000000,,,,0.000000,4.000000,4.000000,2.000000,4.000000,4.000000,,,,,,,,,,,,,,,,,,,,,,,,,,,,,,,,,,,,,,,,,,,,,,,,,,,,,,,,
1577418925.306502,27.000000,0.000000,4155.897461,4366.666504,4125.128418,4145.128418,4188.717773,0.000000,4.000000,,,,0.000000,4.000000,4.000000,2.000000,4.000000,4.000000,,,,,,,,,,,,,,,,,,,,,,,,,,,,,,,,,,,,,,,,,,,,,,,,,,,,,,,,
1577418925.314303,28.000000,0.000000,4158.461426,4347.179688,4101.538574,4141.538574,4185.641113,0.000000,4.000000,,,,0.000000,4.000000,4.000000,2.000000,4.000000,4.000000,,,,,,,,,,,,,,,,,,,,,,,,,,,,,,,,,,,,,,,,,,,,,,,,,,,,,,,,
1577418925.322104,29.000000,0.000000,4157.436035,4364.615234,4104.615234,4134.871582,4183.589844,0.000000,4.000000,,,,0.000000,4.000000,4.000000,2.000000,4.000000,4.000000,,,,,,,,,,,,,,,,,,,,,,,,,,,,,,,,,,,,,,,,,,,,,,,,,,,,,,,,
1577418925.329805,30.000000,0.000000,4147.179688,4375.384766,4111.282227,4130.256348,4177.948730,0.000000,4.000000,,,,0.000000,4.000000,4.000000,2.000000,4.000000,4.000000,,,,,,,,,,,,,,,,,,,,,,,,,,,,,,,,,,,,,,,,,,,,,,,,,,,,,,,,
1577418925.337506,31.000000,0.000000,4147.692383,4363.077148,4103.077148,4133.846191,4174.358887,0.000000,4.000000,,,,0.000000,4.000000,4.000000,2.000000,4.000000,4.000000,,,,,,,,,,,,,,,,,,,,,,,,,,,,,,,,,,,,,,,,,,,,,,,,,,,,,,,,
1577418925.345306,32.000000,0.000000,4151.282227,4348.205078,4104.615234,4136.410156,4177.436035,0.000000,4.000000,,,,0.000000,4.000000,4.000000,2.000000,4.000000,4.000000,,,,,,,,,,,,,,,,,,,,,,,,,,,,,,,,,,,,,,,,,,,,,,,,,,,,,,,,
1577418925.353008,33.000000,0.000000,4153.846191,4347.179688,4100.512695,4126.153809,4184.615234,0.000000,4.000000,,,,0.000000,4.000000,4.000000,2.000000,4.000000,4.000000,,,,,,,,,,,,,,,,,,,,,,,,,,,,,,,,,,,,,,,,,,,,,,,,,,,,,,,,
1577418925.360909,34.000000,0.000000,4158.461426,4351.794922,4108.205078,4124.102539,4189.230957,0.000000,4.000000,,,,0.000000,4.000000,4.000000,2.000000,4.000000,4.000000,,,,,,,,,,,,,,,,,,,,,,,,,,,,,,,,,,,,,,,,,,,,,,,,,,,,,,,,
1577418925.368710,35.000000,0.000000,4167.692383,4356.410156,4109.743652,4128.717773,4192.307617,0.000000,4.000000,,,,0.000000,4.000000,4.000000,2.000000,4.000000,4.000000,,,,,,,,,,,,,,,,,,,,,,,,,,,,,,,,,,,,,,,,,,,,,,,,,,,,,,,,
1577418925.376511,36.000000,0.000000,4177.436035,4370.256348,4110.256348,4128.205078,4197.436035,0.000000,4.000000,,,,0.000000,4.000000,4.000000,2.000000,4.000000,4.000000,,,,,,,,,,,,,,,,,,,,,,,,,,,,,,,,,,,,,,,,,,,,,,,,,,,,,,,,
1577418925.384212,37.000000,0.000000,4186.666504,4380.000000,4127.179688,4133.333496,4204.102539,0.000000,4.000000,,,,0.000000,4.000000,4.000000,2.000000,4.000000,4.000000,,,,,,,,,,,,,,,,,,,,,,,,,,,,,,,,,,,,,,,,,,,,,,,,,,,,,,,,
1577418925.392113,38.000000,0.000000,4199.487305,4369.230957,4116.410156,4126.666504,4206.666504,0.000000,4.000000,,,,0.000000,4.000000,4.000000,2.000000,4.000000,4.000000,,,,,,,,,,,,,,,,,,,,,,,,,,,,,,,,,,,,,,,,,,,,,,,,,,,,,,,,
1577418925.399914,39.000000,0.000000,4209.743652,4360.000000,4110.769043,4115.897461,4210.769043,0.000000,4.000000,,,,0.000000,4.000000,4.000000,2.000000,4.000000,4.000000,,,,,,,,,,,,,,,,,,,,,,,,,,,,,,,,,,,,,,,,,,,,,,,,,,,,,,,,
1577418925.407715,40.000000,0.000000,4231.282227,4371.282227,4122.051270,4133.846191,4231.794922,0.000000,4.000000,,,,0.000000,4.000000,4.000000,2.000000,4.000000,4.000000,,,,,,,,,,,,,,,,,,,,,,,,,,,,,,,,,,,,,,,,,,,,,,,,,,,,,,,,
1577418925.415416,41.000000,0.000000,4254.358887,4362.563965,4124.102539,4142.051270,4246.153809,0.000000,4.000000,,,,0.000000,4.000000,4.000000,2.000000,4.000000,4.000000,,,,,,,,,,,,,,,,,,,,,,,,,,,,,,,,255.092560,149.929947,104.447762,58.879719,54.321579,25.147148,28.137447,25.199398,20.959459,24.469088,43.469822,104.516174,162.373932,172.516525,758.754272,51.758514,40.978058,28.517574,16.928921,21.007828,196.579834,129.552231,88.604118,46.692551,25.383013
1577418925.423217,42.000000,0.000000,4247.179688,4352.820313,4122.563965,4113.846191,4226.153809,0.000000,4.000000,,,,0.000000,4.000000,4.000000,2.000000,4.000000,4.000000,,,,,,,,,,,,,,,,,,,,,,,,,,,,,,,,,,,,,,,,,,,,,,,,,,,,,,,,
1577418925.430918,43.000000,0.000000,4246.666504,4363.589844,4109.230957,4100.512695,4213.846191,0.000000,4.000000,,,,0.000000,4.000000,4.000000,2.000000,4.000000,4.000000,,,,,,,,,,,,,,,,,,,,,,,,,,,,,,,,,,,,,,,,,,,,,,,,,,,,,,,,
1577418925.438719,44.000000,0.000000,4274.871582,4358.461426,4115.384766,4121.538574,4240.512695,0.000000,4.000000,,,,0.000000,4.000000,4.000000,2.000000,4.000000,4.000000,,,,,,,,,,,,,,,,,,,,,,,,,,,,,,,,,,,,,,,,,,,,,,,,,,,,,,,,
1577418925.446421,45.000000,0.000000,4290.256348,4353.846191,4123.589844,4132.307617,4257.436035,0.000000,4.000000,,,,0.000000,4.000000,4.000000,2.000000,4.000000,4.000000,,,,,,,,,,,,,,,,,,,,,,,,,,,,,,,,,,,,,,,,,,,,,,,,,,,,,,,,
1577418925.454323,46.000000,0.000000,4274.358887,4366.666504,4110.769043,4122.563965,4239.487305,0.000000,4.000000,,,,0.000000,4.000000,4.000000,2.000000,4.000000,4.000000,,,,,,,,,,,,,,,,,,,,,,,,,,,,,,,,,,,,,,,,,,,,,,,,,,,,,,,,
1577418925.462125,47.000000,0.000000,4257.948730,4354.358887,4114.358887,4117.436035,4227.179688,0.000000,4.000000,,,,0.000000,4.000000,4.000000,2.000000,4.000000,4.000000,,,,,,,,,,,,,,,,,,,,,,,,,,,,,,,,,,,,,,,,,,,,,,,,,,,,,,,,
1577418925.469927,48.000000,0.000000,4253.846191,4335.897461,4113.846191,4112.820313,4229.743652,0.000000,4.000000,,,,0.000000,4.000000,4.000000,2.000000,4.000000,4.000000,,,,,,,,,,,,,,,,,,,,,,,,,,,,,,,,,,,,,,,,,,,,,,,,,,,,,,,,
1577418925.477729,49.000000,0.000000,4240.512695,4357.948730,4121.538574,4108.205078,4224.102539,0.000000,4.000000,,,,0.000000,4.000000,4.000000,2.000000,4.000000,4.000000,,,,,,,,,,,,,,,,,,,,,,,,,,,,,,,,,,,,,,,,,,,,,,,,,,,,,,,,
1577418925.485631,50.000000,0.000000,4227.179688,4374.871582,4127.179688,4112.820313,4215.897461,0.000000,4.000000,,,,0.000000,4.000000,4.000000,2.000000,4.000000,4.000000,,,,,,,,,,,,,,,,,,,,,,,,,,,,,,,,,,,,,,,,,,,,,,,,,,,,,,,,
1577418925.493433,51.000000,0.000000,4231.282227,4352.307617,4114.358887,4116.410156,4223.077148,0.000000,4.000000,,,,0.000000,4.000000,4.000000,2.000000,4.000000,4.000000,,,,,,,,,,,,,,,,,,,,,,,,,,,,,,,,,,,,,,,,,,,,,,,,,,,,,,,,
1577418925.501334,52.000000,0.000000,4235.897461,4346.666504,4139.487305,4130.256348,4237.948730,0.000000,4.000000,,,,0.000000,4.000000,4.000000,2.000000,4.000000,4.000000,,,,,,,,,,,,,,,,,,,,,,,,,,,,,,,,,,,,,,,,,,,,,,,,,,,,,,,,
1577418925.509136,53.000000,0.000000,4233.333496,4367.692383,4145.641113,4142.051270,4235.897461,0.000000,4.000000,,,,0.000000,4.000000,4.000000,2.000000,4.000000,4.000000,,,,,,,,,,,,,,,,,,,,,,,,,,,,,,,,,,,,,,,,,,,,,,,,,,,,,,,,
1577418925.517037,54.000000,0.000000,4217.948730,4367.179688,4118.974121,4129.743652,4220.000000,0.000000,4.000000,,,,0.000000,4.000000,4.000000,2.000000,4.000000,4.000000,,,,,,,,,,,,,,,,,,,,,,,,,,,,,,,,,,,,,,,,,,,,,,,,,,,,,,,,
1577418925.524839,55.000000,0.000000,4205.641113,4353.846191,4125.641113,4128.205078,4220.000000,0.000000,4.000000,,,,0.000000,4.000000,4.000000,2.000000,4.000000,4.000000,,,,,,,,,,,,,,,,,,,,,,,,,,,,,,,,,,,,,,,,,,,,,,,,,,,,,,,,
1577418925.532742,56.000000,1.000000,4205.185059,4353.390137,4125.982910,4129.914551,4219.543945,50.000000,4.000000,,,,0.000000,4.000000,4.000000,2.000000,4.000000,4.000000,,,,,,,,,,,,,,,,,,,,,,,,,,,,,,,,,,,,,,,,,,,,,,,,,,,,,,,,
1577418925.540545,57.000000,1.000000,4204.729492,4352.934570,4126.324707,4131.624023,4219.088379,100.000000,4.000000,,,,0.000000,4.000000,4.000000,2.000000,4.000000,4.000000,,,,,,,,,,,,,,,,,,,,,,,,,,,,,,,,313.916687,191.518799,132.512314,74.350822,67.992531,32.123726,35.585361,31.638340,25.802912,30.113937,47.036617,130.612686,200.384659,207.749466,953.657959,69.494705,52.030766,35.614082,21.662624,26.763935,247.003845,166.128174,112.237045,59.269215,31.641722
1577418925.548348,58.000000,1.000000,4204.273438,4352.478516,4126.666504,4133.333496,4218.632324,150.000000,4.000000,,,,0.000000,4.000000,4.000000,2.000000,4.000000,4.000000,,,,,,,,,,,,,,,,,,,,,,,,,,,,,,,,,,,,,,,,,,,,,,,,,,,,,,,,
1577418925.556151,59.000000,1.000000,4203.817871,4352.022949,4127.008789,4135.042969,4218.176758,200.000000,4.000000,,,,0.000000,4.000000,4.000000,2.000000,4.000000,4.000000,,,,,,,,,,,,,,,,,,,,,,,,,,,,,,,,,,,,,,,,,,,,,,,,,,,,,,,,
1577418925.563954,60.000000,1.000000,4203.361816,4351.566895,4127.350586,4136.751953,4217.720703,250.000000,4.000000,,,,0.000000,4.000000,4.000000,2.000000,4.000000,4.000000,,,,,,,,,,,,,,,,,,,,,,,,,,,,,,,,,,,,,,,,,,,,,,,,,,,,,,,,
1577418925.571757,61.000000,1.000000,4202.905762,4351.111328,4127.692383,4138.461426,4217.265137,300.000000,4.000000,,,,0.000000,4.000000,4.000000,2.000000,4.000000,4.000000,,,,,,,,,,,,,,,,,,,,,,,,,,,,,,,,,,,,,,,,,,,,,,,,,,,,,,,,
1577418925.579560,62.000000,1.000000,4202.450195,4350.655273,4128.034180,4140.170898,4216.809082,350.000000,4.000000,,,,0.000000,4.000000,4.000000,2.000000,4.000000,4.000000,,,,,,,,,,,,,,,,,,,,,,,,,,,,,,,,,,,,,,,,,,,,,,,,,,,,,,,,
1577418925.587363,63.000000,1.000000,4201.994141,4350.199219,4128.375977,4141.880371,4216.353516,400.000000,4.000000,,,,0.000000,4.000000,4.000000,2.000000,4.000000,4.000000,,,,,,,,,,,,,,,,,,,,,,,,,,,,,,,,,,,,,,,,,,,,,,,,,,,,,,,,
1577418925.595166,64.000000,0.000000,4201.538574,4349.743652,4128.717773,4143.589844,4215.897461,450.000000,4.000000,,,,0.000000,4.000000,4.000000,2.000000,4.000000,4.000000,,,,,,,,,,,,,,,,,,,,,,,,,,,,,,,,,,,,,,,,,,,,,,,,,,,,,,,,
1577418925.603067,65.000000,0.000000,4211.794922,4343.589844,4140.512695,4140.512695,4224.615234,450.000000,4.000000,,,,0.000000,4.000000,4.000000,2.000000,4.000000,4.000000,,,,,,,,,,,,,,,,,,,,,,,,,,,,,,,,,,,,,,,,,,,,,,,,,,,,,,,,
1577418925.610869,66.000000,0.000000,4211.794922,4367.179688,4125.128418,4136.922852,4227.179688,16229.000000,4.000000,,,,0.000000,4.000000,4.000000,2.000000,4.000000,4.000000,,,,,,,,,,,,,,,,,,,,,,,,,,,,,,,,,,,,,,,,,,,,,,,,,,,,,,,,
1577418925.618771,67.000000,0.000000,4198.461426,4363.589844,4117.948730,4125.641113,4209.743652,450.000000,4.000000,,,,0.000000,4.000000,4.000000,2.000000,4.000000,4.000000,,,,,,,,,,,,,,,,,,,,,,,,,,,,,,,,,,,,,,,,,,,,,,,,,,,,,,,,
1577418925.626572,68.000000,0.000000,4195.897461,4338.974121,4138.974121,4120.512695,4202.051270,16220.000000,4.000000,,,,0.000000,4.000000,4.000000,2.000000,4.000000,4.000000,,,,,,,,,,,,,,,,,,,,,,,,,,,,,,,,,,,,,,,,,,,,,,,,,,,,,,,,
1577418925.634474,69.000000,0.000000,4202.051270,4341.025879,4128.717773,4128.205078,4207.692383,450.000000,4.000000,,,,0.000000,4.000000,4.000000,2.000000,4.000000,4.000000,,,,,,,,,,,,,,,,,,,,,,,,,,,,,,,,,,,,,,,,,,,,,,,,,,,,,,,,
1577418925.642276,70.000000,0.000000,4199.487305,4354.358887,4117.948730,4133.333496,4208.205078,308.000000,4.000000,,,,0.000000,4.000000,4.000000,2.000000,4.000000,4.000000,,,,,,,,,,,,,,,,,,,,,,,,,,,,,,,,,,,,,,,,,,,,,,,,,,,,,,,,
1577418925.650178,71.000000,0.000000,4203.077148,4344.615234,4122.051270,4131.282227,4205.128418,450.000000,4.000000,,,,0.000000,4.000000,4.000000,2.000000,4.000000,4.000000,,,,,,,,,,,,,,,,,,,,,,,,,,,,,,,,,,,,,,,,,,,,,,,,,,,,,,,,
1577418925.657979,72.000000,0.000000,4201.025879,4335.897461,4125.128418,4130.256348,4198.974121,450.000000,4.000000,,,,0.000000,4.000000,4.000000,2.000000,4.000000,4.000000,,,,,,,,,,,,,,,,,,,,,,,,,,,,,,,,,,,,,,,,,,,,,,,,,,,,,,,,
1577418925.665881,73.000000,0.000000,4186.153809,4360.512695,4121.538574,4127.692383,4190.256348,16174.000000,4.000000,,,,0.000000,4.000000,4.000000,2.000000,4.000000,4.000000,,,,,,,,,,,,,,,,,,,,,,,,,,,,,,,,335.363251,209.100204,143.626129,80.220604,72.708076,35.178295,38.676708,34.139778,27.464697,32.068928,45.581177,139.748520,212.491058,216.976440,1025.033203,79.621590,56.467346,38.310326,23.754322,29.183134,268.532745,182.064438,121.588516,64.249641,33.809280
1577418925.673683,74.000000,0.000000,4184.102539,4371.282227,4108.205078,4121.538574,4187.692383,450.000000,4.000000,,,,0.000000,4.000000,4.000000,2.000000,4.000000,4.000000,,,,,,,,,,,,,,,,,,,,,,,,,,,,,,,,,,,,,,,,,,,,,,,,,,,,,,,,
1577418925.681585,75.000000,1.000000,4183.475586,4370.370605,4110.541504,4121.481445,4187.236328,16216.000000,4.000000,,,,0.000000,4.000000,4.000000,2.000000,4.000000,4.000000,,,,,,,,,,,,,,,,,,,,,,,,,,,,,,,,,,,,,,,,,,,,,,,,,,,,,,,,
1577418925.689388,76.000000,1.000000,4182.849121,4369.458496,4112.877441,4121.424316,4186.780762,450.000000,4.000000,,,,0.000000,4.000000,4.000000,2.000000,4.000000,4.000000,,,,,,,,,,,,,,,,,,,,,,,,,,,,,,,,,,,,,,,,,,,,,,,,,,,,,,,,
1577418925.697190,77.000000,1.000000,4182.222168,4368.546875,4115.213867,4121.367676,4186.324707,450.000000,4.000000,,,,0.000000,4.000000,4.000000,2.000000,4.000000,4.000000,,,,,,,,,,,,,,,,,,,,,,,,,,,,,,,,,,,,,,,,,,,,,,,,,,,,,,,,
1577418925.704993,78.000000,1.000000,4181.595215,4367.635254,4117.549805,4121.310547,4185.869141,450.000000,4.000000,,,,0.000000,4.000000,4.000000,2.000000,4.000000,4.000000,,,,,,,,,,,,,,,,,,,,,,,,,,,,,,,,,,,,,,,,,,,,,,,,,,,,,,,,
1577418925.712795,79.000000,1.000000,4180.968750,4366.723633,4119.886230,4121.253418,4185.413086,16216.000000,4.000000,,,,0.000000,4.000000,4.000000,2.000000,4.000000,4.000000,,,,,,,,,,,,,,,,,,,,,,,,,,,,,,,,,,,,,,,,,,,,,,,,,,,,,,,,
1577418925.720598,80.000000,1.000000,4180.341797,4365.812012,4122.222168,4121.196777,4184.957031,10969.333008,4.000000,,,,0.000000,4.000000,4.000000,2.000000,4.000000,4.000000,,,,,,,,,,,,,,,,,,,,,,,,,,,,,,,,,,,,,,,,,,,,,,,,,,,,,,,,
1577418925.728400,81.000000,1.000000,4179.715332,4364.900391,4124.558594,4121.139648,4184.501465,12722.555664,4.000000,,,,0.000000,4.000000,4.000000,2.000000,4.000000,4.000000,,,,,,,,,,,,,,,,,,,,,,,,,,,,,,,,,,,,,,,,,,,,,,,,,,,,,,,,
1577418925.736203,82.000000,1.000000,4179.088379,4363.988770,4126.894531,4121.082520,4184.045410,14475.777344,4.000000,,,,0.000000,4.000000,4.000000,2.000000,4.000000,4.000000,,,,,,,,,,,,,,,,,,,,,,,,,,,,,,,,,,,,,,,,,,,,,,,,,,,,,,,,
1577418925.744005,83.000000,0.000000,4178.461426,4363.077148,4129.230957,4121.025879,4183.589844,16229.000000,4.000000,,,,0.000000,4.000000,4.000000,2.000000,4.000000,4.000000,,,,,,,,,,,,,,,,,,,,,,,,,,,,,,,,,,,,,,,,,,,,,,,,,,,,,,,,
1577418925.751906,84.000000,0.000000,4186.666504,4351.282227,4135.897461,4125.128418,4186.666504,450.000000,4.000000,,,,0.000000,4.000000,4.000000,2.000000,4.000000,4.000000,,,,,,,,,,,,,,,,,,,,,,,,,,,,,,,,,,,,,,,,,,,,,,,,,,,,,,,,
1577418925.759708,85.000000,0.000000,4189.743652,4342.563965,4132.307617,4137.436035,4192.307617,450.000000,4.000000,,,,0.000000,4.000000,4.000000,2.000000,4.000000,4.000000,,,,,,,,,,,,,,,,,,,,,,,,,,,,,,,,,,,,,,,,,,,,,,,,,,,,,,,,
1577418925.767510,86.000000,0.000000,4184.102539,4345.641113,4136.410156,4145.641113,4190.769043,450.000000,4.000000,,,,0.000000,4.000000,4.000000,2.000000,4.000000,4.000000,,,,,,,,,,,,,,,,,,,,,,,,,,,,,,,,,,,,,,,,,,,,,,,,,,,,,,,,
1577418925.775311,87.000000,0.000000,4190.256348,4358.974121,4131.794922,4141.538574,4192.820313,16229.000000,4.000000,,,,0.000000,4.000000,4.000000,2.000000,4.000000,4.000000,,,,,,,,,,,,,,,,,,,,,,,,,,,,,,,,,,,,,,,,,,,,,,,,,,,,,,,,
1577418925.783212,88.000000,0.000000,4194.871582,4358.974121,4140.000000,4136.410156,4196.410156,450.000000,4.000000,,,,0.000000,4.000000,4.000000,2.000000,4.000000,4.000000,,,,,,,,,,,,,,,,,,,,,,,,,,,,,,,,,,,,,,,,,,,,,,,,,,,,,,,,
1577418925.791013,89.000000,0.000000,4187.692383,4354.358887,4135.384766,4132.820313,4191.794922,450.000000,4.000000,,,,0.000000,4.000000,4.000000,2.000000,4.000000,4.000000,,,,,,,,,,,,,,,,,,,,,,,,,,,,,,,,312.601685,196.339020,133.722748,74.316803,66.739212,33.257946,36.277218,31.766403,25.266218,29.558592,38.963337,128.529968,194.090790,196.158707,946.240173,78.215622,52.677509,35.594955,22.406040,27.368128,253.455460,171.461853,113.217598,59.803543,31.078556
1577418925.798814,90.000000,0.000000,4185.641113,4358.461426,4137.948730,4136.922852,4190.256348,450.000000,4.000000,,,,0.000000,4.000000,4.000000,2.000000,4.000000,4.000000,,,,,,,,,,,,,,,,,,,,,,,,,,,,,,,,,,,,,,,,,,,,,,,,,,,,,,,,
1577418925.806515,91.000000,0.000000,4195.897461,4361.538574,4161.025879,4150.769043,4200.000000,16229.000000,4.000000,,,,0.000000,4.000000,4.000000,2.000000,4.000000,4.000000,,,,,,,,,,,,,,,,,,,,,,,,,,,,,,,,,,,,,,,,,,,,,,,,,,,,,,,,
1577418925.814316,92.000000,0.000000,4206.666504,4368.205078,4159.487305,4152.820313,4205.128418,450.000000,4.000000,,,,0.000000,4.000000,4.000000,2.000000,4.000000,4.000000,,,,,,,,,,,,,,,,,,,,,,,,,,,,,,,,,,,,,,,,,,,,,,,,,,,,,,,,
1577418925.822017,93.000000,0.000000,4203.589844,4373.846191,4163.077148,4146.666504,4201.538574,450.000000,4.000000,,,,0.000000,4.000000,4.000000,2.000000,4.000000,4.000000,,,,,,,,,,,,,,,,,,,,,,,,,,,,,,,,,,,,,,,,,,,,,,,,,,,,,,,,
1577418925.829919,94.000000,0.000000,4204.615234,4367.179688,4166.666504,4150.256348,4206.153809,450.000000,4.000000,,,,0.000000,4.000000,4.000000,2.000000,4.000000,4.000000,,,,,,,,,,,,,,,,,,,,,,,,,,,,,,,,,,,,,,,,,,,,,,,,,,,,,,,,
1577418925.837822,95.000000,0.000000,4212.820313,4346.666504,4158.461426,4159.487305,4213.333496,16229.000000,4.000000,,,,0.000000,4.000000,4.000000,2.000000,4.000000,4.000000,,,,,,,,,,,,,,,,,,,,,,,,,,,,,,,,,,,,,,,,,,,,,,,,,,,,,,,,
1577418925.845624,96.000000,0.000000,4204.615234,4339.487305,4158.461426,4160.000000,4203.077148,450.000000,4.000000,,,,0.000000,4.000000,4.000000,2.000000,4.000000,4.000000,,,,,,,,,,,,,,,,,,,,,,,,,,,,,,,,,,,,,,,,,,,,,,,,,,,,,,,,
1577418925.853426,97.000000,0.000000,4194.358887,4353.846191,4152.307617,4150.769043,4190.256348,450.000000,4.000000,,,,0.000000,4.000000,4.000000,2.000000,4.000000,4.000000,,,,,,,,,,,,,,,,,,,,,,,,,,,,,,,,,,,,,,,,,,,,,,,,,,,,,,,,
1577418925.861228,98.000000,0.000000,4193.846191,4363.077148,4166.153809,4146.666504,4192.307617,450.000000,4.000000,,,,0.000000,4.000000,4.000000,2.000000,4.000000,4.000000,,,,,,,,,,,,,,,,,,,,,,,,,,,,,,,,,,,,,,,,,,,,,,,,,,,,,,,,
1577418925.869031,99.000000,0.000000,4193.846191,4355.897461,4170.256348,4147.692383,4195.384766,16229.000000,4.000000,,,,0.000000,4.000000,4.000000,2.000000,4.000000,4.000000,,,,,,,,,,,,,,,,,,,,,,,,,,,,,,,,,,,,,,,,,,,,,,,,,,,,,,,,
1577418925.876932,100.000000,0.000000,4191.794922,4354.358887,4154.358887,4148.717773,4195.384766,450.000000,4.000000,,,,0.000000,4.000000,4.000000,2.000000,4.000000,4.000000,,,,,,,,,,,,,,,,,,,,,,,,,,,,,,,,,,,,,,,,,,,,,,,,,,,,,,,,
1577418925.884834,101.000000,0.000000,4192.307617,4375.384766,4171.794922,4150.256348,4198.461426,450.000000,4.000000,,,,0.000000,4.000000,4.000000,2.000000,4.000000,4.000000,,,,,,,,,,,,,,,,,,,,,,,,,,,,,,,,,,,,,,,,,,,,,,,,,,,,,,,,
1577418925.892736,102.000000,0.000000,4188.717773,4380.000000,4174.871582,4140.000000,4193.846191,450.000000,4.000000,,,,0.000000,4.000000,4.000000,2.000000,4.000000,4.000000,,,,,,,,,,,,,,,,,,,,,,,,,,,,,,,,,,,,,,,,,,,,,,,,,,,,,,,,
1577418925.900538,103.000000,0.000000,4179.487305,4347.179688,4170.256348,4134.871582,4187.692383,16229.000000,4.000000,,,,0.000000,4.000000,4.000000,2.000000,4.000000,4.000000,,,,,,,,,,,,,,,,,,,,,,,,,,,,,,,,,,,,,,,,,,,,,,,,,,,,,,,,
1577418925.908440,104.000000,0.000000,4188.205078,4335.384766,4184.615234,4150.256348,4195.897461,450.000000,4.000000,,,,0.000000,4.000000,4.000000,2.000000,4.000000,4.000000,,,,,,,,,,,,,,,,,,,,,,,,,,,,,,,,,,,,,,,,,,,,,,,,,,,,,,,,
1577418925.916242,105.000000,0.000000,4203.077148,4361.538574,4189.743652,4162.563965,4210.769043,450.000000,4.000000,,,,0.000000,4.000000,4.000000,2.000000,4.000000,4.000000,,,,,,,,,,,,,,,,,,,,,,,,,,,,,,,,254.017395,157.790558,106.305550,58.733501,52.226620,27.050930,29.209103,25.327658,19.947346,23.432810,28.874109,100.896423,151.474075,152.083862,745.136841,65.957794,42.043983,28.405437,18.080221,21.959305,206.998627,137.977951,90.046883,47.511574,24.412560
1577418925.924044,106.000000,0.000000,4210.769043,4377.436035,4193.333496,4169.230957,4222.051270,450.000000,4.000000,,,,0.000000,4.000000,4.000000,2.000000,4.000000,4.000000,,,,,,,,,,,,,,,,,,,,,,,,,,,,,,,,,,,,,,,,,,,,,,,,,,,,,,,,
1577418925.931946,107.000000,1.000000,4206.153809,4373.789063,4192.934570,4166.040039,4216.695313,2203.222168,4.000000,,,,0.000000,4.000000,4.000000,2.000000,4.000000,4.000000,,,,,,,,,,,,,,,,,,,,,,,,,,,,,,,,,,,,,,,,,,,,,,,,,,,,,,,,
1577418925.939749,108.000000,1.000000,4201.538574,4370.142578,4192.535645,4162.849121,4211.338867,3956.444336,4.000000,,,,0.000000,4.000000,4.000000,2.000000,4.000000,4.000000,,,,,,,,,,,,,,,,,,,,,,,,,,,,,,,,,,,,,,,,,,,,,,,,,,,,,,,,
1577418925.947552,109.000000,1.000000,4196.922852,4366.495605,4192.136719,4159.658203,4205.982910,5709.666504,4.000000,,,,0.000000,4.000000,4.000000,2.000000,4.000000,4.000000,,,,,,,,,,,,,,,,,,,,,,,,,,,,,,,,,,,,,,,,,,,,,,,,,,,,,,,,
1577418925.955355,110.000000,1.000000,4192.307617,4362.849121,4191.737793,4156.467285,4200.626953,7462.888672,4.000000,,,,0.000000,4.000000,4.000000,2.000000,4.000000,4.000000,,,,,,,,,,,,,,,,,,,,,,,,,,,,,,,,,,,,,,,,,,,,,,,,,,,,,,,,
1577418925.963157,111.000000,1.000000,4187.692383,4359.202148,4191.338867,4153.276367,4195.270508,9216.111328,4.000000,,,,0.000000,4.000000,4.000000,2.000000,4.000000,4.000000,,,,,,,,,,,,,,,,,,,,,,,,,,,,,,,,,,,,,,,,,,,,,,,,,,,,,,,,
1577418925.970960,112.000000,1.000000,4183.077148,4355.555664,4190.939941,4150.085449,4189.914551,10969.333008,4.000000,,,,0.000000,4.000000,4.000000,2.000000,4.000000,4.000000,,,,,,,,,,,,,,,,,,,,,,,,,,,,,,,,,,,,,,,,,,,,,,,,,,,,,,,,
1577418925.978763,113.000000,1.000000,4178.461426,4351.908691,4190.541504,4146.894531,4184.558594,12722.555664,4.000000,,,,0.000000,4.000000,4.000000,2.000000,4.000000,4.000000,,,,,,,,,,,,,,,,,,,,,,,,,,,,,,,,,,,,,,,,,,,,,,,,,,,,,,,,
1577418925.986565,114.000000,1.000000,4173.846191,4348.262207,4190.142578,4143.703613,4179.202148,14475.777344,4.000000,,,,0.000000,4.000000,4.000000,2.000000,4.000000,4.000000,,,,,,,,,,,,,,,,,,,,,,,,,,,,,,,,,,,,,,,,,,,,,,,,,,,,,,,,
1577418925.994368,115.000000,0.000000,4169.230957,4344.615234,4189.743652,4140.512695,4173.846191,16229.000000,4.000000,,,,0.000000,4.000000,4.000000,2.000000,4.000000,4.000000,,,,,,,,,,,,,,,,,,,,,,,,,,,,,,,,,,,,,,,,,,,,,,,,,,,,,,,,
1577418926.002270,116.000000,0.000000,4182.051270,4353.846191,4185.641113,4143.589844,4185.128418,450.000000,4.000000,,,,0.000000,4.000000,4.000000,2.000000,4.000000,4.000000,,,,,,,,,,,,,,,,,,,,,,,,,,,,,,,,,,,,,,,,,,,,,,,,,,,,,,,,
1577418926.010071,117.000000,0.000000,4181.538574,4348.205078,4197.436035,4144.615234,4183.589844,450.000000,4.000000,,,,0.000000,4.000000,4.000000,2.000000,4.000000,4.000000,,,,,,,,,,,,,,,,,,,,,,,,,,,,,,,,,,,,,,,,,,,,,,,,,,,,,,,,
1577418926.017873,118.000000,0.000000,4175.897461,4352.820313,4200.000000,4143.077148,4177.436035,450.000000,4.000000,,,,0.000000,4.000000,4.000000,2.000000,4.000000,4.000000,,,,,,,,,,,,,,,,,,,,,,,,,,,,,,,,,,,,,,,,,,,,,,,,,,,,,,,,
1577418926.025774,119.000000,0.000000,4177.436035,4359.487305,4207.692383,4143.589844,4184.615234,16229.000000,4.000000,,,,0.000000,4.000000,4.000000,2.000000,4.000000,4.000000,,,,,,,,,,,,,,,,,,,,,,,,,,,,,,,,,,,,,,,,,,,,,,,,,,,,,,,,
1577418926.033575,120.000000,0.000000,4176.410156,4348.205078,4202.563965,4136.410156,4185.128418,450.000000,4.000000,,,,0.000000,4.000000,4.000000,2.000000,4.000000,4.000000,,,,,,,,,,,,,,,,,,,,,,,,,,,,,,,,,,,,,,,,,,,,,,,,,,,,,,,,
1577418926.041376,121.000000,0.000000,4171.282227,4345.128418,4199.487305,4139.487305,4178.461426,450.000000,4.000000,,,,0.000000,4.000000,4.000000,2.000000,4.000000,4.000000,,,,,,,,,,,,,,,,,,,,,,,,,,,,,,,,179.217407,106.775787,70.846115,38.814316,34.132401,18.716345,19.892860,17.015100,13.287774,15.749435,18.044004,66.257813,98.942772,98.854080,490.218262,47.028454,28.253677,19.168987,12.279810,14.823452,144.485077,93.235275,60.035458,31.609797,16.078018
1577418926.049278,122.000000,0.000000,4174.358887,4358.461426,4197.948730,4160.512695,4180.512695,450.000000,4.000000,,,,0.000000,4.000000,4.000000,2.000000,4.000000,4.000000,,,,,,,,,,,,,,,,,,,,,,,,,,,,,,,,,,,,,,,,,,,,,,,,,,,,,,,,
1577418926.057179,123.000000,0.000000,4182.563965,4364.102539,4191.282227,4168.205078,4184.615234,16229.000000,4.000000,,,,0.000000,4.000000,4.000000,2.000000,4.000000,4.000000,,,,,,,,,,,,,,,,,,,,,,,,,,,,,,,,,,,,,,,,,,,,,,,,,,,,,,,,
1577418926.064980,124.000000,0.000000,4178.461426,4346.153809,4192.307617,4157.948730,4183.077148,450.000000,4.000000,,,,0.000000,4.000000,4.000000,2.000000,4.000000,4.000000,,,,,,,,,,,,,,,,,,,,,,,,,,,,,,,,,,,,,,,,,,,,,,,,,,,,,,,,
1577418926.072881,125.000000,0.000000,4173.846191,4322.563965,4181.538574,4148.717773,4180.512695,450.000000,4.000000,,,,0.000000,4.000000,4.000000,2.000000,4.000000,4.000000,,,,,,,,,,,,,,,,,,,,,,,,,,,,,,,,,,,,,,,,,,,,,,,,,,,,,,,,
1577418926.080783,126.000000,1.000000,4174.245117,4324.444336,4183.703613,4149.116699,4180.398926,435.000000,4.000000,,,,0.000000,4.000000,4.000000,2.000000,4.000000,4.000000,,,,,,,,,,,,,,,,,,,,,,,,,,,,,,,,,,,,,,,,,,,,,,,,,,,,,,,,
1577418926.088586,127.000000,1.000000,4174.644043,4326.324707,4185.869141,4149.515625,4180.284668,420.000000,4.000000,,,,0.000000,4.000000,4.000000,2.000000,4.000000,4.000000,,,,,,,,,,,,,,,,,,,,,,,,,,,,,,,,,,,,,,,,,,,,,,,,,,,,,,,,
1577418926.096388,0.000000,1.000000,4175.042969,4328.205078,4188.034180,4149.914551,4180.170898,450.000000,4.000000,,,,0.000000,4.000000,4.000000,2.000000,4.000000,4.000000,,,,,,,,,,,,,,,,,,,,,,,,,,,,,,,,,,,,,,,,,,,,,,,,,,,,,,,,
1577418926.104190,1.000000,1.000000,4175.441406,4330.085449,4190.199219,4150.313477,4180.057129,450.000000,4.000000,,,,0.000000,4.000000,4.000000,2.000000,4.000000,4.000000,,,,,,,,,,,,,,,,,,,,,,,,,,,,,,,,,,,,,,,,,,,,,,,,,,,,,,,,
1577418926.111992,2.000000,1.000000,4175.840332,4331.965820,4192.364746,4150.712402,4179.942871,16229.000000,4.000000,,,,0.000000,4.000000,4.000000,2.000000,4.000000,4.000000,,,,,,,,,,,,,,,,,,,,,,,,,,,,,,,,,,,,,,,,,,,,,,,,,,,,,,,,
1577418926.119795,3.000000,1.000000,4176.239258,4333.846191,4194.529785,4151.111328,4179.829102,450.000000,4.000000,,,,0.000000,4.000000,4.000000,2.000000,4.000000,4.000000,,,,,,,,,,,,,,,,,,,,,,,,,,,,,,,,,,,,,,,,,,,,,,,,,,,,,,,,
1577418926.127597,4.000000,1.000000,4176.638184,4335.726563,4196.695313,4151.509766,4179.715332,16220.000000,4.000000,,,,0.000000,4.000000,4.000000,2.000000,4.000000,4.000000,,,,,,,,,,,,,,,,,,,,,,,,,,,,,,,,,,,,,,,,,,,,,,,,,,,,,,,,
1577418926.135399,5.000000,1.000000,4177.037109,4337.606934,4198.860352,4151.908691,4179.601074,450.000000,4.000000,,,,0.000000,4.000000,4.000000,2.000000,4.000000,4.000000,,,,,,,,,,,,,,,,,,,,,,,,,,,,,,,,,,,,,,,,,,,,,,,,,,,,,,,,
1577418926.143201,6.000000,0.000000,4177.436035,4339.487305,4201.025879,4152.307617,4179.487305,315.000000,4.000000,,,,0.000000,4.000000,4.000000,2.000000,4.000000,4.000000,,,,,,,,,,,,,,,,,,,,,,,,,,,,,,,,,,,,,,,,,,,,,,,,,,,,,,,,
1577418926.150903,7.000000,0.000000,4154.871582,4332.820313,4199.487305,4144.102539,4158.974121,450.000000,4.000000,,,,0.000000,4.000000,4.000000,2.000000,4.000000,4.000000,,,,,,,,,,,,,,,,,,,,,,,,,,,,,,,,,,,,,,,,,,,,,,,,,,,,,,,,
1577418926.158704,8.000000,0.000000,4152.820313,4338.461426,4200.512695,4145.641113,4162.051270,450.000000,4.000000,,,,0.000000,4.000000,4.000000,2.000000,4.000000,4.000000,,,,,,,,,,,,,,,,,,,,,,,,,,,,,,,,,,,,,,,,,,,,,,,,,,,,,,,,
1577418926.166505,9.000000,0.000000,4171.282227,4347.179688,4223.589844,4166.153809,4186.666504,16178.000000,4.000000,,,,0.000000,4.000000,4.000000,2.000000,4.000000,4.000000,,,,,,,,,,,,,,,,,,,,,,,,,,,,,,,,109.357780,58.931515,38.125557,20.617722,17.875299,10.860778,11.215028,9.371422,7.259152,8.785808,9.100923,35.021713,51.890377,51.652798,258.143036,27.755116,15.518575,10.648373,6.812540,8.151156,84.210526,51.092606,32.317219,16.976206,8.566336
1577418926.174206,10.000000,0.000000,4174.871582,4346.666504,4212.820313,4169.743652,4190.769043,450.000000,4.000000,,,,0.000000,4.000000,4.000000,2.000000,4.000000,4.000000,,,,,,,,,,,,,,,,,,,,,,,,,,,,,,,,,,,,,,,,,,,,,,,,,,,,,,,,
1577418926.182006,11.000000,0.000000,4165.128418,4336.410156,4204.102539,4156.410156,4176.410156,16228.000000,4.000000,,,,0.000000,4.000000,4.000000,2.000000,4.000000,4.000000,,,,,,,,,,,,,,,,,,,,,,,,,,,,,,,,,,,,,,,,,,,,,,,,,,,,,,,,
1577418926.189707,12.000000,0.000000,4166.666504,4336.410156,4218.461426,4158.461426,4172.820313,450.000000,4.000000,,,,0.000000,4.000000,4.000000,2.000000,4.000000,4.000000,,,,,,,,,,,,,,,,,,,,,,,,,,,,,,,,,,,,,,,,,,,,,,,,,,,,,,,,
1577418926.197408,13.000000,0.000000,4169.743652,4352.820313,4217.436035,4160.000000,4175.897461,450.000000,4.000000,,,,0.000000,4.000000,4.000000,2.000000,4.000000,4.000000,,,,,,,,,,,,,,,,,,,,,,,,,,,,,,,,,,,,,,,,,,,,,,,,,,,,,,,,
1577418926.205210,14.000000,0.000000,4167.179688,4355.897461,4211.282227,4154.358887,4174.871582,450.000000,4.000000,,,,0.000000,4.000000,4.000000,2.000000,4.000000,4.000000,,,,,,,,,,,,,,,,,,,,,,,,,,,,,,,,,,,,,,,,,,,,,,,,,,,,,,,,
1577418926.212911,15.000000,0.000000,4171.794922,4336.922852,4201.025879,4158.974121,4175.384766,16228.000000,4.000000,,,,0.000000,4.000000,4.000000,2.000000,4.000000,4.000000,,,,,,,,,,,,,,,,,,,,,,,,,,,,,,,,,,,,,,,,,,,,,,,,,,,,,,,,
1577418926.220613,16.000000,0.000000,4171.794922,4336.410156,4206.153809,4166.666504,4174.358887,0.000000,4.000000,,,,0.000000,4.000000,4.000000,2.000000,4.000000,4.000000,,,,,,,,,,,,,,,,,,,,,,,,,,,,,,,,,,,,,,,,,,,,,,,,,,,,,,,,
1577418926.228515,17.000000,0.000000,4165.128418,4356.922852,4203.077148,4160.512695,4167.179688,0.000000,4.000000,,,,0.000000,4.000000,4.000000,2.000000,4.000000,4.000000,,,,,,,,,,,,,,,,,,,,,,,,,,,,,,,,,,,,,,,,,,,,,,,,,,,,,,,,
1577418926.236317,18.000000,0.000000,4163.589844,4356.410156,4184.102539,4149.743652,4163.589844,0.000000,4.000000,,,,0.000000,4.000000,4.000000,2.000000,4.000000,4.000000,,,,,,,,,,,,,,,,,,,,,,,,,,,,,,,,,,,,,,,,,,,,,,,,,,,,,,,,
1577418926.244119,19.000000,0.000000,4182.051270,4352.820313,4200.512695,4157.948730,4182.563965,0.000000,4.000000,,,,0.000000,4.000000,4.000000,2.000000,4.000000,4.000000,,,,,,,,,,,,,,,,,,,,,,,,,,,,,,,,,,,,,,,,,,,,,,,,,,,,,,,,
1577418926.251922,20.000000,0.000000,4201.025879,4352.307617,4208.205078,4165.641113,4197.436035,0.000000,4.000000,,,,0.000000,4.000000,4.000000,2.000000,4.000000,4.000000,,,,,,,,,,,,,,,,,,,,,,,,,,,,,,,,,,,,,,,,,,,,,,,,,,,,,,,,
1577418926.259823,21.000000,0.000000,4177.436035,4337.948730,4201.025879,4152.307617,4177.436035,0.000000,4.000000,,,,0.000000,4.000000,4.000000,2.000000,4.000000,4.000000,,,,,,,,,,,,,,,,,,,,,,,,,,,,,,,,,,,,,,,,,,,,,,,,,,,,,,,,
1577418926.267625,22.000000,0.000000,4154.871582,4335.897461,4200.000000,4136.922852,4162.563965,0.000000,4.000000,,,,0.000000,4.000000,4.000000,2.000000,4.000000,4.000000,,,,,,,,,,,,,,,,,,,,,,,,,,,,,,,,,,,,,,,,,,,,,,,,,,,,,,,,
1577418926.275527,23.000000,0.000000,4175.897461,4344.102539,4194.358887,4135.384766,4181.025879,0.000000,4.000000,,,,0.000000,4.000000,4.000000,2.000000,4.000000,4.000000,,,,,,,,,,,,,,,,,,,,,,,,,,,,,,,,,,,,,,,,,,,,,,,,,,,,,,,,
1577418926.283329,24.000000,0.000000,4200.512695,4347.179688,4208.717773,4148.717773,4209.743652,0.000000,4.000000,,,,0.000000,4.000000,4.000000,2.000000,4.000000,4.000000,,,,,,,,,,,,,,,,,,,,,,,,,,,,,,,,,,,,,,,,,,,,,,,,,,,,,,,,
1577418926.291230,25.000000,0.000000,4218.974121,4358.974121,4212.820313,4168.205078,4230.769043,0.000000,4.000000,,,,0.000000,4.000000,4.000000,2.000000,4.000000,4.000000,,,,,,,,,,,,,,,,,,,,,,,,,,,,,,,,59.538704,25.171850,15.515186,8.201945,6.947731,5.368723,5.202593,4.146347,3.172144,4.038750,3.551112,13.951231,20.118233,19.964159,99.826530,13.009709,6.687984,4.716779,2.965518,3.471835,40.079323,21.380663,13.135426,6.914182,3.494631
1577418926.299133,26.000000,1.000000,4218.233398,4357.208008,4217.606934,4166.381836,4229.060059,0.000000,4.000000,,,,0.000000,4.000000,4.000000,2.000000,4.000000,4.000000,,,,,,,,,,,,,,,,,,,,,,,,,,,,,,,,,,,,,,,,,,,,,,,,,,,,,,,,
1577418926.306936,27.000000,1.000000,4217.492676,4355.441406,4222.393066,4164.558594,4227.350586,0.000000,4.000000,,,,0.000000,4.000000,4.000000,2.000000,4.000000,4.000000,,,,,,,,,,,,,,,,,,,,,,,,,,,,,,,,,,,,,,,,,,,,,,,,,,,,,,,,
1577418926.314739,28.000000,1.000000,4216.751953,4353.675293,4227.179688,4162.734863,4225.641113,0.000000,4.000000,,,,0.000000,4.000000,4.000000,2.000000,4.000000,4.000000,,,,,,,,,,,,,,,,,,,,,,,,,,,,,,,,,,,,,,,,,,,,,,,,,,,,,,,,
1577418926.322542,29.000000,1.000000,4216.011230,4351.908691,4231.965820,4160.911621,4223.931641,0.000000,4.000000,,,,0.000000,4.000000,4.000000,2.000000,4.000000,4.000000,,,,,,,,,,,,,,,,,,,,,,,,,,,,,,,,,,,,,,,,,,,,,,,,,,,,,,,,
1577418926.330345,30.000000,1.000000,4215.270508,4350.142578,4236.751953,4159.088379,4222.222168,0.000000,4.000000,,,,0.000000,4.000000,4.000000,2.000000,4.000000,4.000000,,,,,,,,,,,,,,,,,,,,,,,,,,,,,,,,,,,,,,,,,,,,,,,,,,,,,,,,
1577418926.338148,31.000000,1.000000,4214.529785,4348.375977,4241.538574,4157.265137,4220.512695,0.000000,4.000000,,,,0.000000,4.000000,4.000000,2.000000,4.000000,4.000000,,,,,,,,,,,,,,,,,,,,,,,,,,,,,,,,,,,,,,,,,,,,,,,,,,,,,,,,
1577418926.345951,32.000000,1.000000,4213.789063,4346.609863,4246.324707,4155.441406,4218.803223,0.000000,4.000000,,,,0.000000,4.000000,4.000000,2.000000,4.000000,4.000000,,,,,,,,,,,,,,,,,,,,,,,,,,,,,,,,,,,,,,,,,,,,,,,,,,,,,,,,
1577418926.353754,33.000000,1.000000,4213.048340,4344.843262,4251.111328,4153.618164,4217.094238,0.000000,4.000000,,,,0.000000,4.000000,4.000000,2.000000,4.000000,4.000000,,,,,,,,,,,,,,,,,,,,,,,,,,,,,,,,,,,,,,,,,,,,,,,,,,,,,,,,
1577418926.361557,34.000000,0.000000,4212.307617,4343.077148,4255.897461,4151.794922,4215.384766,0.000000,4.000000,,,,0.000000,4.000000,4.000000,2.000000,4.000000,4.000000,,,,,,,,,,,,,,,,,,,,,,,,,,,,,,,,,,,,,,,,,,,,,,,,,,,,,,,,
1577418926.369458,35.000000,0.000000,4208.205078,4366.153809,4258.461426,4151.282227,4209.230957,0.000000,4.000000,,,,0.000000,4.000000,4.000000,2.000000,4.000000,4.000000,,,,,,,,,,,,,,,,,,,,,,,,,,,,,,,,,,,,,,,,,,,,,,,,,,,,,,,,
1577418926.377260,36.000000,0.000000,4207.179688,4350.769043,4265.128418,4158.461426,4218.461426,0.000000,4.000000,,,,0.000000,4.000000,4.000000,2.000000,4.000000,4.000000,,,,,,,,,,,,,,,,,,,,,,,,,,,,,,,,,,,,,,,,,,,,,,,,,,,,,,,,
1577418926.385062,37.000000,0.000000,4194.358887,4326.153809,4269.743652,4155.384766,4214.871582,0.000000,4.000000,,,,0.000000,4.000000,4.000000,2.000000,4.000000,4.000000,,,,,,,,,,,,,,,,,,,,,,,,,,,,,,,,,,,,,,,,,,,,,,,,,,,,,,,,
1577418926.392864,38.000000,0.000000,4193.846191,4346.666504,4250.769043,4150.769043,4202.051270,0.000000,4.000000,,,,0.000000,4.000000,4.000000,2.000000,4.000000,4.000000,,,,,,,,,,,,,,,,,,,,,,,,,,,,,,,,,,,,,,,,,,,,,,,,,,,,,,,,
1577418926.400666,39.000000,0.000000,4207.179688,4353.333496,4252.820313,4159.487305,4209.230957,0.000000,4.000000,,,,0.000000,4.000000,4.000000,2.000000,4.000000,4.000000,,,,,,,,,,,,,,,,,,,,,,,,,,,,,,,,,,,,,,,,,,,,,,,,,,,,,,,,
1577418926.408567,40.000000,0.000000,4211.282227,4340.000000,4261.538574,4165.641113,4219.487305,0.000000,4.000000,,,,0.000000,4.000000,4.000000,2.000000,4.000000,4.000000,,,,,,,,,,,,,,,,,,,,,,,,,,,,,,,,,,,,,,,,,,,,,,,,,,,,,,,,
1577418926.416368,41.000000,0.000000,4209.230957,4343.077148,4235.897461,4157.948730,4213.333496,0.000000,4.000000,,,,0.000000,4.000000,4.000000,2.000000,4.000000,4.000000,,,,,,,,,,,,,,,,,,,,,,,,,,,,,,,,31.560644,8.054721,4.343304,2.232955,1.782175,2.545038,2.292357,1.643674,1.231394,1.723726,1.230672,4.021702,4.877682,4.812996,23.397213,4.863038,2.320748,1.740411,1.047487,1.119066,15.619772,6.416874,3.655879,2.023146,1.076621
1577418926.424269,42.000000,0.000000,4215.384766,4344.615234,4241.025879,4160.512695,4212.307617,0.000000,4.000000,,,,0.000000,4.000000,4.000000,2.000000,4.000000,4.000000,,,,,,,,,,,,,,,,,,,,,,,,,,,,,,,,,,,,,,,,,,,,,,,,,,,,,,,,
1577418926.432172,43.000000,1.000000,4214.700684,4346.609863,4234.985840,4162.051270,4211.794922,0.000000,4.000000,,,,0.000000,4.000000,4.000000,2.000000,4.000000,4.000000,,,,,,,,,,,,,,,,,,,,,,,,,,,,,,,,,,,,,,,,,,,,,,,,,,,,,,,,
1577418926.439975,44.000000,1.000000,4214.017090,4348.604004,4228.945801,4163.589844,4211.282227,0.000000,4.000000,,,,0.000000,4.000000,4.000000,2.000000,4.000000,4.000000,,,,,,,,,,,,,,,,,,,,,,,,,,,,,,,,,,,,,,,,,,,,,,,,,,,,,,,,
1577418926.447777,45.000000,1.000000,4213.333496,4350.598145,4222.905762,4165.128418,4210.769043,0.000000,4.000000,,,,0.000000,4.000000,4.000000,2.000000,4.000000,4.000000,,,,,,,,,,,,,,,,,,,,,,,,,,,,,,,,,,,,,,,,,,,,,,,,,,,,,,,,
1577418926.455580,46.000000,1.000000,4212.649414,4352.592773,4216.866211,4166.666504,4210.256348,0.000000,4.000000,,,,0.000000,4.000000,4.000000,2.000000,4.000000,4.000000,,,,,,,,,,,,,,,,,,,,,,,,,,,,,,,,,,,,,,,,,,,,,,,,,,,,,,,,
1577418926.463383,47.000000,1.000000,4211.965820,4354.586914,4210.826172,4168.205078,4209.743652,0.000000,4.000000,,,,0.000000,4.000000,4.000000,2.000000,4.000000,4.000000,,,,,,,,,,,,,,,,,,,,,,,,,,,,,,,,,,,,,,,,,,,,,,,,,,,,,,,,
1577418926.471185,48.000000,1.000000,4211.282227,4356.581055,4204.786133,4169.743652,4209.230957,0.000000,4.000000,,,,0.000000,4.000000,4.000000,2.000000,4.000000,4.000000,,,,,,,,,,,,,,,,,,,,,,,,,,,,,,,,,,,,,,,,,,,,,,,,,,,,,,,,
1577418926.478988,49.000000,1.000000,4210.598145,4358.575684,4198.746582,4171.282227,4208.717773,0.000000,4.000000,,,,0.000000,4.000000,4.000000,2.000000,4.000000,4.000000,,,,,,,,,,,,,,,,,,,,,,,,,,,,,,,,,,,,,,,,,,,,,,,,,,,,,,,,
1577418926.486791,50.000000,1.000000,4209.914551,4360.569824,4192.706543,4172.820313,4208.205078,0.000000,4.000000,,,,0.000000,4.000000,4.000000,2.000000,4.000000,4.000000,,,,,,,,,,,,,,,,,,,,,,,,,,,,,,,,,,,,,,,,,,,,,,,,,,,,,,,,
1577418926.494594,51.000000,0.000000,4209.230957,4362.563965,4186.666504,4174.358887,4207.692383,0.000000,4.000000,,,,0.000000,4.000000,4.000000,2.000000,4.000000,4.000000,,,,,,,,,,,,,,,,,,,,,,,,,,,,,,,,,,,,,,,,,,,,,,,,,,,,,,,,
1577418926.502495,52.000000,0.000000,4223.077148,4381.538574,4184.615234,4181.025879,4224.615234,0.000000,4.000000,,,,0.000000,4.000000,4.000000,2.000000,4.000000,4.000000,,,,,,,,,,,,,,,,,,,,,,,,,,,,,,,,,,,,,,,,,,,,,,,,,,,,,,,,
1577418926.510297,53.000000,0.000000,4218.974121,4357.948730,4183.077148,4180.000000,4225.128418,0.000000,4.000000,,,,0.000000,4.000000,4.000000,2.000000,4.000000,4.000000,,,,,,,,,,,,,,,,,,,,,,,,,,,,,,,,,,,,,,,,,,,,,,,,,,,,,,,,
1577418926.518098,54.000000,0.000000,4222.051270,4338.974121,4179.487305,4174.871582,4221.025879,0.000000,4.000000,,,,0.000000,4.000000,4.000000,2.000000,4.000000,4.000000,,,,,,,,,,,,,,,,,,,,,,,,,,,,,,,,,,,,,,,,,,,,,,,,,,,,,,,,
1577418926.525900,55.000000,0.000000,4226.666504,4350.256348,4193.333496,4182.563965,4225.641113,0.000000,4.000000,,,,0.000000,4.000000,4.000000,2.000000,4.000000,4.000000,,,,,,,,,,,,,,,,,,,,,,,,,,,,,,,,,,,,,,,,,,,,,,,,,,,,,,,,
1577418926.533701,56.000000,0.000000,4212.307617,4356.922852,4184.615234,4176.922852,4218.974121,0.000000,4.000000,,,,0.000000,4.000000,4.000000,2.000000,4.000000,4.000000,,,,,,,,,,,,,,,,,,,,,,,,,,,,,,,,,,,,,,,,,,,,,,,,,,,,,,,,
1577418926.541402,57.000000,0.000000,4196.922852,4347.179688,4177.948730,4157.948730,4207.692383,0.000000,4.000000,,,,0.000000,4.000000,4.000000,2.000000,4.000000,4.000000,,,,,,,,,,,,,,,,,,,,,,,,,,,,,,,,19.492887,2.670907,1.006647,0.612860,0.394076,1.656164,1.536886,0.980608,0.731696,1.023631,0.764586,1.420397,0.603783,0.588560,2.072994,1.997175,1.044370,0.798545,0.516774,0.397938,6.203221,1.880578,0.796021,0.661276,0.406976
1577418926.549203,58.000000,0.000000,4197.436035,4341.538574,4183.589844,4157.948730,4211.282227,0.000000,4.000000,,,,0.000000,4.000000,4.000000,2.000000,4.000000,4.000000,,,,,,,,,,,,,,,,,,,,,,,,,,,,,,,,,,,,,,,,,,,,,,,,,,,,,,,,
1577418926.556905,59.000000,0.000000,4200.512695,4347.179688,4176.922852,4161.538574,4212.307617,0.000000,4.000000,,,,0.000000,4.000000,4.000000,2.000000,4.000000,4.000000,,,,,,,,,,,,,,,,,,,,,,,,,,,,,,,,,,,,,,,,,,,,,,,,,,,,,,,,
1577418926.564706,60.000000,0.000000,4197.948730,4353.333496,4189.230957,4158.461426,4201.025879,0.000000,4.000000,,,,0.000000,4.000000,4.000000,2.000000,4.000000,4.000000,,,,,,,,,,,,,,,,,,,,,,,,,,,,,,,,,,,,,,,,,,,,,,,,,,,,,,,,
1577418926.572408,61.000000,0.000000,4201.538574,4355.384766,4187.179688,4155.897461,4196.922852,0.000000,4.000000,,,,0.000000,4.000000,4.000000,2.000000,4.000000,4.000000,,,,,,,,,,,,,,,,,,,,,,,,,,,,,,,,,,,,,,,,,,,,,,,,,,,,,,,,
1577418926.580310,62.000000,0.000000,4200.512695,4343.589844,4180.512695,4156.922852,4200.000000,0.000000,4.000000,,,,0.000000,4.000000,4.000000,2.000000,4.000000,4.000000,,,,,,,,,,,,,,,,,,,,,,,,,,,,,,,,,,,,,,,,,,,,,,,,,,,,,,,,
1577418926.588112,63.000000,0.000000,4191.282227,4333.846191,4189.230957,4158.974121,4193.333496,0.000000,4.000000,,,,0.000000,4.000000,4.000000,2.000000,4.000000,4.000000,,,,,,,,,,,,,,,,,,,,,,,,,,,,,,,,,,,,,,,,,,,,,,,,,,,,,,,,
1577418926.595914,64.000000,0.000000,4188.717773,4338.974121,4181.538574,4155.897461,4184.615234,450.000000,4.000000,,,,0.000000,4.000000,4.000000,2.000000,4.000000,4.000000,,,,,,,,,,,,,,,,,,,,,,,,,,,,,,,,,,,,,,,,,,,,,,,,,,,,,,,,
1577418926.603815,65.000000,0.000000,4192.820313,4349.743652,4188.717773,4157.948730,4194.871582,450.000000,4.000000,,,,0.000000,4.000000,4.000000,2.000000,4.000000,4.000000,,,,,,,,,,,,,,,,,,,,,,,,,,,,,,,,,,,,,,,,,,,,,,,,,,,,,,,,
1577418926.611617,66.000000,0.000000,4201.538574,4346.153809,4196.922852,4165.641113,4208.717773,16235.000000,4.000000,,,,0.000000,4.000000,4.000000,2.000000,4.000000,4.000000,,,,,,,,,,,,,,,,,,,,,,,,,,,,,,,,,,,,,,,,,,,,,,,,,,,,,,,,
1577418926.619519,67.000000,0.000000,4207.179688,4340.512695,4194.871582,4167.692383,4209.743652,450.000000,4.000000,,,,0.000000,4.000000,4.000000,2.000000,4.000000,4.000000,,,,,,,,,,,,,,,,,,,,,,,,,,,,,,,,,,,,,,,,,,,,,,,,,,,,,,,,
1577418926.627321,68.000000,0.000000,4206.666504,4354.358887,4200.512695,4168.717773,4213.333496,16222.000000,4.000000,,,,0.000000,4.000000,4.000000,2.000000,4.000000,4.000000,,,,,,,,,,,,,,,,,,,,,,,,,,,,,,,,,,,,,,,,,,,,,,,,,,,,,,,,
1577418926.635222,69.000000,0.000000,4211.282227,4357.436035,4182.563965,4168.717773,4216.410156,450.000000,4.000000,,,,0.000000,4.000000,4.000000,4.000000,4.000000,4.000000,,,,,,,,,,,,,,,,,,,,,,,,,,,,,,,,,,,,,,,,,,,,,,,,,,,,,,,,
1577418926.643024,70.000000,0.000000,4211.282227,4346.153809,4175.384766,4167.692383,4214.358887,16058.000000,4.000000,,,,0.000000,4.000000,4.000000,4.000000,4.000000,4.000000,,,,,,,,,,,,,,,,,,,,,,,,,,,,,,,,,,,,,,,,,,,,,,,,,,,,,,,,
1577418926.650926,71.000000,1.000000,4210.370605,4345.413086,4176.011230,4165.812012,4212.877441,450.000000,4.000000,,,,0.000000,4.000000,4.000000,4.000000,4.000000,4.000000,,,,,,,,,,,,,,,,,,,,,,,,,,,,,,,,,,,,,,,,,,,,,,,,,,,,,,,,
1577418926.658727,72.000000,1.000000,4209.458496,4344.672363,4176.638184,4163.931641,4211.395996,450.000000,4.000000,,,,0.000000,4.000000,4.000000,4.000000,4.000000,4.000000,,,,,,,,,,,,,,,,,,,,,,,,,,,,,,,,,,,,,,,,,,,,,,,,,,,,,,,,
1577418926.666529,73.000000,1.000000,4208.546875,4343.931641,4177.265137,4162.051270,4209.914551,16178.000000,4.000000,,,,0.000000,4.000000,4.000000,4.000000,4.000000,4.000000,,,,,,,,,,,,,,,,,,,,,,,,,,,,,,,,13.638206,1.899442,0.552907,0.537254,0.286645,1.476195,1.569585,0.958171,0.737568,0.886074,1.026377,1.213965,0.226150,0.211857,0.332679,1.585776,0.969693,0.636748,0.526118,0.298797,3.859994,1.443129,0.396244,0.584741,0.335607
1577418926.674331,74.000000,1.000000,4207.635254,4343.190918,4177.891602,4160.170898,4208.433105,450.000000,4.000000,,,,0.000000,4.000000,4.000000,4.000000,4.000000,4.000000,,,,,,,,,,,,,,,,,,,,,,,,,,,,,,,,,,,,,,,,,,,,,,,,,,,,,,,,
1577418926.682133,75.000000,1.000000,4206.723633,4342.450195,4178.518555,4158.290527,4206.951660,16228.000000,4.000000,,,,0.000000,4.000000,4.000000,4.000000,4.000000,4.000000,,,,,,,,,,,,,,,,,,,,,,,,,,,,,,,,,,,,,,,,,,,,,,,,,,,,,,,,
1577418926.689935,76.000000,1.000000,4205.812012,4341.709473,4179.145508,4156.410156,4205.470215,450.000000,4.000000,,,,0.000000,4.000000,4.000000,4.000000,4.000000,4.000000,,,,,,,,,,,,,,,,,,,,,,,,,,,,,,,,,,,,,,,,,,,,,,,,,,,,,,,,
1577418926.697736,77.000000,1.000000,4204.900391,4340.968750,4179.771973,4154.529785,4203.988770,450.000000,4.000000,,,,0.000000,4.000000,4.000000,4.000000,4.000000,4.000000,,,,,,,,,,,,,,,,,,,,,,,,,,,,,,,,,,,,,,,,,,,,,,,,,,,,,,,,
1577418926.705538,78.000000,1.000000,4203.988770,4340.228027,4180.398926,4152.649414,4202.507324,450.000000,4.000000,,,,0.000000,4.000000,4.000000,4.000000,4.000000,4.000000,,,,,,,,,,,,,,,,,,,,,,,,,,,,,,,,,,,,,,,,,,,,,,,,,,,,,,,,
1577418926.713340,79.000000,0.000000,4203.077148,4339.487305,4181.025879,4150.769043,4201.025879,16226.000000,4.000000,,,,0.000000,4.000000,4.000000,4.000000,4.000000,4.000000,,,,,,,,,,,,,,,,,,,,,,,,,,,,,,,,,,,,,,,,,,,,,,,,,,,,,,,,
1577418926.721041,80.000000,0.000000,4210.256348,4332.820313,4175.897461,4150.769043,4203.589844,450.000000,4.000000,,,,0.000000,4.000000,4.000000,4.000000,4.000000,4.000000,,,,,,,,,,,,,,,,,,,,,,,,,,,,,,,,,,,,,,,,,,,,,,,,,,,,,,,,
1577418926.728943,81.000000,0.000000,4210.769043,4333.333496,4177.948730,4149.230957,4207.179688,450.000000,4.000000,,,,0.000000,4.000000,4.000000,4.000000,4.000000,4.000000,,,,,,,,,,,,,,,,,,,,,,,,,,,,,,,,,,,,,,,,,,,,,,,,,,,,,,,,
1577418926.736745,82.000000,0.000000,4217.948730,4358.461426,4178.974121,4152.307617,4216.922852,450.000000,4.000000,,,,0.000000,4.000000,4.000000,4.000000,4.000000,4.000000,,,,,,,,,,,,,,,,,,,,,,,,,,,,,,,,,,,,,,,,,,,,,,,,,,,,,,,,
1577418926.744547,83.000000,0.000000,4217.948730,4360.000000,4197.436035,4157.436035,4220.000000,16226.000000,4.000000,,,,0.000000,4.000000,4.000000,4.000000,4.000000,4.000000,,,,,,,,,,,,,,,,,,,,,,,,,,,,,,,,,,,,,,,,,,,,,,,,,,,,,,,,
1577418926.752448,84.000000,0.000000,4211.282227,4334.871582,4190.769043,4153.333496,4211.282227,450.000000,4.000000,,,,0.000000,4.000000,4.000000,4.000000,4.000000,4.000000,,,,,,,,,,,,,,,,,,,,,,,,,,,,,,,,,,,,,,,,,,,,,,,,,,,,,,,,
1577418926.760250,85.000000,0.000000,4215.384766,4347.692383,4177.948730,4146.153809,4205.641113,450.000000,4.000000,,,,0.000000,4.000000,4.000000,4.000000,4.000000,4.000000,,,,,,,,,,,,,,,,,,,,,,,,,,,,,,,,,,,,,,,,,,,,,,,,,,,,,,,,
1577418926.768151,86.000000,0.000000,4218.974121,4375.384766,4186.666504,4146.666504,4207.692383,450.000000,4.000000,,,,0.000000,4.000000,4.000000,4.000000,4.000000,4.000000,,,,,,,,,,,,,,,,,,,,,,,,,,,,,,,,,,,,,,,,,,,,,,,,,,,,,,,,
1577418926.775953,87.000000,0.000000,4203.589844,4353.846191,4177.948730,4144.102539,4192.820313,16226.000000,4.000000,,,,0.000000,4.000000,4.000000,4.000000,4.000000,4.000000,,,,,,,,,,,,,,,,,,,,,,,,,,,,,,,,,,,,,,,,,,,,,,,,,,,,,,,,
1577418926.783754,88.000000,0.000000,4181.025879,4321.025879,4168.205078,4139.487305,4170.769043,450.000000,4.000000,,,,0.000000,4.000000,4.000000,4.000000,4.000000,4.000000,,,,,,,,,,,,,,,,,,,,,,,,,,,,,,,,,,,,,,,,,,,,,,,,,,,,,,,,
1577418926.791656,89.000000,1.000000,4180.284668,4322.165039,4168.375977,4139.942871,4170.085449,450.000000,4.000000,,,,0.000000,4.000000,4.000000,4.000000,4.000000,4.000000,,,,,,,,,,,,,,,,,,,,,,,,,,,,,,,,9.547703,1.724518,0.440195,0.605235,0.290635,1.370332,1.633849,0.964843,0.784319,0.807315,1.854109,1.138512,0.213815,0.178051,0.284311,1.540314,1.054274,0.582473,0.581862,0.270869,3.363758,1.572536,0.321229,0.638330,0.319738
1577418926.799459,90.000000,1.000000,4179.543945,4323.304688,4168.546875,4140.398926,4169.401855,450.000000,4.000000,,,,0.000000,4.000000,4.000000,4.000000,4.000000,4.000000,,,,,,,,,,,,,,,,,,,,,,,,,,,,,,,,,,,,,,,,,,,,,,,,,,,,,,,,
1577418926.807261,91.000000,1.000000,4178.803223,4324.444336,4168.717773,4140.854492,4168.717773,450.000000,4.000000,,,,0.000000,4.000000,4.000000,4.000000,4.000000,4.000000,,,,,,,,,,,,,,,,,,,,,,,,,,,,,,,,,,,,,,,,,,,,,,,,,,,,,,,,
1577418926.815063,92.000000,1.000000,4178.062500,4325.583984,4168.888672,4141.310547,4168.034180,450.000000,4.000000,,,,0.000000,4.000000,4.000000,4.000000,4.000000,4.000000,,,,,,,,,,,,,,,,,,,,,,,,,,,,,,,,,,,,,,,,,,,,,,,,,,,,,,,,
1577418926.822865,93.000000,1.000000,4177.321777,4326.723633,4169.060059,4141.766602,4167.350586,450.000000,4.000000,,,,0.000000,4.000000,4.000000,4.000000,4.000000,4.000000,,,,,,,,,,,,,,,,,,,,,,,,,,,,,,,,,,,,,,,,,,,,,,,,,,,,,,,,
1577418926.830668,94.000000,1.000000,4176.581055,4327.863281,4169.230957,4142.222168,4166.666504,450.000000,4.000000,,,,0.000000,4.000000,4.000000,4.000000,4.000000,4.000000,,,,,,,,,,,,,,,,,,,,,,,,,,,,,,,,,,,,,,,,,,,,,,,,,,,,,,,,
1577418926.838470,95.000000,1.000000,4175.840332,4329.002930,4169.401855,4142.678223,4165.982910,450.000000,4.000000,,,,0.000000,4.000000,4.000000,4.000000,4.000000,4.000000,,,,,,,,,,,,,,,,,,,,,,,,,,,,,,,,,,,,,,,,,,,,,,,,,,,,,,,,
1577418926.846272,96.000000,1.000000,4175.099609,4330.142578,4169.572754,4143.133789,4165.299316,450.000000,4.000000,,,,0.000000,4.000000,4.000000,4.000000,4.000000,4.000000,,,,,,,,,,,,,,,,,,,,,,,,,,,,,,,,,,,,,,,,,,,,,,,,,,,,,,,,
1577418926.854074,97.000000,0.000000,4174.358887,4331.282227,4169.743652,4143.589844,4164.615234,450.000000,4.000000,,,,0.000000,4.000000,4.000000,4.000000,4.000000,4.000000,,,,,,,,,,,,,,,,,,,,,,,,,,,,,,,,,,,,,,,,,,,,,,,,,,,,,,,,
1577418926.861975,98.000000,0.000000,4172.820313,4360.512695,4162.563965,4138.974121,4157.948730,450.000000,4.000000,,,,0.000000,4.000000,4.000000,4.000000,4.000000,4.000000,,,,,,,,,,,,,,,,,,,,,,,,,,,,,,,,,,,,,,,,,,,,,,,,,,,,,,,,
1577418926.869777,99.000000,0.000000,4183.589844,4368.717773,4174.871582,4147.692383,4172.307617,16226.000000,4.000000,,,,0.000000,4.000000,4.000000,4.000000,4.000000,4.000000,,,,,,,,,,,,,,,,,,,,,,,,,,,,,,,,,,,,,,,,,,,,,,,,,,,,,,,,
