title:calm_5, start timestamp:2019-12-27T06:56:06.339593+03:00, stop timestamp:2019-12-27T06:56:37.294165+03:00, headset type:INSIGHT, headset serial:A2D200FB, headset firmware:930, subject name:Qasim, channels:75, sampling rate:eeg_128;pm_0.1;pow_8, samples:3487      , version:2.0
Timestamp,EEG.Counter,EEG.Interpolated,EEG.AF3,EEG.T7,EEG.Pz,EEG.T8,EEG.AF4,EEG.RawCq,EEG.Battery,MarkerIndex,MarkerType,MarkerValueInt,EEG.MarkerHardware,CQ.AF3,CQ.T7,CQ.Pz,CQ.T8,CQ.AF4,PM.Engagement.IsActive,PM.Engagement.Scaled,PM.Engagement.Raw,PM.Engagement.Min,PM.Engagement.Max,PM.Excitement.IsActive,PM.Excitement.Scaled,PM.Excitement.Raw,PM.Excitement.Min,PM.Excitement.Max,PM.LongTermExcitement,PM.Stress.IsActive,PM.Stress.Scaled,PM.Stress.Raw,PM.Stress.Min,PM.Stress.Max,PM.Relaxation.IsActive,PM.Relaxation.Scaled,PM.Relaxation.Raw,PM.Relaxation.Min,PM.Relaxation.Max,PM.Interest.IsActive,PM.Interest.Scaled,PM.Interest.Raw,PM.Interest.Min,PM.Interest.Max,PM.Focus.IsActive,PM.Focus.Scaled,PM.Focus.Raw,PM.Focus.Min,PM.Focus.Max,POW.AF3.Theta,POW.AF3.Alpha,POW.AF3.BetaL,POW.AF3.BetaH,POW.AF3.Gamma,POW.T7.Theta,POW.T7.Alpha,POW.T7.BetaL,POW.T7.BetaH,POW.T7.Gamma,POW.Pz.Theta,POW.Pz.Alpha,POW.Pz.BetaL,POW.Pz.BetaH,POW.Pz.Gamma,POW.T8.Theta,POW.T8.Alpha,POW.T8.BetaL,POW.T8.BetaH,POW.T8.Gamma,POW.AF4.Theta,POW.AF4.Alpha,POW.AF4.BetaL,POW.AF4.BetaH,POW.AF4.Gamma
1577418966.339593,41.000000,0.000000,4285.128418,4367.179688,4137.436035,4146.153809,4211.794922,0.000000,4.000000,,,,0.000000,4.000000,4.000000,0.000000,4.000000,4.000000,,,,,,,,,,,,,,,,,,,,,,,,,,,,,,,,5.530936,2.981025,0.845963,1.531021,0.660599,1.677958,0.265220,0.927571,1.707490,1.805336,5.241162,2.821627,3.486701,83.497879,35.582550,2.167895,1.445613,1.032637,0.837341,0.826807,7.383933,1.947859,1.573747,1.066830,0.701839
1577418966.347294,42.000000,0.000000,4283.589844,4384.615234,4223.077148,4157.948730,4210.256348,0.000000,4.000000,,,,0.000000,4.000000,4.000000,0.000000,4.000000,4.000000,,,,,,,,,,,,,,,,,,,,,,,,,,,,,,,,,,,,,,,,,,,,,,,,,,,,,,,,
1577418966.355095,43.000000,0.000000,4276.922852,4359.487305,4240.512695,4152.820313,4209.743652,0.000000,4.000000,,,,0.000000,4.000000,4.000000,0.000000,4.000000,4.000000,,,,,,,,,,,,,,,,,,,,,,,,,,,,,,,,,,,,,,,,,,,,,,,,,,,,,,,,
1577418966.362796,44.000000,0.000000,4262.563965,4337.948730,4191.282227,4131.282227,4194.358887,0.000000,4.000000,,,,0.000000,4.000000,4.000000,0.000000,4.000000,4.000000,,,,,,,,,,,,,,,,,,,,,,,,,,,,,,,,,,,,,,,,,,,,,,,,,,,,,,,,
1577418966.370597,45.000000,0.000000,4249.743652,4367.692383,4180.000000,4133.333496,4180.512695,0.000000,4.000000,,,,0.000000,4.000000,4.000000,0.000000,4.000000,4.000000,,,,,,,,,,,,,,,,,,,,,,,,,,,,,,,,,,,,,,,,,,,,,,,,,,,,,,,,
1577418966.378298,46.000000,0.000000,4263.589844,4384.615234,4154.358887,4143.077148,4193.333496,0.000000,4.000000,,,,0.000000,4.000000,4.000000,0.000000,4.000000,4.000000,,,,,,,,,,,,,,,,,,,,,,,,,,,,,,,,,,,,,,,,,,,,,,,,,,,,,,,,
1577418966.386199,47.000000,0.000000,4261.025879,4347.692383,4156.410156,4153.333496,4193.333496,0.000000,4.000000,,,,0.000000,4.000000,4.000000,0.000000,4.000000,4.000000,,,,,,,,,,,,,,,,,,,,,,,,,,,,,,,,,,,,,,,,,,,,,,,,,,,,,,,,
1577418966.393999,48.000000,0.000000,4250.256348,4345.641113,4154.871582,4152.307617,4184.102539,0.000000,4.000000,,,,0.000000,4.000000,4.000000,0.000000,4.000000,4.000000,,,,,,,,,,,,,,,,,,,,,,,,,,,,,,,,,,,,,,,,,,,,,,,,,,,,,,,,
1577418966.401900,49.000000,0.000000,4241.538574,4366.153809,4182.563965,4130.769043,4181.025879,0.000000,4.000000,,,,0.000000,4.000000,4.000000,0.000000,4.000000,4.000000,,,,,,,,,,,,,,,,,,,,,,,,,,,,,,,,,,,,,,,,,,,,,,,,,,,,,,,,
1577418966.409701,50.000000,0.000000,4226.666504,4350.769043,4293.333496,4132.820313,4170.769043,0.000000,4.000000,,,,0.000000,4.000000,4.000000,0.000000,4.000000,4.000000,,,,,,,,,,,,,,,,,,,,,,,,,,,,,,,,,,,,,,,,,,,,,,,,,,,,,,,,
1577418966.417602,51.000000,0.000000,4234.871582,4344.615234,4289.743652,4149.743652,4169.743652,0.000000,4.000000,,,,0.000000,4.000000,4.000000,0.000000,4.000000,4.000000,,,,,,,,,,,,,,,,,,,,,,,,,,,,,,,,,,,,,,,,,,,,,,,,,,,,,,,,
1577418966.425402,52.000000,0.000000,4243.077148,4347.179688,4222.563965,4158.974121,4176.410156,0.000000,4.000000,,,,0.000000,4.000000,4.000000,0.000000,4.000000,4.000000,,,,,,,,,,,,,,,,,,,,,,,,,,,,,,,,,,,,,,,,,,,,,,,,,,,,,,,,
1577418966.433303,53.000000,0.000000,4236.410156,4336.410156,4150.256348,4151.794922,4181.025879,0.000000,4.000000,,,,0.000000,4.000000,4.000000,0.000000,4.000000,4.000000,,,,,,,,,,,,,,,,,,,,,,,,,,,,,,,,,,,,,,,,,,,,,,,,,,,,,,,,
1577418966.441104,54.000000,0.000000,4228.717773,4334.358887,4135.384766,4133.333496,4179.487305,0.000000,4.000000,,,,0.000000,4.000000,4.000000,0.000000,4.000000,4.000000,,,,,,,,,,,,,,,,,,,,,,,,,,,,,,,,,,,,,,,,,,,,,,,,,,,,,,,,
1577418966.449005,55.000000,0.000000,4227.179688,4348.205078,4271.794922,4148.717773,4173.846191,0.000000,4.000000,,,,0.000000,4.000000,4.000000,0.000000,4.000000,4.000000,,,,,,,,,,,,,,,,,,,,,,,,,,,,,,,,,,,,,,,,,,,,,,,,,,,,,,,,
1577418966.456806,56.000000,0.000000,4234.871582,4356.922852,4288.717773,4170.769043,4177.948730,0.000000,4.000000,,,,0.000000,4.000000,4.000000,0.000000,4.000000,4.000000,,,,,,,,,,,,,,,,,,,,,,,,,,,,,,,,,,,,,,,,,,,,,,,,,,,,,,,,
1577418966.464706,57.000000,0.000000,4221.025879,4340.000000,4181.025879,4165.128418,4171.794922,0.000000,4.000000,,,,0.000000,4.000000,4.000000,0.000000,4.000000,4.000000,,,,,,,,,,,,,,,,,,,,,,,,,,,,,,,,6.125272,3.128433,0.814655,1.509737,0.673218,1.852334,0.367358,0.904512,1.756574,1.678657,5.301757,3.134420,3.341359,83.753578,34.901012,2.685927,1.615399,1.194541,0.792189,0.819846,8.136075,1.687783,1.427432,0.951870,0.759095
1577418966.472507,58.000000,0.000000,4209.743652,4335.897461,4093.846191,4153.846191,4150.769043,0.000000,4.000000,,,,0.000000,4.000000,4.000000,0.000000,4.000000,4.000000,,,,,,,,,,,,,,,,,,,,,,,,,,,,,,,,,,,,,,,,,,,,,,,,,,,,,,,,
1577418966.480208,59.000000,0.000000,4205.641113,4339.487305,4108.205078,4132.820313,4136.922852,0.000000,4.000000,,,,0.000000,4.000000,4.000000,0.000000,4.000000,4.000000,,,,,,,,,,,,,,,,,,,,,,,,,,,,,,,,,,,,,,,,,,,,,,,,,,,,,,,,
1577418966.488009,60.000000,0.000000,4186.666504,4331.282227,4257.436035,4125.128418,4124.102539,0.000000,4.000000,,,,0.000000,4.000000,4.000000,0.000000,4.000000,4.000000,,,,,,,,,,,,,,,,,,,,,,,,,,,,,,,,,,,,,,,,,,,,,,,,,,,,,,,,
1577418966.495710,61.000000,0.000000,4196.410156,4347.179688,4288.205078,4126.666504,4119.487305,0.000000,4.000000,,,,0.000000,4.000000,4.000000,0.000000,4.000000,4.000000,,,,,,,,,,,,,,,,,,,,,,,,,,,,,,,,,,,,,,,,,,,,,,,,,,,,,,,,
1577418966.503511,62.000000,0.000000,4198.974121,4343.077148,4161.538574,4115.897461,4110.769043,0.000000,4.000000,,,,0.000000,4.000000,4.000000,0.000000,4.000000,4.000000,,,,,,,,,,,,,,,,,,,,,,,,,,,,,,,,,,,,,,,,,,,,,,,,,,,,,,,,
1577418966.511211,63.000000,0.000000,4189.743652,4313.333496,4071.794922,4119.487305,4095.384521,0.000000,4.000000,,,,0.000000,4.000000,4.000000,0.000000,4.000000,4.000000,,,,,,,,,,,,,,,,,,,,,,,,,,,,,,,,,,,,,,,,,,,,,,,,,,,,,,,,
1577418966.519112,64.000000,0.000000,4204.615234,4332.820313,4115.384766,4125.128418,4111.282227,450.000000,4.000000,,,,0.000000,4.000000,4.000000,0.000000,4.000000,4.000000,,,,,,,,,,,,,,,,,,,,,,,,,,,,,,,,,,,,,,,,,,,,,,,,,,,,,,,,
1577418966.526913,65.000000,0.000000,4193.333496,4352.307617,4249.743652,4129.743652,4122.563965,450.000000,4.000000,,,,0.000000,4.000000,4.000000,0.000000,4.000000,4.000000,,,,,,,,,,,,,,,,,,,,,,,,,,,,,,,,,,,,,,,,,,,,,,,,,,,,,,,,
1577418966.534714,66.000000,0.000000,4177.948730,4326.153809,4260.000000,4133.333496,4105.128418,16252.000000,4.000000,,,,0.000000,4.000000,4.000000,0.000000,4.000000,4.000000,,,,,,,,,,,,,,,,,,,,,,,,,,,,,,,,,,,,,,,,,,,,,,,,,,,,,,,,
1577418966.542415,67.000000,0.000000,4184.615234,4311.794922,4166.666504,4123.077148,4099.487305,450.000000,4.000000,,,,0.000000,4.000000,4.000000,0.000000,4.000000,4.000000,,,,,,,,,,,,,,,,,,,,,,,,,,,,,,,,,,,,,,,,,,,,,,,,,,,,,,,,
1577418966.550315,68.000000,0.000000,4188.205078,4327.692383,4171.282227,4127.692383,4109.230957,16195.000000,4.000000,,,,0.000000,4.000000,4.000000,0.000000,4.000000,4.000000,,,,,,,,,,,,,,,,,,,,,,,,,,,,,,,,,,,,,,,,,,,,,,,,,,,,,,,,
1577418966.558116,69.000000,0.000000,4199.487305,4335.897461,4181.538574,4136.922852,4122.563965,450.000000,4.000000,,,,0.000000,4.000000,4.000000,0.000000,4.000000,4.000000,,,,,,,,,,,,,,,,,,,,,,,,,,,,,,,,,,,,,,,,,,,,,,,,,,,,,,,,
1577418966.566017,70.000000,0.000000,4189.230957,4329.743652,4144.615234,4139.487305,4125.641113,47.000000,4.000000,,,,0.000000,4.000000,4.000000,0.000000,4.000000,4.000000,,,,,,,,,,,,,,,,,,,,,,,,,,,,,,,,,,,,,,,,,,,,,,,,,,,,,,,,
1577418966.573818,71.000000,0.000000,4171.794922,4337.436035,4107.179688,4138.461426,4110.256348,450.000000,4.000000,,,,0.000000,4.000000,4.000000,0.000000,4.000000,4.000000,,,,,,,,,,,,,,,,,,,,,,,,,,,,,,,,,,,,,,,,,,,,,,,,,,,,,,,,
1577418966.581718,72.000000,0.000000,4174.358887,4338.461426,4149.230957,4120.512695,4104.615234,450.000000,4.000000,,,,0.000000,4.000000,4.000000,0.000000,4.000000,4.000000,,,,,,,,,,,,,,,,,,,,,,,,,,,,,,,,,,,,,,,,,,,,,,,,,,,,,,,,
1577418966.589519,73.000000,0.000000,4163.589844,4325.128418,4287.179688,4113.333496,4115.897461,16156.000000,4.000000,,,,0.000000,4.000000,4.000000,0.000000,4.000000,4.000000,,,,,,,,,,,,,,,,,,,,,,,,,,,,,,,,6.024138,3.050602,0.773578,1.383687,0.648137,2.060772,0.491953,0.858299,1.713870,1.532961,5.266686,3.315954,3.425444,83.910789,34.627724,3.087113,1.808728,1.277907,0.740379,0.779437,8.033396,1.589479,1.188586,0.849557,0.777057
1577418966.597320,74.000000,0.000000,4158.974121,4314.871582,4289.743652,4103.589844,4122.563965,450.000000,4.000000,,,,0.000000,4.000000,4.000000,0.000000,4.000000,4.000000,,,,,,,,,,,,,,,,,,,,,,,,,,,,,,,,,,,,,,,,,,,,,,,,,,,,,,,,
1577418966.605021,75.000000,0.000000,4170.769043,4303.077148,4179.487305,4088.205078,4124.102539,16241.000000,4.000000,,,,0.000000,4.000000,4.000000,0.000000,4.000000,4.000000,,,,,,,,,,,,,,,,,,,,,,,,,,,,,,,,,,,,,,,,,,,,,,,,,,,,,,,,
1577418966.612922,76.000000,0.000000,4183.589844,4330.256348,4088.205078,4105.128418,4135.384766,450.000000,4.000000,,,,0.000000,4.000000,4.000000,0.000000,4.000000,4.000000,,,,,,,,,,,,,,,,,,,,,,,,,,,,,,,,,,,,,,,,,,,,,,,,,,,,,,,,
1577418966.620722,77.000000,0.000000,4189.230957,4352.820313,4116.410156,4108.205078,4137.948730,450.000000,4.000000,,,,0.000000,4.000000,4.000000,0.000000,4.000000,4.000000,,,,,,,,,,,,,,,,,,,,,,,,,,,,,,,,,,,,,,,,,,,,,,,,,,,,,,,,
1577418966.628623,78.000000,0.000000,4172.820313,4326.666504,4310.256348,4104.615234,4128.717773,450.000000,4.000000,,,,0.000000,4.000000,4.000000,0.000000,4.000000,4.000000,,,,,,,,,,,,,,,,,,,,,,,,,,,,,,,,,,,,,,,,,,,,,,,,,,,,,,,,
1577418966.636424,79.000000,0.000000,4178.461426,4324.615234,4333.846191,4124.102539,4147.179688,16241.000000,4.000000,,,,0.000000,4.000000,4.000000,0.000000,4.000000,4.000000,,,,,,,,,,,,,,,,,,,,,,,,,,,,,,,,,,,,,,,,,,,,,,,,,,,,,,,,
1577418966.644325,80.000000,0.000000,4196.410156,4329.230957,4146.153809,4125.641113,4171.794922,450.000000,4.000000,,,,0.000000,4.000000,4.000000,0.000000,4.000000,4.000000,,,,,,,,,,,,,,,,,,,,,,,,,,,,,,,,,,,,,,,,,,,,,,,,,,,,,,,,
1577418966.652125,81.000000,0.000000,4192.820313,4318.461426,4054.358887,4112.307617,4166.153809,450.000000,4.000000,,,,0.000000,4.000000,4.000000,0.000000,4.000000,4.000000,,,,,,,,,,,,,,,,,,,,,,,,,,,,,,,,,,,,,,,,,,,,,,,,,,,,,,,,
1577418966.660026,82.000000,0.000000,4202.051270,4339.487305,4138.974121,4110.769043,4153.846191,450.000000,4.000000,,,,0.000000,4.000000,4.000000,0.000000,4.000000,4.000000,,,,,,,,,,,,,,,,,,,,,,,,,,,,,,,,,,,,,,,,,,,,,,,,,,,,,,,,
1577418966.667827,83.000000,0.000000,4200.000000,4355.897461,4255.897461,4121.025879,4154.871582,16241.000000,4.000000,,,,0.000000,4.000000,4.000000,0.000000,4.000000,4.000000,,,,,,,,,,,,,,,,,,,,,,,,,,,,,,,,,,,,,,,,,,,,,,,,,,,,,,,,
1577418966.675728,84.000000,0.000000,4190.256348,4334.358887,4231.794922,4123.077148,4160.512695,450.000000,4.000000,,,,0.000000,4.000000,4.000000,0.000000,4.000000,4.000000,,,,,,,,,,,,,,,,,,,,,,,,,,,,,,,,,,,,,,,,,,,,,,,,,,,,,,,,
1577418966.683528,85.000000,0.000000,4198.461426,4312.820313,4185.128418,4117.436035,4166.153809,450.000000,4.000000,,,,0.000000,4.000000,4.000000,0.000000,4.000000,4.000000,,,,,,,,,,,,,,,,,,,,,,,,,,,,,,,,,,,,,,,,,,,,,,,,,,,,,,,,
1577418966.691229,86.000000,0.000000,4193.846191,4320.512695,4188.205078,4112.820313,4174.358887,450.000000,4.000000,,,,0.000000,4.000000,4.000000,0.000000,4.000000,4.000000,,,,,,,,,,,,,,,,,,,,,,,,,,,,,,,,,,,,,,,,,,,,,,,,,,,,,,,,
1577418966.699030,87.000000,0.000000,4195.384766,4333.333496,4154.358887,4088.718018,4174.871582,16241.000000,4.000000,,,,0.000000,4.000000,4.000000,0.000000,4.000000,4.000000,,,,,,,,,,,,,,,,,,,,,,,,,,,,,,,,,,,,,,,,,,,,,,,,,,,,,,,,
1577418966.706731,88.000000,0.000000,4216.922852,4327.692383,4184.615234,4085.128174,4169.743652,450.000000,4.000000,,,,0.000000,4.000000,4.000000,0.000000,4.000000,4.000000,,,,,,,,,,,,,,,,,,,,,,,,,,,,,,,,,,,,,,,,,,,,,,,,,,,,,,,,
1577418966.714532,89.000000,0.000000,4235.384766,4332.820313,4197.436035,4109.743652,4178.974121,450.000000,4.000000,,,,0.000000,4.000000,4.000000,0.000000,4.000000,4.000000,,,,,,,,,,,,,,,,,,,,,,,,,,,,,,,,5.284872,2.764921,0.725124,1.198815,0.597535,2.238977,0.620833,0.820419,1.622895,1.402550,5.071578,3.344949,3.709320,83.964104,34.548332,3.212003,1.930479,1.244001,0.690866,0.732679,7.080026,1.626887,0.953830,0.794821,0.758683
1577418966.722233,90.000000,0.000000,4229.743652,4334.358887,4175.384766,4101.025879,4182.051270,450.000000,4.000000,,,,0.000000,4.000000,4.000000,0.000000,4.000000,4.000000,,,,,,,,,,,,,,,,,,,,,,,,,,,,,,,,,,,,,,,,,,,,,,,,,,,,,,,,
1577418966.730034,91.000000,0.000000,4213.333496,4316.410156,4282.563965,4090.769287,4177.436035,16241.000000,4.000000,,,,0.000000,4.000000,4.000000,0.000000,4.000000,4.000000,,,,,,,,,,,,,,,,,,,,,,,,,,,,,,,,,,,,,,,,,,,,,,,,,,,,,,,,
1577418966.737735,92.000000,0.000000,4222.051270,4327.179688,4296.410156,4091.794922,4187.692383,450.000000,4.000000,,,,0.000000,4.000000,4.000000,0.000000,4.000000,4.000000,,,,,,,,,,,,,,,,,,,,,,,,,,,,,,,,,,,,,,,,,,,,,,,,,,,,,,,,
1577418966.745535,93.000000,0.000000,4228.717773,4348.205078,4169.743652,4078.461426,4189.743652,450.000000,4.000000,,,,0.000000,4.000000,4.000000,0.000000,4.000000,4.000000,,,,,,,,,,,,,,,,,,,,,,,,,,,,,,,,,,,,,,,,,,,,,,,,,,,,,,,,
1577418966.753236,94.000000,0.000000,4228.717773,4355.384766,4072.820557,4082.564209,4187.692383,450.000000,4.000000,,,,0.000000,4.000000,4.000000,0.000000,4.000000,4.000000,,,,,,,,,,,,,,,,,,,,,,,,,,,,,,,,,,,,,,,,,,,,,,,,,,,,,,,,
1577418966.761037,95.000000,0.000000,4238.461426,4356.922852,4147.179688,4102.051270,4195.897461,16241.000000,4.000000,,,,0.000000,4.000000,4.000000,0.000000,4.000000,4.000000,,,,,,,,,,,,,,,,,,,,,,,,,,,,,,,,,,,,,,,,,,,,,,,,,,,,,,,,
1577418966.768738,96.000000,0.000000,4222.051270,4327.179688,4336.922852,4114.358887,4184.615234,450.000000,4.000000,,,,0.000000,4.000000,4.000000,0.000000,4.000000,4.000000,,,,,,,,,,,,,,,,,,,,,,,,,,,,,,,,,,,,,,,,,,,,,,,,,,,,,,,,
1577418966.776539,97.000000,0.000000,4208.717773,4318.974121,4311.282227,4107.692383,4170.256348,450.000000,4.000000,,,,0.000000,4.000000,4.000000,0.000000,4.000000,4.000000,,,,,,,,,,,,,,,,,,,,,,,,,,,,,,,,,,,,,,,,,,,,,,,,,,,,,,,,
1577418966.784240,98.000000,0.000000,4215.897461,4350.256348,4152.820313,4094.358887,4177.436035,450.000000,4.000000,,,,0.000000,4.000000,4.000000,0.000000,4.000000,4.000000,,,,,,,,,,,,,,,,,,,,,,,,,,,,,,,,,,,,,,,,,,,,,,,,,,,,,,,,
1577418966.792041,99.000000,0.000000,4217.948730,4348.717773,4113.846191,4088.718018,4184.102539,16241.000000,4.000000,,,,0.000000,4.000000,4.000000,0.000000,4.000000,4.000000,,,,,,,,,,,,,,,,,,,,,,,,,,,,,,,,,,,,,,,,,,,,,,,,,,,,,,,,
1577418966.799741,100.000000,0.000000,4212.820313,4329.230957,4152.820313,4074.358887,4163.077148,450.000000,4.000000,,,,0.000000,4.000000,4.000000,0.000000,4.000000,4.000000,,,,,,,,,,,,,,,,,,,,,,,,,,,,,,,,,,,,,,,,,,,,,,,,,,,,,,,,
1577418966.807542,101.000000,0.000000,4203.589844,4340.000000,4215.384766,4076.923096,4136.922852,450.000000,4.000000,,,,0.000000,4.000000,4.000000,0.000000,4.000000,4.000000,,,,,,,,,,,,,,,,,,,,,,,,,,,,,,,,,,,,,,,,,,,,,,,,,,,,,,,,
1577418966.815243,102.000000,0.000000,4210.769043,4354.358887,4229.743652,4090.256348,4148.205078,450.000000,4.000000,,,,0.000000,4.000000,4.000000,0.000000,4.000000,4.000000,,,,,,,,,,,,,,,,,,,,,,,,,,,,,,,,,,,,,,,,,,,,,,,,,,,,,,,,
1577418966.823143,103.000000,0.000000,4215.897461,4350.769043,4216.410156,4083.589844,4155.384766,16241.000000,4.000000,,,,0.000000,4.000000,4.000000,0.000000,4.000000,4.000000,,,,,,,,,,,,,,,,,,,,,,,,,,,,,,,,,,,,,,,,,,,,,,,,,,,,,,,,
1577418966.830944,104.000000,0.000000,4206.666504,4351.282227,4170.256348,4086.666748,4146.666504,450.000000,4.000000,,,,0.000000,4.000000,4.000000,0.000000,4.000000,4.000000,,,,,,,,,,,,,,,,,,,,,,,,,,,,,,,,,,,,,,,,,,,,,,,,,,,,,,,,
1577418966.838845,105.000000,0.000000,4207.179688,4355.384766,4134.358887,4089.743652,4146.666504,450.000000,4.000000,,,,0.000000,4.000000,4.000000,0.000000,4.000000,4.000000,,,,,,,,,,,,,,,,,,,,,,,,,,,,,,,,4.190016,2.395573,0.682193,1.023879,0.538027,2.309232,0.733230,0.813136,1.551038,1.315003,4.829414,3.322768,4.115899,83.725403,34.350105,3.032208,1.977209,1.112000,0.656119,0.703237,5.707754,1.751614,0.789913,0.795489,0.717059
1577418966.846646,106.000000,0.000000,4210.256348,4345.641113,4203.589844,4086.153809,4142.563965,450.000000,4.000000,,,,0.000000,4.000000,4.000000,0.000000,4.000000,4.000000,,,,,,,,,,,,,,,,,,,,,,,,,,,,,,,,,,,,,,,,,,,,,,,,,,,,,,,,
1577418966.854546,107.000000,0.000000,4219.487305,4340.512695,4218.974121,4086.153809,4152.307617,16241.000000,4.000000,,,,0.000000,4.000000,4.000000,0.000000,4.000000,4.000000,,,,,,,,,,,,,,,,,,,,,,,,,,,,,,,,,,,,,,,,,,,,,,,,,,,,,,,,
1577418966.862347,108.000000,0.000000,4229.743652,4348.717773,4190.769043,4086.153809,4155.384766,450.000000,4.000000,,,,0.000000,4.000000,4.000000,0.000000,4.000000,4.000000,,,,,,,,,,,,,,,,,,,,,,,,,,,,,,,,,,,,,,,,,,,,,,,,,,,,,,,,
1577418966.870048,109.000000,0.000000,4235.897461,4369.743652,4252.307617,4095.897461,4149.230957,450.000000,4.000000,,,,0.000000,4.000000,4.000000,0.000000,4.000000,4.000000,,,,,,,,,,,,,,,,,,,,,,,,,,,,,,,,,,,,,,,,,,,,,,,,,,,,,,,,
1577418966.877849,110.000000,0.000000,4245.128418,4371.794922,4219.487305,4105.128418,4160.512695,450.000000,4.000000,,,,0.000000,4.000000,4.000000,0.000000,4.000000,4.000000,,,,,,,,,,,,,,,,,,,,,,,,,,,,,,,,,,,,,,,,,,,,,,,,,,,,,,,,
1577418966.885550,111.000000,0.000000,4238.461426,4341.538574,4161.025879,4108.205078,4165.641113,16241.000000,4.000000,,,,0.000000,4.000000,4.000000,0.000000,4.000000,4.000000,,,,,,,,,,,,,,,,,,,,,,,,,,,,,,,,,,,,,,,,,,,,,,,,,,,,,,,,
1577418966.893351,112.000000,0.000000,4244.102539,4347.692383,4143.077148,4106.666504,4171.794922,450.000000,4.000000,,,,0.000000,4.000000,4.000000,0.000000,4.000000,4.000000,,,,,,,,,,,,,,,,,,,,,,,,,,,,,,,,,,,,,,,,,,,,,,,,,,,,,,,,
1577418966.901052,113.000000,0.000000,4260.000000,4375.384766,4182.051270,4098.461426,4175.897461,450.000000,4.000000,,,,0.000000,4.000000,4.000000,0.000000,4.000000,4.000000,,,,,,,,,,,,,,,,,,,,,,,,,,,,,,,,,,,,,,,,,,,,,,,,,,,,,,,,
1577418966.908852,114.000000,0.000000,4248.717773,4365.641113,4301.025879,4094.871826,4157.948730,450.000000,4.000000,,,,0.000000,4.000000,4.000000,0.000000,4.000000,4.000000,,,,,,,,,,,,,,,,,,,,,,,,,,,,,,,,,,,,,,,,,,,,,,,,,,,,,,,,
1577418966.916553,115.000000,0.000000,4245.128418,4359.487305,4278.461426,4098.461426,4140.512695,16241.000000,4.000000,,,,0.000000,4.000000,4.000000,0.000000,4.000000,4.000000,,,,,,,,,,,,,,,,,,,,,,,,,,,,,,,,,,,,,,,,,,,,,,,,,,,,,,,,
1577418966.924354,116.000000,0.000000,4246.666504,4365.128418,4195.897461,4122.051270,4134.871582,450.000000,4.000000,,,,0.000000,4.000000,4.000000,0.000000,4.000000,4.000000,,,,,,,,,,,,,,,,,,,,,,,,,,,,,,,,,,,,,,,,,,,,,,,,,,,,,,,,
1577418966.932055,117.000000,0.000000,4236.410156,4361.538574,4160.512695,4133.333496,4141.538574,450.000000,4.000000,,,,0.000000,4.000000,4.000000,0.000000,4.000000,4.000000,,,,,,,,,,,,,,,,,,,,,,,,,,,,,,,,,,,,,,,,,,,,,,,,,,,,,,,,
1577418966.939956,118.000000,0.000000,4223.077148,4352.820313,4149.743652,4108.205078,4143.077148,450.000000,4.000000,,,,0.000000,4.000000,4.000000,0.000000,4.000000,4.000000,,,,,,,,,,,,,,,,,,,,,,,,,,,,,,,,,,,,,,,,,,,,,,,,,,,,,,,,
1577418966.947757,119.000000,0.000000,4211.794922,4353.333496,4236.410156,4106.666504,4133.333496,16241.000000,4.000000,,,,0.000000,4.000000,4.000000,0.000000,4.000000,4.000000,,,,,,,,,,,,,,,,,,,,,,,,,,,,,,,,,,,,,,,,,,,,,,,,,,,,,,,,
1577418966.955557,120.000000,0.000000,4229.230957,4376.410156,4277.948730,4123.589844,4133.846191,450.000000,4.000000,,,,0.000000,4.000000,4.000000,0.000000,4.000000,4.000000,,,,,,,,,,,,,,,,,,,,,,,,,,,,,,,,,,,,,,,,,,,,,,,,,,,,,,,,
1577418966.963258,121.000000,0.000000,4236.410156,4383.589844,4196.410156,4121.538574,4121.025879,450.000000,4.000000,,,,0.000000,4.000000,4.000000,0.000000,4.000000,4.000000,,,,,,,,,,,,,,,,,,,,,,,,,,,,,,,,3.044614,2.089797,0.635489,0.916341,0.483717,2.203795,0.809046,0.824127,1.556699,1.278208,4.714303,3.400810,4.532584,82.941917,33.882744,2.625475,2.047112,0.932012,0.656853,0.698336,4.317777,1.949969,0.712701,0.832812,0.667893
1577418966.971159,122.000000,0.000000,4223.589844,4365.641113,4110.769043,4121.025879,4110.256348,450.000000,4.000000,,,,0.000000,4.000000,4.000000,0.000000,4.000000,4.000000,,,,,,,,,,,,,,,,,,,,,,,,,,,,,,,,,,,,,,,,,,,,,,,,,,,,,,,,
1577418966.978960,123.000000,0.000000,4232.307617,4362.051270,4124.102539,4122.051270,4128.717773,16241.000000,4.000000,,,,0.000000,4.000000,4.000000,0.000000,4.000000,4.000000,,,,,,,,,,,,,,,,,,,,,,,,,,,,,,,,,,,,,,,,,,,,,,,,,,,,,,,,
1577418966.986861,124.000000,0.000000,4230.256348,4358.461426,4218.974121,4122.051270,4141.025879,450.000000,4.000000,,,,0.000000,4.000000,4.000000,0.000000,4.000000,4.000000,,,,,,,,,,,,,,,,,,,,,,,,,,,,,,,,,,,,,,,,,,,,,,,,,,,,,,,,
1577418966.994661,125.000000,0.000000,4225.128418,4357.948730,4218.974121,4114.871582,4137.436035,450.000000,4.000000,,,,0.000000,4.000000,4.000000,0.000000,4.000000,4.000000,,,,,,,,,,,,,,,,,,,,,,,,,,,,,,,,,,,,,,,,,,,,,,,,,,,,,,,,
1577418967.002562,126.000000,0.000000,4232.307617,4380.000000,4186.666504,4120.512695,4132.820313,450.000000,4.000000,,,,0.000000,4.000000,4.000000,0.000000,4.000000,4.000000,,,,,,,,,,,,,,,,,,,,,,,,,,,,,,,,,,,,,,,,,,,,,,,,,,,,,,,,
1577418967.010363,127.000000,0.000000,4233.333496,4389.743652,4233.846191,4149.230957,4132.307617,238.000000,4.000000,,,,0.000000,4.000000,4.000000,0.000000,4.000000,4.000000,,,,,,,,,,,,,,,,,,,,,,,,,,,,,,,,,,,,,,,,,,,,,,,,,,,,,,,,
1577418967.018264,0.000000,0.000000,4242.563965,4369.743652,4205.641113,4148.717773,4149.230957,450.000000,4.000000,,,,0.000000,4.000000,4.000000,0.000000,4.000000,4.000000,,,,,,,,,,,,,,,,,,,,,,,,,,,,,,,,,,,,,,,,,,,,,,,,,,,,,,,,
1577418967.026064,1.000000,0.000000,4255.897461,4363.589844,4160.512695,4152.820313,4178.974121,450.000000,4.000000,,,,0.000000,4.000000,4.000000,0.000000,4.000000,4.000000,,,,,,,,,,,,,,,,,,,,,,,,,,,,,,,,,,,,,,,,,,,,,,,,,,,,,,,,
1577418967.033965,2.000000,0.000000,4278.461426,4393.333496,4143.589844,4184.102539,4204.615234,16229.000000,4.000000,,,,0.000000,4.000000,4.000000,0.000000,4.000000,4.000000,,,,,,,,,,,,,,,,,,,,,,,,,,,,,,,,,,,,,,,,,,,,,,,,,,,,,,,,
1577418967.041766,3.000000,0.000000,4276.410156,4389.230957,4175.897461,4177.436035,4192.307617,450.000000,4.000000,,,,0.000000,4.000000,4.000000,0.000000,4.000000,4.000000,,,,,,,,,,,,,,,,,,,,,,,,,,,,,,,,,,,,,,,,,,,,,,,,,,,,,,,,
1577418967.049667,4.000000,0.000000,4249.230957,4354.358887,4292.820313,4160.512695,4156.922852,16220.000000,4.000000,,,,0.000000,4.000000,4.000000,0.000000,4.000000,4.000000,,,,,,,,,,,,,,,,,,,,,,,,,,,,,,,,,,,,,,,,,,,,,,,,,,,,,,,,
1577418967.057468,5.000000,0.000000,4251.794922,4359.487305,4280.000000,4162.051270,4160.000000,450.000000,4.000000,,,,0.000000,4.000000,4.000000,0.000000,4.000000,4.000000,,,,,,,,,,,,,,,,,,,,,,,,,,,,,,,,,,,,,,,,,,,,,,,,,,,,,,,,
1577418967.065168,6.000000,0.000000,4246.153809,4357.948730,4181.025879,4166.153809,4169.230957,34.000000,4.000000,,,,0.000000,4.000000,4.000000,0.000000,4.000000,4.000000,,,,,,,,,,,,,,,,,,,,,,,,,,,,,,,,,,,,,,,,,,,,,,,,,,,,,,,,
1577418967.072969,7.000000,0.000000,4223.589844,4345.128418,4114.871582,4163.589844,4150.769043,450.000000,4.000000,,,,0.000000,4.000000,4.000000,0.000000,4.000000,4.000000,,,,,,,,,,,,,,,,,,,,,,,,,,,,,,,,,,,,,,,,,,,,,,,,,,,,,,,,
1577418967.080670,8.000000,0.000000,4222.051270,4355.384766,4131.794922,4148.717773,4145.641113,450.000000,4.000000,,,,0.000000,4.000000,4.000000,0.000000,4.000000,4.000000,,,,,,,,,,,,,,,,,,,,,,,,,,,,,,,,,,,,,,,,,,,,,,,,,,,,,,,,
1577418967.088471,9.000000,0.000000,4229.230957,4364.615234,4272.307617,4160.512695,4154.871582,16173.000000,4.000000,,,,0.000000,4.000000,4.000000,0.000000,4.000000,4.000000,,,,,,,,,,,,,,,,,,,,,,,,,,,,,,,,2.165736,1.934094,0.563255,0.897597,0.441860,1.898964,0.840008,0.823338,1.657850,1.280609,4.895664,3.666052,4.877353,81.715019,33.353134,2.138547,2.250469,0.757552,0.708814,0.707082,3.352013,2.190649,0.670472,0.874276,0.623863
1577418967.096172,10.000000,0.000000,4239.487305,4363.589844,4289.230957,4179.487305,4169.230957,450.000000,4.000000,,,,0.000000,4.000000,4.000000,0.000000,4.000000,4.000000,,,,,,,,,,,,,,,,,,,,,,,,,,,,,,,,,,,,,,,,,,,,,,,,,,,,,,,,
1577418967.103973,11.000000,0.000000,4233.333496,4348.205078,4152.820313,4172.820313,4181.025879,16188.000000,4.000000,,,,0.000000,4.000000,4.000000,0.000000,4.000000,4.000000,,,,,,,,,,,,,,,,,,,,,,,,,,,,,,,,,,,,,,,,,,,,,,,,,,,,,,,,
1577418967.111674,12.000000,0.000000,4231.282227,4342.051270,4058.461426,4168.717773,4180.000000,450.000000,4.000000,,,,0.000000,4.000000,4.000000,0.000000,4.000000,4.000000,,,,,,,,,,,,,,,,,,,,,,,,,,,,,,,,,,,,,,,,,,,,,,,,,,,,,,,,
1577418967.119474,13.000000,0.000000,4241.538574,4348.205078,4114.358887,4167.179688,4180.512695,450.000000,4.000000,,,,0.000000,4.000000,4.000000,0.000000,4.000000,4.000000,,,,,,,,,,,,,,,,,,,,,,,,,,,,,,,,,,,,,,,,,,,,,,,,,,,,,,,,
1577418967.127175,14.000000,0.000000,4224.615234,4341.538574,4259.487305,4168.205078,4173.846191,450.000000,4.000000,,,,0.000000,4.000000,4.000000,0.000000,4.000000,4.000000,,,,,,,,,,,,,,,,,,,,,,,,,,,,,,,,,,,,,,,,,,,,,,,,,,,,,,,,
1577418967.135076,15.000000,0.000000,4210.256348,4332.307617,4253.846191,4162.051270,4172.307617,16188.000000,4.000000,,,,0.000000,4.000000,4.000000,0.000000,4.000000,4.000000,,,,,,,,,,,,,,,,,,,,,,,,,,,,,,,,,,,,,,,,,,,,,,,,,,,,,,,,
1577418967.142877,16.000000,0.000000,4208.205078,4321.025879,4163.589844,4151.794922,4186.666504,0.000000,4.000000,,,,0.000000,4.000000,4.000000,0.000000,4.000000,4.000000,,,,,,,,,,,,,,,,,,,,,,,,,,,,,,,,,,,,,,,,,,,,,,,,,,,,,,,,
1577418967.150678,17.000000,0.000000,4206.666504,4331.794922,4189.743652,4158.974121,4188.205078,0.000000,4.000000,,,,0.000000,4.000000,4.000000,0.000000,4.000000,4.000000,,,,,,,,,,,,,,,,,,,,,,,,,,,,,,,,,,,,,,,,,,,,,,,,,,,,,,,,
1577418967.158379,18.000000,0.000000,4226.153809,4364.102539,4192.307617,4158.974121,4189.230957,0.000000,4.000000,,,,0.000000,4.000000,4.000000,0.000000,4.000000,4.000000,,,,,,,,,,,,,,,,,,,,,,,,,,,,,,,,,,,,,,,,,,,,,,,,,,,,,,,,
1577418967.166179,19.000000,0.000000,4221.025879,4362.051270,4149.743652,4157.948730,4194.871582,0.000000,4.000000,,,,0.000000,4.000000,4.000000,0.000000,4.000000,4.000000,,,,,,,,,,,,,,,,,,,,,,,,,,,,,,,,,,,,,,,,,,,,,,,,,,,,,,,,
1577418967.173880,20.000000,0.000000,4197.436035,4329.230957,4121.538574,4157.436035,4186.666504,0.000000,4.000000,,,,0.000000,4.000000,4.000000,0.000000,4.000000,4.000000,,,,,,,,,,,,,,,,,,,,,,,,,,,,,,,,,,,,,,,,,,,,,,,,,,,,,,,,
1577418967.181681,21.000000,0.000000,4193.846191,4311.282227,4172.307617,4146.666504,4182.563965,0.000000,4.000000,,,,0.000000,4.000000,4.000000,0.000000,4.000000,4.000000,,,,,,,,,,,,,,,,,,,,,,,,,,,,,,,,,,,,,,,,,,,,,,,,,,,,,,,,
1577418967.189382,22.000000,0.000000,4196.410156,4336.410156,4293.333496,4161.025879,4188.205078,0.000000,4.000000,,,,0.000000,4.000000,4.000000,0.000000,4.000000,4.000000,,,,,,,,,,,,,,,,,,,,,,,,,,,,,,,,,,,,,,,,,,,,,,,,,,,,,,,,
1577418967.197283,23.000000,0.000000,4203.589844,4353.846191,4270.769043,4173.333496,4191.282227,0.000000,4.000000,,,,0.000000,4.000000,4.000000,0.000000,4.000000,4.000000,,,,,,,,,,,,,,,,,,,,,,,,,,,,,,,,,,,,,,,,,,,,,,,,,,,,,,,,
1577418967.205084,24.000000,0.000000,4199.487305,4326.666504,4173.846191,4164.102539,4186.666504,0.000000,4.000000,,,,0.000000,4.000000,4.000000,0.000000,4.000000,4.000000,,,,,,,,,,,,,,,,,,,,,,,,,,,,,,,,,,,,,,,,,,,,,,,,,,,,,,,,
1577418967.212984,25.000000,0.000000,4202.563965,4327.179688,4108.205078,4162.051270,4179.487305,0.000000,4.000000,,,,0.000000,4.000000,4.000000,0.000000,4.000000,4.000000,,,,,,,,,,,,,,,,,,,,,,,,,,,,,,,,1.816657,1.900627,0.465506,0.943644,0.414270,1.464882,0.827197,0.788636,1.819621,1.299908,5.417274,4.056974,5.102776,80.412155,33.149689,1.647175,2.621370,0.635014,0.813268,0.710524,3.037439,2.428918,0.626939,0.890567,0.591644
1577418967.220785,26.000000,0.000000,4206.153809,4327.692383,4130.256348,4147.692383,4172.307617,0.000000,4.000000,,,,0.000000,4.000000,4.000000,0.000000,4.000000,4.000000,,,,,,,,,,,,,,,,,,,,,,,,,,,,,,,,,,,,,,,,,,,,,,,,,,,,,,,,
1577418967.228686,27.000000,0.000000,4182.051270,4299.487305,4296.922852,4140.000000,4170.256348,0.000000,4.000000,,,,0.000000,4.000000,4.000000,0.000000,4.000000,4.000000,,,,,,,,,,,,,,,,,,,,,,,,,,,,,,,,,,,,,,,,,,,,,,,,,,,,,,,,
1577418967.236487,28.000000,0.000000,4194.871582,4332.307617,4298.974121,4150.769043,4189.743652,0.000000,4.000000,,,,0.000000,4.000000,4.000000,0.000000,4.000000,4.000000,,,,,,,,,,,,,,,,,,,,,,,,,,,,,,,,,,,,,,,,,,,,,,,,,,,,,,,,
1577418967.244387,29.000000,0.000000,4210.256348,4363.589844,4143.589844,4148.205078,4200.512695,0.000000,4.000000,,,,0.000000,4.000000,4.000000,0.000000,4.000000,4.000000,,,,,,,,,,,,,,,,,,,,,,,,,,,,,,,,,,,,,,,,,,,,,,,,,,,,,,,,
1577418967.252188,30.000000,0.000000,4179.487305,4317.948730,4037.948730,4142.563965,4185.128418,0.000000,4.000000,,,,0.000000,4.000000,4.000000,0.000000,4.000000,4.000000,,,,,,,,,,,,,,,,,,,,,,,,,,,,,,,,,,,,,,,,,,,,,,,,,,,,,,,,
1577418967.260089,31.000000,0.000000,4177.436035,4296.922852,4109.230957,4135.897461,4175.384766,0.000000,4.000000,,,,0.000000,4.000000,4.000000,0.000000,4.000000,4.000000,,,,,,,,,,,,,,,,,,,,,,,,,,,,,,,,,,,,,,,,,,,,,,,,,,,,,,,,
1577418967.267890,32.000000,0.000000,4197.948730,4330.256348,4310.256348,4132.307617,4182.051270,0.000000,4.000000,,,,0.000000,4.000000,4.000000,0.000000,4.000000,4.000000,,,,,,,,,,,,,,,,,,,,,,,,,,,,,,,,,,,,,,,,,,,,,,,,,,,,,,,,
1577418967.275591,33.000000,0.000000,4202.051270,4345.641113,4300.512695,4125.641113,4183.589844,0.000000,4.000000,,,,0.000000,4.000000,4.000000,0.000000,4.000000,4.000000,,,,,,,,,,,,,,,,,,,,,,,,,,,,,,,,,,,,,,,,,,,,,,,,,,,,,,,,
1577418967.283392,34.000000,0.000000,4194.358887,4314.871582,4173.333496,4117.948730,4182.563965,0.000000,4.000000,,,,0.000000,4.000000,4.000000,0.000000,4.000000,4.000000,,,,,,,,,,,,,,,,,,,,,,,,,,,,,,,,,,,,,,,,,,,,,,,,,,,,,,,,
1577418967.291092,35.000000,0.000000,4200.000000,4309.230957,4160.512695,4136.410156,4200.512695,0.000000,4.000000,,,,0.000000,4.000000,4.000000,0.000000,4.000000,4.000000,,,,,,,,,,,,,,,,,,,,,,,,,,,,,,,,,,,,,,,,,,,,,,,,,,,,,,,,
1577418967.298893,36.000000,0.000000,4228.717773,4352.307617,4165.641113,4145.641113,4221.538574,0.000000,4.000000,,,,0.000000,4.000000,4.000000,0.000000,4.000000,4.000000,,,,,,,,,,,,,,,,,,,,,,,,,,,,,,,,,,,,,,,,,,,,,,,,,,,,,,,,
1577418967.306594,37.000000,0.000000,4231.282227,4351.282227,4186.666504,4144.102539,4219.487305,0.000000,4.000000,,,,0.000000,4.000000,4.000000,0.000000,4.000000,4.000000,,,,,,,,,,,,,,,,,,,,,,,,,,,,,,,,,,,,,,,,,,,,,,,,,,,,,,,,
1577418967.314395,38.000000,0.000000,4232.307617,4319.487305,4222.051270,4151.794922,4229.230957,0.000000,4.000000,,,,0.000000,4.000000,4.000000,0.000000,4.000000,4.000000,,,,,,,,,,,,,,,,,,,,,,,,,,,,,,,,,,,,,,,,,,,,,,,,,,,,,,,,
1577418967.322096,39.000000,0.000000,4266.666504,4326.666504,4216.922852,4150.256348,4256.922852,0.000000,4.000000,,,,0.000000,4.000000,4.000000,0.000000,4.000000,4.000000,,,,,,,,,,,,,,,,,,,,,,,,,,,,,,,,,,,,,,,,,,,,,,,,,,,,,,,,
1577418967.329897,40.000000,0.000000,4278.461426,4342.563965,4202.563965,4156.410156,4254.358887,0.000000,4.000000,,,,0.000000,4.000000,4.000000,0.000000,4.000000,4.000000,,,,,,,,,,,,,,,,,,,,,,,,,,,,,,,,,,,,,,,,,,,,,,,,,,,,,,,,
1577418967.337598,41.000000,0.000000,4264.102539,4341.538574,4183.077148,4158.461426,4232.307617,0.000000,4.000000,,,,0.000000,4.000000,4.000000,0.000000,4.000000,4.000000,,,,,,,,,,,,,,,,,,,,,,,,,,,,,,,,2.051746,1.905479,0.401844,1.001640,0.399171,1.036673,0.778112,0.726626,1.977136,1.314025,6.123592,4.375466,5.086065,79.529068,33.526291,1.265701,3.086247,0.599378,0.951975,0.694390,3.385004,2.619703,0.601558,0.883619,0.573620
1577418967.345398,42.000000,0.000000,4247.179688,4334.358887,4185.128418,4146.666504,4224.102539,0.000000,4.000000,,,,0.000000,4.000000,4.000000,0.000000,4.000000,4.000000,,,,,,,,,,,,,,,,,,,,,,,,,,,,,,,,,,,,,,,,,,,,,,,,,,,,,,,,
1577418967.353099,43.000000,0.000000,4247.692383,4346.666504,4161.538574,4146.666504,4235.384766,0.000000,4.000000,,,,0.000000,4.000000,4.000000,0.000000,4.000000,4.000000,,,,,,,,,,,,,,,,,,,,,,,,,,,,,,,,,,,,,,,,,,,,,,,,,,,,,,,,
1577418967.360900,44.000000,0.000000,4266.153809,4353.846191,4164.102539,4146.153809,4240.512695,0.000000,4.000000,,,,0.000000,4.000000,4.000000,0.000000,4.000000,4.000000,,,,,,,,,,,,,,,,,,,,,,,,,,,,,,,,,,,,,,,,,,,,,,,,,,,,,,,,
1577418967.368601,45.000000,0.000000,4271.794922,4340.512695,4304.102539,4144.615234,4233.846191,0.000000,4.000000,,,,0.000000,4.000000,4.000000,0.000000,4.000000,4.000000,,,,,,,,,,,,,,,,,,,,,,,,,,,,,,,,,,,,,,,,,,,,,,,,,,,,,,,,
1577418967.376402,46.000000,0.000000,4272.307617,4354.358887,4310.256348,4134.358887,4237.436035,0.000000,4.000000,,,,0.000000,4.000000,4.000000,0.000000,4.000000,4.000000,,,,,,,,,,,,,,,,,,,,,,,,,,,,,,,,,,,,,,,,,,,,,,,,,,,,,,,,
1577418967.384103,47.000000,0.000000,4272.307617,4372.820313,4148.717773,4124.102539,4237.436035,0.000000,4.000000,,,,0.000000,4.000000,4.000000,0.000000,4.000000,4.000000,,,,,,,,,,,,,,,,,,,,,,,,,,,,,,,,,,,,,,,,,,,,,,,,,,,,,,,,
1577418967.392003,48.000000,0.000000,4271.282227,4363.589844,4048.718018,4139.487305,4237.948730,0.000000,4.000000,,,,0.000000,4.000000,4.000000,0.000000,4.000000,4.000000,,,,,,,,,,,,,,,,,,,,,,,,,,,,,,,,,,,,,,,,,,,,,,,,,,,,,,,,
1577418967.399804,49.000000,0.000000,4276.922852,4351.282227,4139.487305,4144.102539,4243.077148,0.000000,4.000000,,,,0.000000,4.000000,4.000000,0.000000,4.000000,4.000000,,,,,,,,,,,,,,,,,,,,,,,,,,,,,,,,,,,,,,,,,,,,,,,,,,,,,,,,
1577418967.407705,50.000000,0.000000,4279.487305,4334.871582,4343.077148,4136.410156,4242.051270,0.000000,4.000000,,,,0.000000,4.000000,4.000000,0.000000,4.000000,4.000000,,,,,,,,,,,,,,,,,,,,,,,,,,,,,,,,,,,,,,,,,,,,,,,,,,,,,,,,
1577418967.415506,51.000000,0.000000,4288.205078,4338.974121,4350.256348,4140.000000,4250.256348,0.000000,4.000000,,,,0.000000,4.000000,4.000000,0.000000,4.000000,4.000000,,,,,,,,,,,,,,,,,,,,,,,,,,,,,,,,,,,,,,,,,,,,,,,,,,,,,,,,
1577418967.423406,52.000000,0.000000,4294.358887,4361.538574,4173.333496,4141.538574,4245.641113,0.000000,4.000000,,,,0.000000,4.000000,4.000000,0.000000,4.000000,4.000000,,,,,,,,,,,,,,,,,,,,,,,,,,,,,,,,,,,,,,,,,,,,,,,,,,,,,,,,
1577418967.431207,53.000000,0.000000,4283.077148,4363.589844,4093.846191,4137.948730,4231.282227,0.000000,4.000000,,,,0.000000,4.000000,4.000000,0.000000,4.000000,4.000000,,,,,,,,,,,,,,,,,,,,,,,,,,,,,,,,,,,,,,,,,,,,,,,,,,,,,,,,
1577418967.439108,54.000000,0.000000,4274.358887,4343.589844,4156.410156,4133.846191,4229.743652,0.000000,4.000000,,,,0.000000,4.000000,4.000000,0.000000,4.000000,4.000000,,,,,,,,,,,,,,,,,,,,,,,,,,,,,,,,,,,,,,,,,,,,,,,,,,,,,,,,
1577418967.446909,55.000000,0.000000,4268.205078,4345.641113,4230.769043,4139.487305,4228.717773,0.000000,4.000000,,,,0.000000,4.000000,4.000000,0.000000,4.000000,4.000000,,,,,,,,,,,,,,,,,,,,,,,,,,,,,,,,,,,,,,,,,,,,,,,,,,,,,,,,
1577418967.454710,56.000000,0.000000,4270.769043,4360.000000,4217.436035,4133.333496,4220.512695,0.000000,4.000000,,,,0.000000,4.000000,4.000000,0.000000,4.000000,4.000000,,,,,,,,,,,,,,,,,,,,,,,,,,,,,,,,,,,,,,,,,,,,,,,,,,,,,,,,
1577418967.462510,57.000000,0.000000,4272.307617,4349.743652,4217.948730,4116.922852,4209.230957,0.000000,4.000000,,,,0.000000,4.000000,4.000000,0.000000,4.000000,4.000000,,,,,,,,,,,,,,,,,,,,,,,,,,,,,,,,2.791763,1.894103,0.442414,1.031834,0.396113,0.716631,0.707730,0.678461,2.080730,1.320262,6.762158,4.428001,4.879728,79.354004,34.385994,1.072019,3.483384,0.648204,1.093657,0.657557,4.203927,2.722256,0.648255,0.887946,0.568253
1577418967.470411,58.000000,0.000000,4273.846191,4350.769043,4214.358887,4123.589844,4214.871582,0.000000,4.000000,,,,0.000000,4.000000,4.000000,0.000000,4.000000,4.000000,,,,,,,,,,,,,,,,,,,,,,,,,,,,,,,,,,,,,,,,,,,,,,,,,,,,,,,,
1577418967.478212,59.000000,0.000000,4285.128418,4364.102539,4164.102539,4130.769043,4220.512695,0.000000,4.000000,,,,0.000000,4.000000,4.000000,0.000000,4.000000,4.000000,,,,,,,,,,,,,,,,,,,,,,,,,,,,,,,,,,,,,,,,,,,,,,,,,,,,,,,,
1577418967.485913,60.000000,0.000000,4275.897461,4362.051270,4203.589844,4136.922852,4200.000000,0.000000,4.000000,,,,0.000000,4.000000,4.000000,0.000000,4.000000,4.000000,,,,,,,,,,,,,,,,,,,,,,,,,,,,,,,,,,,,,,,,,,,,,,,,,,,,,,,,
1577418967.493714,61.000000,0.000000,4273.333496,4378.461426,4237.436035,4146.666504,4204.102539,0.000000,4.000000,,,,0.000000,4.000000,4.000000,0.000000,4.000000,4.000000,,,,,,,,,,,,,,,,,,,,,,,,,,,,,,,,,,,,,,,,,,,,,,,,,,,,,,,,
1577418967.501415,62.000000,0.000000,4286.666504,4389.743652,4202.563965,4143.077148,4225.641113,0.000000,4.000000,,,,0.000000,4.000000,4.000000,0.000000,4.000000,4.000000,,,,,,,,,,,,,,,,,,,,,,,,,,,,,,,,,,,,,,,,,,,,,,,,,,,,,,,,
1577418967.509215,63.000000,0.000000,4280.000000,4362.051270,4233.846191,4135.384766,4224.615234,0.000000,4.000000,,,,0.000000,4.000000,4.000000,0.000000,4.000000,4.000000,,,,,,,,,,,,,,,,,,,,,,,,,,,,,,,,,,,,,,,,,,,,,,,,,,,,,,,,
1577418967.516916,64.000000,0.000000,4283.077148,4349.743652,4221.025879,4125.128418,4221.025879,450.000000,4.000000,,,,0.000000,4.000000,4.000000,0.000000,4.000000,4.000000,,,,,,,,,,,,,,,,,,,,,,,,,,,,,,,,,,,,,,,,,,,,,,,,,,,,,,,,
1577418967.524717,65.000000,0.000000,4287.692383,4375.384766,4205.641113,4122.563965,4212.820313,450.000000,4.000000,,,,0.000000,4.000000,4.000000,0.000000,4.000000,4.000000,,,,,,,,,,,,,,,,,,,,,,,,,,,,,,,,,,,,,,,,,,,,,,,,,,,,,,,,
1577418967.532418,66.000000,0.000000,4275.384766,4384.102539,4176.410156,4128.205078,4203.077148,16254.000000,4.000000,,,,0.000000,4.000000,4.000000,0.000000,4.000000,4.000000,,,,,,,,,,,,,,,,,,,,,,,,,,,,,,,,,,,,,,,,,,,,,,,,,,,,,,,,
1577418967.540219,67.000000,0.000000,4264.102539,4367.179688,4167.179688,4130.769043,4197.948730,450.000000,4.000000,,,,0.000000,4.000000,4.000000,0.000000,4.000000,4.000000,,,,,,,,,,,,,,,,,,,,,,,,,,,,,,,,,,,,,,,,,,,,,,,,,,,,,,,,
1577418967.547920,68.000000,0.000000,4258.461426,4350.769043,4280.000000,4137.436035,4194.358887,16204.000000,4.000000,,,,0.000000,4.000000,4.000000,0.000000,4.000000,4.000000,,,,,,,,,,,,,,,,,,,,,,,,,,,,,,,,,,,,,,,,,,,,,,,,,,,,,,,,
1577418967.555721,69.000000,0.000000,4269.743652,4361.025879,4290.769043,4137.436035,4204.615234,450.000000,4.000000,,,,0.000000,4.000000,4.000000,0.000000,4.000000,4.000000,,,,,,,,,,,,,,,,,,,,,,,,,,,,,,,,,,,,,,,,,,,,,,,,,,,,,,,,
1577418967.563422,70.000000,0.000000,4271.794922,4373.846191,4186.153809,4133.333496,4199.487305,36.000000,4.000000,,,,0.000000,4.000000,4.000000,0.000000,4.000000,4.000000,,,,,,,,,,,,,,,,,,,,,,,,,,,,,,,,,,,,,,,,,,,,,,,,,,,,,,,,
1577418967.571322,71.000000,0.000000,4256.410156,4361.538574,4150.256348,4130.256348,4177.948730,450.000000,4.000000,,,,0.000000,4.000000,4.000000,0.000000,4.000000,4.000000,,,,,,,,,,,,,,,,,,,,,,,,,,,,,,,,,,,,,,,,,,,,,,,,,,,,,,,,
1577418967.579123,72.000000,0.000000,4250.256348,4344.102539,4160.000000,4126.666504,4175.897461,450.000000,4.000000,,,,0.000000,4.000000,4.000000,0.000000,4.000000,4.000000,,,,,,,,,,,,,,,,,,,,,,,,,,,,,,,,,,,,,,,,,,,,,,,,,,,,,,,,
1577418967.587024,73.000000,0.000000,4246.153809,4353.846191,4200.512695,4146.153809,4185.641113,16141.000000,4.000000,,,,0.000000,4.000000,4.000000,0.000000,4.000000,4.000000,,,,,,,,,,,,,,,,,,,,,,,,,,,,,,,,3.853753,1.874144,0.613795,1.030573,0.408401,0.551606,0.632163,0.684484,2.111814,1.345156,7.102332,4.143806,4.736561,79.958267,35.404770,1.087537,3.649867,0.748705,1.200986,0.608704,5.308500,2.740763,0.816459,0.935087,0.570606
1577418967.594825,74.000000,0.000000,4254.871582,4380.000000,4217.436035,4148.205078,4189.743652,450.000000,4.000000,,,,0.000000,4.000000,4.000000,0.000000,4.000000,4.000000,,,,,,,,,,,,,,,,,,,,,,,,,,,,,,,,,,,,,,,,,,,,,,,,,,,,,,,,
1577418967.602725,75.000000,0.000000,4249.230957,4362.051270,4215.384766,4117.948730,4173.333496,16221.000000,4.000000,,,,0.000000,4.000000,4.000000,0.000000,4.000000,4.000000,,,,,,,,,,,,,,,,,,,,,,,,,,,,,,,,,,,,,,,,,,,,,,,,,,,,,,,,
1577418967.610526,76.000000,0.000000,4230.256348,4343.589844,4201.025879,4116.922852,4158.461426,450.000000,4.000000,,,,0.000000,4.000000,4.000000,0.000000,4.000000,4.000000,,,,,,,,,,,,,,,,,,,,,,,,,,,,,,,,,,,,,,,,,,,,,,,,,,,,,,,,
1577418967.618427,77.000000,0.000000,4238.974121,4373.846191,4155.897461,4134.358887,4167.692383,450.000000,4.000000,,,,0.000000,4.000000,4.000000,0.000000,4.000000,4.000000,,,,,,,,,,,,,,,,,,,,,,,,,,,,,,,,,,,,,,,,,,,,,,,,,,,,,,,,
1577418967.626228,78.000000,0.000000,4244.102539,4378.974121,4167.179688,4146.666504,4175.384766,450.000000,4.000000,,,,0.000000,4.000000,4.000000,0.000000,4.000000,4.000000,,,,,,,,,,,,,,,,,,,,,,,,,,,,,,,,,,,,,,,,,,,,,,,,,,,,,,,,
1577418967.634128,79.000000,0.000000,4245.128418,4357.436035,4168.717773,4150.256348,4177.948730,16221.000000,4.000000,,,,0.000000,4.000000,4.000000,0.000000,4.000000,4.000000,,,,,,,,,,,,,,,,,,,,,,,,,,,,,,,,,,,,,,,,,,,,,,,,,,,,,,,,
1577418967.641929,80.000000,0.000000,4248.717773,4356.922852,4191.794922,4150.769043,4178.461426,450.000000,4.000000,,,,0.000000,4.000000,4.000000,0.000000,4.000000,4.000000,,,,,,,,,,,,,,,,,,,,,,,,,,,,,,,,,,,,,,,,,,,,,,,,,,,,,,,,
1577418967.649830,81.000000,0.000000,4244.615234,4371.282227,4280.000000,4164.102539,4181.538574,450.000000,4.000000,,,,0.000000,4.000000,4.000000,0.000000,4.000000,4.000000,,,,,,,,,,,,,,,,,,,,,,,,,,,,,,,,,,,,,,,,,,,,,,,,,,,,,,,,
1577418967.657631,82.000000,0.000000,4246.153809,4365.128418,4222.563965,4148.717773,4194.358887,450.000000,4.000000,,,,0.000000,4.000000,4.000000,0.000000,4.000000,4.000000,,,,,,,,,,,,,,,,,,,,,,,,,,,,,,,,,,,,,,,,,,,,,,,,,,,,,,,,
1577418967.665332,83.000000,0.000000,4231.282227,4338.461426,4150.769043,4123.589844,4178.461426,16221.000000,4.000000,,,,0.000000,4.000000,4.000000,0.000000,4.000000,4.000000,,,,,,,,,,,,,,,,,,,,,,,,,,,,,,,,,,,,,,,,,,,,,,,,,,,,,,,,
1577418967.673132,84.000000,0.000000,4232.820313,4355.897461,4147.179688,4134.358887,4160.512695,450.000000,4.000000,,,,0.000000,4.000000,4.000000,0.000000,4.000000,4.000000,,,,,,,,,,,,,,,,,,,,,,,,,,,,,,,,,,,,,,,,,,,,,,,,,,,,,,,,
1577418967.680833,85.000000,0.000000,4247.692383,4388.717773,4174.358887,4147.179688,4169.230957,450.000000,4.000000,,,,0.000000,4.000000,4.000000,0.000000,4.000000,4.000000,,,,,,,,,,,,,,,,,,,,,,,,,,,,,,,,,,,,,,,,,,,,,,,,,,,,,,,,
1577418967.688734,86.000000,0.000000,4226.666504,4370.769043,4273.333496,4158.461426,4163.589844,450.000000,4.000000,,,,0.000000,4.000000,4.000000,0.000000,4.000000,4.000000,,,,,,,,,,,,,,,,,,,,,,,,,,,,,,,,,,,,,,,,,,,,,,,,,,,,,,,,
1577418967.696535,87.000000,0.000000,4215.384766,4348.717773,4257.948730,4156.922852,4156.922852,16221.000000,4.000000,,,,0.000000,4.000000,4.000000,0.000000,4.000000,4.000000,,,,,,,,,,,,,,,,,,,,,,,,,,,,,,,,,,,,,,,,,,,,,,,,,,,,,,,,
1577418967.704336,88.000000,0.000000,4228.205078,4355.384766,4161.538574,4143.589844,4166.666504,450.000000,4.000000,,,,0.000000,4.000000,4.000000,0.000000,4.000000,4.000000,,,,,,,,,,,,,,,,,,,,,,,,,,,,,,,,,,,,,,,,,,,,,,,,,,,,,,,,
1577418967.712037,89.000000,0.000000,4243.077148,4366.153809,4112.820313,4150.769043,4177.436035,450.000000,4.000000,,,,0.000000,4.000000,4.000000,0.000000,4.000000,4.000000,,,,,,,,,,,,,,,,,,,,,,,,,,,,,,,,4.982750,1.882677,0.879633,1.016559,0.437350,0.525618,0.564029,0.762870,2.070094,1.423109,7.009248,3.595986,4.830503,81.126373,36.209831,1.296914,3.523306,0.859553,1.240727,0.558544,6.473311,2.718688,1.111337,1.029093,0.574881
1577418967.719837,90.000000,0.000000,4240.000000,4355.384766,4130.769043,4153.333496,4176.922852,450.000000,4.000000,,,,0.000000,4.000000,4.000000,0.000000,4.000000,4.000000,,,,,,,,,,,,,,,,,,,,,,,,,,,,,,,,,,,,,,,,,,,,,,,,,,,,,,,,
1577418967.727538,91.000000,0.000000,4216.922852,4333.333496,4227.179688,4147.179688,4155.384766,16221.000000,4.000000,,,,0.000000,4.000000,4.000000,0.000000,4.000000,4.000000,,,,,,,,,,,,,,,,,,,,,,,,,,,,,,,,,,,,,,,,,,,,,,,,,,,,,,,,
1577418967.735339,92.000000,0.000000,4222.051270,4347.692383,4264.615234,4140.512695,4152.307617,450.000000,4.000000,,,,0.000000,4.000000,4.000000,0.000000,4.000000,4.000000,,,,,,,,,,,,,,,,,,,,,,,,,,,,,,,,,,,,,,,,,,,,,,,,,,,,,,,,
1577418967.743040,93.000000,0.000000,4223.589844,4360.512695,4197.948730,4142.051270,4174.358887,450.000000,4.000000,,,,0.000000,4.000000,4.000000,0.000000,4.000000,4.000000,,,,,,,,,,,,,,,,,,,,,,,,,,,,,,,,,,,,,,,,,,,,,,,,,,,,,,,,
1577418967.750841,94.000000,0.000000,4207.179688,4346.666504,4092.307617,4158.461426,4174.871582,450.000000,4.000000,,,,0.000000,4.000000,4.000000,0.000000,4.000000,4.000000,,,,,,,,,,,,,,,,,,,,,,,,,,,,,,,,,,,,,,,,,,,,,,,,,,,,,,,,
1577418967.758542,95.000000,0.000000,4207.179688,4343.589844,4090.769287,4153.333496,4163.589844,16221.000000,4.000000,,,,0.000000,4.000000,4.000000,0.000000,4.000000,4.000000,,,,,,,,,,,,,,,,,,,,,,,,,,,,,,,,,,,,,,,,,,,,,,,,,,,,,,,,
1577418967.766343,96.000000,0.000000,4205.641113,4350.256348,4256.410156,4151.282227,4164.615234,450.000000,4.000000,,,,0.000000,4.000000,4.000000,0.000000,4.000000,4.000000,,,,,,,,,,,,,,,,,,,,,,,,,,,,,,,,,,,,,,,,,,,,,,,,,,,,,,,,
1577418967.774043,97.000000,0.000000,4215.384766,4362.051270,4281.538574,4168.205078,4180.000000,450.000000,4.000000,,,,0.000000,4.000000,4.000000,0.000000,4.000000,4.000000,,,,,,,,,,,,,,,,,,,,,,,,,,,,,,,,,,,,,,,,,,,,,,,,,,,,,,,,
1577418967.781844,98.000000,0.000000,4216.410156,4347.179688,4162.563965,4162.563965,4186.666504,450.000000,4.000000,,,,0.000000,4.000000,4.000000,0.000000,4.000000,4.000000,,,,,,,,,,,,,,,,,,,,,,,,,,,,,,,,,,,,,,,,,,,,,,,,,,,,,,,,
1577418967.789545,99.000000,0.000000,4195.897461,4322.563965,4182.051270,4158.461426,4177.948730,16221.000000,4.000000,,,,0.000000,4.000000,4.000000,0.000000,4.000000,4.000000,,,,,,,,,,,,,,,,,,,,,,,,,,,,,,,,,,,,,,,,,,,,,,,,,,,,,,,,
1577418967.797445,100.000000,0.000000,4198.974121,4334.358887,4195.897461,4157.436035,4184.102539,450.000000,4.000000,,,,0.000000,4.000000,4.000000,0.000000,4.000000,4.000000,,,,,,,,,,,,,,,,,,,,,,,,,,,,,,,,,,,,,,,,,,,,,,,,,,,,,,,,
1577418967.805246,101.000000,0.000000,4197.436035,4334.358887,4149.230957,4150.256348,4190.256348,450.000000,4.000000,,,,0.000000,4.000000,4.000000,0.000000,4.000000,4.000000,,,,,,,,,,,,,,,,,,,,,,,,,,,,,,,,,,,,,,,,,,,,,,,,,,,,,,,,
1577418967.813047,102.000000,0.000000,4191.794922,4328.717773,4109.230957,4147.692383,4181.025879,450.000000,4.000000,,,,0.000000,4.000000,4.000000,0.000000,4.000000,4.000000,,,,,,,,,,,,,,,,,,,,,,,,,,,,,,,,,,,,,,,,,,,,,,,,,,,,,,,,
1577418967.820748,103.000000,0.000000,4203.077148,4338.974121,4151.282227,4137.436035,4181.025879,16221.000000,4.000000,,,,0.000000,4.000000,4.000000,0.000000,4.000000,4.000000,,,,,,,,,,,,,,,,,,,,,,,,,,,,,,,,,,,,,,,,,,,,,,,,,,,,,,,,
1577418967.828648,104.000000,0.000000,4199.487305,4332.307617,4287.692383,4141.025879,4186.666504,450.000000,4.000000,,,,0.000000,4.000000,4.000000,0.000000,4.000000,4.000000,,,,,,,,,,,,,,,,,,,,,,,,,,,,,,,,,,,,,,,,,,,,,,,,,,,,,,,,
1577418967.836449,105.000000,0.000000,4213.333496,4325.641113,4278.461426,4150.769043,4192.307617,450.000000,4.000000,,,,0.000000,4.000000,4.000000,0.000000,4.000000,4.000000,,,,,,,,,,,,,,,,,,,,,,,,,,,,,,,,5.874676,1.943336,1.152642,1.009825,0.480617,0.590222,0.513925,0.891835,1.957820,1.576998,6.510109,2.959715,5.227897,82.545433,36.603458,1.595651,3.143552,0.959362,1.201447,0.514492,7.402505,2.709240,1.459530,1.138872,0.576946
1577418967.844350,106.000000,0.000000,4224.102539,4329.743652,4185.128418,4149.230957,4193.846191,450.000000,4.000000,,,,0.000000,4.000000,4.000000,0.000000,4.000000,4.000000,,,,,,,,,,,,,,,,,,,,,,,,,,,,,,,,,,,,,,,,,,,,,,,,,,,,,,,,
1577418967.852151,107.000000,0.000000,4215.897461,4338.974121,4093.333252,4156.410156,4195.897461,16221.000000,4.000000,,,,0.000000,4.000000,4.000000,0.000000,4.000000,4.000000,,,,,,,,,,,,,,,,,,,,,,,,,,,,,,,,,,,,,,,,,,,,,,,,,,,,,,,,
1577418967.859852,108.000000,0.000000,4235.384766,4340.000000,4096.410156,4144.615234,4196.410156,450.000000,4.000000,,,,0.000000,4.000000,4.000000,0.000000,4.000000,4.000000,,,,,,,,,,,,,,,,,,,,,,,,,,,,,,,,,,,,,,,,,,,,,,,,,,,,,,,,
1577418967.867652,109.000000,0.000000,4234.358887,4327.179688,4309.230957,4140.512695,4192.820313,450.000000,4.000000,,,,0.000000,4.000000,4.000000,0.000000,4.000000,4.000000,,,,,,,,,,,,,,,,,,,,,,,,,,,,,,,,,,,,,,,,,,,,,,,,,,,,,,,,
1577418967.875353,110.000000,0.000000,4239.487305,4331.282227,4323.589844,4154.358887,4214.358887,450.000000,4.000000,,,,0.000000,4.000000,4.000000,0.000000,4.000000,4.000000,,,,,,,,,,,,,,,,,,,,,,,,,,,,,,,,,,,,,,,,,,,,,,,,,,,,,,,,
1577418967.883154,111.000000,0.000000,4257.436035,4328.205078,4154.358887,4141.025879,4233.333496,16221.000000,4.000000,,,,0.000000,4.000000,4.000000,0.000000,4.000000,4.000000,,,,,,,,,,,,,,,,,,,,,,,,,,,,,,,,,,,,,,,,,,,,,,,,,,,,,,,,
1577418967.890855,112.000000,0.000000,4246.666504,4332.820313,4103.077148,4145.641113,4225.128418,450.000000,4.000000,,,,0.000000,4.000000,4.000000,0.000000,4.000000,4.000000,,,,,,,,,,,,,,,,,,,,,,,,,,,,,,,,,,,,,,,,,,,,,,,,,,,,,,,,
1577418967.898656,113.000000,0.000000,4279.487305,4363.077148,4121.025879,4139.487305,4229.230957,450.000000,4.000000,,,,0.000000,4.000000,4.000000,0.000000,4.000000,4.000000,,,,,,,,,,,,,,,,,,,,,,,,,,,,,,,,,,,,,,,,,,,,,,,,,,,,,,,,
1577418967.906357,114.000000,0.000000,4279.487305,4316.410156,4216.922852,4119.487305,4227.692383,450.000000,4.000000,,,,0.000000,4.000000,4.000000,0.000000,4.000000,4.000000,,,,,,,,,,,,,,,,,,,,,,,,,,,,,,,,,,,,,,,,,,,,,,,,,,,,,,,,
1577418967.914158,115.000000,0.000000,4347.179688,4340.512695,4129.743652,4152.307617,4301.025879,16221.000000,4.000000,,,,0.000000,4.000000,4.000000,0.000000,4.000000,4.000000,,,,,,,,,,,,,,,,,,,,,,,,,,,,,,,,,,,,,,,,,,,,,,,,,,,,,,,,
1577418967.921859,116.000000,0.000000,4446.666504,4377.948730,4120.512695,4135.897461,4368.205078,450.000000,4.000000,,,,0.000000,4.000000,4.000000,0.000000,4.000000,4.000000,,,,,,,,,,,,,,,,,,,,,,,,,,,,,,,,,,,,,,,,,,,,,,,,,,,,,,,,
1577418967.929759,117.000000,0.000000,4226.153809,4224.102539,4638.461426,4175.384766,4223.077148,450.000000,4.000000,,,,0.000000,4.000000,4.000000,0.000000,4.000000,4.000000,,,,,,,,,,,,,,,,,,,,,,,,,,,,,,,,,,,,,,,,,,,,,,,,,,,,,,,,
1577418967.937560,118.000000,0.000000,4517.948730,4463.589844,3756.410156,4175.897461,4381.025879,450.000000,4.000000,,,,0.000000,4.000000,4.000000,0.000000,4.000000,4.000000,,,,,,,,,,,,,,,,,,,,,,,,,,,,,,,,,,,,,,,,,,,,,,,,,,,,,,,,
1577418967.945461,119.000000,0.000000,4788.717773,4509.743652,3898.461426,4052.307617,4556.922852,16221.000000,4.000000,,,,0.000000,4.000000,4.000000,0.000000,4.000000,4.000000,,,,,,,,,,,,,,,,,,,,,,,,,,,,,,,,,,,,,,,,,,,,,,,,,,,,,,,,
1577418967.953262,120.000000,0.000000,3907.692383,3915.384521,6214.358887,4239.487305,4045.128174,450.000000,4.000000,,,,0.000000,4.000000,4.000000,0.000000,4.000000,4.000000,,,,,,,,,,,,,,,,,,,,,,,,,,,,,,,,,,,,,,,,,,,,,,,,,,,,,,,,
1577418967.961162,121.000000,0.000000,3658.974365,3997.435791,4296.410156,3984.102539,3675.384521,450.000000,4.000000,,,,0.000000,4.000000,4.000000,0.000000,4.000000,4.000000,,,,,,,,,,,,,,,,,,,,,,,,,,,,,,,,6.243675,2.045660,1.336064,1.015076,0.530587,0.701456,0.493673,1.018619,1.778236,1.797853,5.764958,2.422631,5.820872,83.803635,36.556927,1.859343,2.631844,1.046998,1.102444,0.478886,7.837663,2.751795,1.759721,1.215132,0.576629
1577418967.968963,122.000000,0.000000,4145.641113,4346.153809,2342.564209,3532.820557,3837.435791,450.000000,4.000000,,,,0.000000,4.000000,4.000000,0.000000,4.000000,4.000000,,,,,,,,,,,,,,,,,,,,,,,,,,,,,,,,,,,,,,,,,,,,,,,,,,,,,,,,
1577418967.976864,123.000000,0.000000,4199.487305,4287.179688,4148.205078,3936.923096,4071.281982,16221.000000,4.000000,,,,0.000000,4.000000,4.000000,0.000000,4.000000,4.000000,,,,,,,,,,,,,,,,,,,,,,,,,,,,,,,,,,,,,,,,,,,,,,,,,,,,,,,,
1577418967.984665,124.000000,0.000000,4326.153809,4342.051270,4028.205078,4118.974121,4213.846191,450.000000,4.000000,,,,0.000000,4.000000,4.000000,0.000000,4.000000,4.000000,,,,,,,,,,,,,,,,,,,,,,,,,,,,,,,,,,,,,,,,,,,,,,,,,,,,,,,,
1577418967.992466,125.000000,0.000000,4456.922852,4384.615234,3535.384521,3998.461426,4282.563965,450.000000,4.000000,,,,0.000000,4.000000,4.000000,0.000000,4.000000,4.000000,,,,,,,,,,,,,,,,,,,,,,,,,,,,,,,,,,,,,,,,,,,,,,,,,,,,,,,,
1577418968.000166,126.000000,0.000000,4515.897461,4388.205078,3990.769287,4144.615234,4386.666504,450.000000,4.000000,,,,0.000000,4.000000,4.000000,0.000000,4.000000,4.000000,,,,,,,,,,,,,,,,,,,,,,,,,,,,,,,,,,,,,,,,,,,,,,,,,,,,,,,,
1577418968.008067,127.000000,0.000000,4584.102539,4397.948730,3921.538574,4166.666504,4438.461426,238.000000,4.000000,,,,0.000000,4.000000,4.000000,0.000000,4.000000,4.000000,,,,,,,,,,,,,,,,,,,,,,,,,,,,,,,,,,,,,,,,,,,,,,,,,,,,,,,,
1577418968.015868,0.000000,0.000000,4593.333496,4372.820313,3955.384521,4180.000000,4463.589844,450.000000,4.000000,,,,0.000000,4.000000,4.000000,0.000000,4.000000,4.000000,,,,,,,,,,,,,,,,,,,,,,,,,,,,,,,,,,,,,,,,,,,,,,,,,,,,,,,,
1577418968.023768,1.000000,0.000000,4620.512695,4377.948730,3958.974365,4198.974121,4495.384766,450.000000,4.000000,,,,0.000000,4.000000,4.000000,0.000000,4.000000,4.000000,,,,,,,,,,,,,,,,,,,,,,,,,,,,,,,,,,,,,,,,,,,,,,,,,,,,,,,,
1577418968.031569,2.000000,0.000000,4626.153809,4391.282227,3957.948730,4191.282227,4498.974121,16132.000000,4.000000,,,,0.000000,4.000000,4.000000,0.000000,4.000000,4.000000,,,,,,,,,,,,,,,,,,,,,,,,,,,,,,,,,,,,,,,,,,,,,,,,,,,,,,,,
1577418968.039470,3.000000,0.000000,4633.333496,4396.922852,3989.743652,4206.153809,4511.794922,450.000000,4.000000,,,,0.000000,4.000000,4.000000,0.000000,4.000000,4.000000,,,,,,,,,,,,,,,,,,,,,,,,,,,,,,,,,,,,,,,,,,,,,,,,,,,,,,,,
1577418968.047271,4.000000,0.000000,4654.871582,4371.282227,3972.820557,4209.743652,4530.769043,16137.000000,4.000000,,,,0.000000,4.000000,4.000000,0.000000,4.000000,4.000000,,,,,,,,,,,,,,,,,,,,,,,,,,,,,,,,,,,,,,,,,,,,,,,,,,,,,,,,
1577418968.055172,5.000000,0.000000,4667.692383,4359.487305,3990.769287,4217.436035,4545.641113,450.000000,4.000000,,,,0.000000,4.000000,4.000000,1.000000,4.000000,4.000000,,,,,,,,,,,,,,,,,,,,,,,,,,,,,,,,,,,,,,,,,,,,,,,,,,,,,,,,
1577418968.062972,6.000000,0.000000,4664.615234,4389.743652,3981.025635,4214.871582,4544.102539,77.000000,4.000000,,,,0.000000,4.000000,4.000000,1.000000,4.000000,4.000000,,,,,,,,,,,,,,,,,,,,,,,,,,,,,,,,,,,,,,,,,,,,,,,,,,,,,,,,
1577418968.070673,7.000000,0.000000,4660.000000,4387.692383,3986.666748,4213.333496,4539.487305,450.000000,4.000000,,,,0.000000,4.000000,4.000000,1.000000,4.000000,4.000000,,,,,,,,,,,,,,,,,,,,,,,,,,,,,,,,,,,,,,,,,,,,,,,,,,,,,,,,
1577418968.078474,8.000000,0.000000,4664.102539,4358.974121,4001.025635,4220.512695,4543.589844,450.000000,4.000000,,,,0.000000,4.000000,4.000000,1.000000,4.000000,4.000000,,,,,,,,,,,,,,,,,,,,,,,,,,,,,,,,,,,,,,,,,,,,,,,,,,,,,,,,
1577418968.086175,9.000000,0.000000,4661.538574,4368.717773,3982.564209,4216.922852,4543.589844,16160.000000,4.000000,,,,0.000000,4.000000,4.000000,1.000000,4.000000,4.000000,,,,,,,,,,,,,,,,,,,,,,,,,,,,,,,,6.237930,2.476408,1.540177,1.145832,0.760684,0.897581,0.556462,1.159228,1.594389,2.117612,5.244929,2.638473,6.834705,84.965446,38.355282,2.087708,2.222513,1.211676,1.012819,0.491061,7.948444,3.301789,2.075969,1.325479,0.661850
1577418968.093976,10.000000,0.000000,4649.230957,4380.512695,3993.333252,4214.358887,4538.974121,450.000000,4.000000,,,,0.000000,4.000000,4.000000,1.000000,4.000000,4.000000,,,,,,,,,,,,,,,,,,,,,,,,,,,,,,,,,,,,,,,,,,,,,,,,,,,,,,,,
1577418968.101677,11.000000,0.000000,4648.205078,4365.641113,4004.615479,4212.820313,4536.922852,16172.000000,4.000000,,,,0.000000,4.000000,4.000000,1.000000,4.000000,4.000000,,,,,,,,,,,,,,,,,,,,,,,,,,,,,,,,,,,,,,,,,,,,,,,,,,,,,,,,
1577418968.109478,12.000000,0.000000,4646.666504,4357.948730,4001.025635,4201.025879,4524.615234,450.000000,4.000000,,,,0.000000,4.000000,4.000000,1.000000,4.000000,4.000000,,,,,,,,,,,,,,,,,,,,,,,,,,,,,,,,,,,,,,,,,,,,,,,,,,,,,,,,
1577418968.117178,13.000000,0.000000,4629.743652,4365.641113,4004.615479,4190.256348,4505.128418,450.000000,4.000000,,,,0.000000,4.000000,4.000000,1.000000,4.000000,4.000000,,,,,,,,,,,,,,,,,,,,,,,,,,,,,,,,,,,,,,,,,,,,,,,,,,,,,,,,
1577418968.125079,14.000000,0.000000,4619.487305,4365.128418,3987.692383,4185.641113,4494.358887,450.000000,4.000000,,,,0.000000,4.000000,4.000000,1.000000,4.000000,4.000000,,,,,,,,,,,,,,,,,,,,,,,,,,,,,,,,,,,,,,,,,,,,,,,,,,,,,,,,
1577418968.132880,15.000000,0.000000,4614.871582,4365.128418,4003.076904,4197.948730,4494.871582,16172.000000,4.000000,,,,0.000000,4.000000,4.000000,1.000000,4.000000,4.000000,,,,,,,,,,,,,,,,,,,,,,,,,,,,,,,,,,,,,,,,,,,,,,,,,,,,,,,,
1577418968.140781,16.000000,0.000000,4605.128418,4374.358887,4015.384521,4201.025879,4486.153809,0.000000,4.000000,,,,0.000000,4.000000,4.000000,1.000000,4.000000,4.000000,,,,,,,,,,,,,,,,,,,,,,,,,,,,,,,,,,,,,,,,,,,,,,,,,,,,,,,,
1577418968.148582,17.000000,0.000000,4593.333496,4364.102539,3988.205078,4176.922852,4459.487305,0.000000,4.000000,,,,0.000000,4.000000,4.000000,1.000000,4.000000,4.000000,,,,,,,,,,,,,,,,,,,,,,,,,,,,,,,,,,,,,,,,,,,,,,,,,,,,,,,,
1577418968.156382,18.000000,0.000000,4574.358887,4353.846191,3991.281982,4170.769043,4437.436035,0.000000,4.000000,,,,0.000000,4.000000,4.000000,1.000000,4.000000,4.000000,,,,,,,,,,,,,,,,,,,,,,,,,,,,,,,,,,,,,,,,,,,,,,,,,,,,,,,,
1577418968.164083,19.000000,0.000000,4551.794922,4367.179688,3992.820557,4186.153809,4423.077148,0.000000,4.000000,,,,0.000000,4.000000,4.000000,1.000000,4.000000,4.000000,,,,,,,,,,,,,,,,,,,,,,,,,,,,,,,,,,,,,,,,,,,,,,,,,,,,,,,,
1577418968.171884,20.000000,0.000000,4523.589844,4358.974121,3989.743652,4189.743652,4403.077148,0.000000,4.000000,,,,0.000000,4.000000,4.000000,1.000000,4.000000,4.000000,,,,,,,,,,,,,,,,,,,,,,,,,,,,,,,,,,,,,,,,,,,,,,,,,,,,,,,,
1577418968.179584,21.000000,0.000000,4497.436035,4327.179688,3995.897461,4175.897461,4380.512695,0.000000,4.000000,,,,0.000000,4.000000,4.000000,1.000000,4.000000,4.000000,,,,,,,,,,,,,,,,,,,,,,,,,,,,,,,,,,,,,,,,,,,,,,,,,,,,,,,,
1577418968.187485,22.000000,0.000000,4473.846191,4332.820313,3986.153809,4168.205078,4360.000000,0.000000,4.000000,,,,0.000000,4.000000,4.000000,1.000000,4.000000,4.000000,,,,,,,,,,,,,,,,,,,,,,,,,,,,,,,,,,,,,,,,,,,,,,,,,,,,,,,,
1577418968.195286,23.000000,0.000000,4447.179688,4369.743652,3994.871826,4181.025879,4340.000000,0.000000,4.000000,,,,0.000000,4.000000,4.000000,1.000000,4.000000,4.000000,,,,,,,,,,,,,,,,,,,,,,,,,,,,,,,,,,,,,,,,,,,,,,,,,,,,,,,,
1577418968.203187,24.000000,0.000000,4418.461426,4365.128418,3995.384521,4175.384766,4311.282227,0.000000,4.000000,,,,0.000000,4.000000,4.000000,1.000000,4.000000,4.000000,,,,,,,,,,,,,,,,,,,,,,,,,,,,,,,,,,,,,,,,,,,,,,,,,,,,,,,,
1577418968.210987,25.000000,0.000000,4385.128418,4341.538574,3983.076904,4151.794922,4281.538574,0.000000,4.000000,,,,0.000000,4.000000,4.000000,1.000000,4.000000,4.000000,,,,,,,,,,,,,,,,,,,,,,,,,,,,,,,,8.403414,6.248418,4.341681,2.871766,2.705575,1.678529,1.214055,1.836640,1.958060,3.143559,8.718735,8.784904,13.336374,92.050125,62.734509,3.544574,3.002664,2.267180,1.372945,1.033861,10.929739,7.662150,4.597427,2.639937,1.478648
1577418968.218888,26.000000,0.000000,4365.128418,4356.410156,3988.718018,4153.846191,4268.717773,0.000000,4.000000,,,,0.000000,4.000000,4.000000,1.000000,4.000000,4.000000,,,,,,,,,,,,,,,,,,,,,,,,,,,,,,,,,,,,,,,,,,,,,,,,,,,,,,,,
1577418968.226689,27.000000,0.000000,4356.922852,4360.000000,3993.846191,4168.205078,4259.487305,0.000000,4.000000,,,,0.000000,4.000000,4.000000,1.000000,4.000000,4.000000,,,,,,,,,,,,,,,,,,,,,,,,,,,,,,,,,,,,,,,,,,,,,,,,,,,,,,,,
1577418968.234590,28.000000,0.000000,4329.230957,4330.256348,4005.128174,4166.666504,4240.512695,0.000000,4.000000,,,,0.000000,4.000000,4.000000,1.000000,4.000000,4.000000,,,,,,,,,,,,,,,,,,,,,,,,,,,,,,,,,,,,,,,,,,,,,,,,,,,,,,,,
1577418968.242390,29.000000,0.000000,4307.179688,4343.077148,4013.333252,4162.563965,4230.769043,0.000000,4.000000,,,,0.000000,4.000000,4.000000,1.000000,4.000000,4.000000,,,,,,,,,,,,,,,,,,,,,,,,,,,,,,,,,,,,,,,,,,,,,,,,,,,,,,,,
1577418968.250091,30.000000,0.000000,4296.410156,4377.948730,4017.435791,4171.282227,4223.589844,0.000000,4.000000,,,,0.000000,4.000000,4.000000,1.000000,4.000000,4.000000,,,,,,,,,,,,,,,,,,,,,,,,,,,,,,,,,,,,,,,,,,,,,,,,,,,,,,,,
1577418968.257892,31.000000,0.000000,4265.128418,4354.871582,4017.435791,4164.102539,4197.948730,0.000000,4.000000,,,,0.000000,4.000000,4.000000,1.000000,4.000000,4.000000,,,,,,,,,,,,,,,,,,,,,,,,,,,,,,,,,,,,,,,,,,,,,,,,,,,,,,,,
1577418968.265593,32.000000,0.000000,4241.025879,4329.230957,3993.846191,4142.563965,4179.487305,0.000000,4.000000,,,,0.000000,4.000000,4.000000,1.000000,4.000000,4.000000,,,,,,,,,,,,,,,,,,,,,,,,,,,,,,,,,,,,,,,,,,,,,,,,,,,,,,,,
1577418968.273394,33.000000,0.000000,4246.153809,4358.974121,4000.000000,4153.846191,4188.717773,0.000000,4.000000,,,,0.000000,4.000000,4.000000,1.000000,4.000000,4.000000,,,,,,,,,,,,,,,,,,,,,,,,,,,,,,,,,,,,,,,,,,,,,,,,,,,,,,,,
1577418968.281095,34.000000,0.000000,4244.102539,4382.563965,4018.974365,4173.846191,4193.846191,0.000000,4.000000,,,,0.000000,4.000000,4.000000,1.000000,4.000000,4.000000,,,,,,,,,,,,,,,,,,,,,,,,,,,,,,,,,,,,,,,,,,,,,,,,,,,,,,,,
1577418968.288896,35.000000,0.000000,4214.871582,4363.589844,4000.000000,4161.025879,4174.358887,0.000000,4.000000,,,,0.000000,4.000000,4.000000,1.000000,4.000000,4.000000,,,,,,,,,,,,,,,,,,,,,,,,,,,,,,,,,,,,,,,,,,,,,,,,,,,,,,,,
1577418968.296597,36.000000,0.000000,4186.666504,4339.487305,3996.923096,4147.692383,4163.589844,0.000000,4.000000,,,,0.000000,4.000000,4.000000,1.000000,4.000000,4.000000,,,,,,,,,,,,,,,,,,,,,,,,,,,,,,,,,,,,,,,,,,,,,,,,,,,,,,,,
1577418968.304397,37.000000,0.000000,4189.230957,4353.846191,4007.179443,4152.820313,4173.333496,0.000000,4.000000,,,,0.000000,4.000000,4.000000,1.000000,4.000000,4.000000,,,,,,,,,,,,,,,,,,,,,,,,,,,,,,,,,,,,,,,,,,,,,,,,,,,,,,,,
1577418968.312098,38.000000,0.000000,4198.974121,4378.461426,4017.435791,4160.000000,4176.410156,0.000000,4.000000,,,,0.000000,4.000000,4.000000,1.000000,4.000000,4.000000,,,,,,,,,,,,,,,,,,,,,,,,,,,,,,,,,,,,,,,,,,,,,,,,,,,,,,,,
1577418968.319999,39.000000,0.000000,4187.692383,4363.589844,4030.256348,4160.000000,4159.487305,0.000000,4.000000,,,,0.000000,4.000000,4.000000,1.000000,4.000000,4.000000,,,,,,,,,,,,,,,,,,,,,,,,,,,,,,,,,,,,,,,,,,,,,,,,,,,,,,,,
1577418968.327800,40.000000,0.000000,4175.384766,4345.128418,4018.461426,4156.410156,4148.717773,0.000000,4.000000,,,,0.000000,4.000000,4.000000,1.000000,4.000000,4.000000,,,,,,,,,,,,,,,,,,,,,,,,,,,,,,,,,,,,,,,,,,,,,,,,,,,,,,,,
1577418968.335601,41.000000,0.000000,4183.589844,4358.461426,4023.076904,4168.205078,4161.538574,0.000000,4.000000,,,,0.000000,4.000000,4.000000,1.000000,4.000000,4.000000,,,,,,,,,,,,,,,,,,,,,,,,,,,,,,,,19.618614,19.346640,14.941440,9.024566,9.052525,4.129607,3.503941,4.047982,3.862937,6.018470,24.038628,30.844044,35.713982,116.827530,148.385284,9.552760,6.928078,5.808439,3.005987,3.106648,25.374392,21.969692,13.837992,7.414976,4.132840
1577418968.343502,42.000000,0.000000,4191.794922,4369.230957,4032.307617,4175.897461,4169.230957,0.000000,4.000000,,,,0.000000,4.000000,4.000000,1.000000,4.000000,4.000000,,,,,,,,,,,,,,,,,,,,,,,,,,,,,,,,,,,,,,,,,,,,,,,,,,,,,,,,
1577418968.351303,43.000000,0.000000,4174.871582,4344.102539,4016.923096,4153.333496,4154.358887,0.000000,4.000000,,,,0.000000,4.000000,4.000000,1.000000,4.000000,4.000000,,,,,,,,,,,,,,,,,,,,,,,,,,,,,,,,,,,,,,,,,,,,,,,,,,,,,,,,
1577418968.359204,44.000000,0.000000,4156.922852,4331.794922,4022.051270,4140.000000,4141.538574,0.000000,4.000000,,,,0.000000,4.000000,4.000000,1.000000,4.000000,4.000000,,,,,,,,,,,,,,,,,,,,,,,,,,,,,,,,,,,,,,,,,,,,,,,,,,,,,,,,
1577418968.367105,45.000000,0.000000,4163.077148,4357.436035,4029.230713,4150.256348,4145.641113,0.000000,4.000000,,,,0.000000,4.000000,4.000000,1.000000,4.000000,4.000000,,,,,,,,,,,,,,,,,,,,,,,,,,,,,,,,,,,,,,,,,,,,,,,,,,,,,,,,
1577418968.374906,46.000000,0.000000,4164.615234,4370.256348,4031.281982,4151.794922,4149.230957,0.000000,4.000000,,,,0.000000,4.000000,4.000000,1.000000,4.000000,4.000000,,,,,,,,,,,,,,,,,,,,,,,,,,,,,,,,,,,,,,,,,,,,,,,,,,,,,,,,
1577418968.382807,47.000000,0.000000,4144.102539,4364.615234,4025.641113,4136.922852,4131.794922,0.000000,4.000000,,,,0.000000,4.000000,4.000000,1.000000,4.000000,4.000000,,,,,,,,,,,,,,,,,,,,,,,,,,,,,,,,,,,,,,,,,,,,,,,,,,,,,,,,
1577418968.390608,48.000000,0.000000,4132.307617,4354.358887,4016.923096,4133.846191,4115.897461,0.000000,4.000000,,,,0.000000,4.000000,4.000000,1.000000,4.000000,4.000000,,,,,,,,,,,,,,,,,,,,,,,,,,,,,,,,,,,,,,,,,,,,,,,,,,,,,,,,
1577418968.398509,49.000000,0.000000,4140.512695,4345.641113,4037.948730,4150.769043,4129.230957,0.000000,4.000000,,,,0.000000,4.000000,4.000000,1.000000,4.000000,4.000000,,,,,,,,,,,,,,,,,,,,,,,,,,,,,,,,,,,,,,,,,,,,,,,,,,,,,,,,
1577418968.406310,50.000000,0.000000,4146.153809,4351.282227,4035.897461,4153.846191,4144.615234,0.000000,4.000000,,,,0.000000,4.000000,4.000000,1.000000,4.000000,4.000000,,,,,,,,,,,,,,,,,,,,,,,,,,,,,,,,,,,,,,,,,,,,,,,,,,,,,,,,
1577418968.414211,51.000000,0.000000,4137.948730,4361.538574,4018.974365,4143.589844,4138.461426,0.000000,4.000000,,,,0.000000,4.000000,4.000000,1.000000,4.000000,4.000000,,,,,,,,,,,,,,,,,,,,,,,,,,,,,,,,,,,,,,,,,,,,,,,,,,,,,,,,
1577418968.422012,52.000000,0.000000,4136.410156,4362.051270,4033.846191,4153.846191,4138.974121,0.000000,4.000000,,,,0.000000,4.000000,4.000000,1.000000,4.000000,4.000000,,,,,,,,,,,,,,,,,,,,,,,,,,,,,,,,,,,,,,,,,,,,,,,,,,,,,,,,
1577418968.429913,53.000000,0.000000,4146.153809,4356.410156,4040.512939,4168.717773,4157.436035,0.000000,4.000000,,,,0.000000,4.000000,4.000000,1.000000,4.000000,4.000000,,,,,,,,,,,,,,,,,,,,,,,,,,,,,,,,,,,,,,,,,,,,,,,,,,,,,,,,
1577418968.437714,54.000000,0.000000,4137.948730,4354.871582,4041.538574,4165.128418,4161.538574,0.000000,4.000000,,,,0.000000,4.000000,4.000000,1.000000,4.000000,4.000000,,,,,,,,,,,,,,,,,,,,,,,,,,,,,,,,,,,,,,,,,,,,,,,,,,,,,,,,
1577418968.445615,55.000000,0.000000,4117.436035,4342.563965,4031.281982,4146.153809,4141.538574,0.000000,4.000000,,,,0.000000,4.000000,4.000000,1.000000,4.000000,4.000000,,,,,,,,,,,,,,,,,,,,,,,,,,,,,,,,,,,,,,,,,,,,,,,,,,,,,,,,
1577418968.453416,56.000000,0.000000,4111.282227,4334.871582,4021.538574,4130.769043,4128.717773,0.000000,4.000000,,,,0.000000,4.000000,4.000000,1.000000,4.000000,4.000000,,,,,,,,,,,,,,,,,,,,,,,,,,,,,,,,,,,,,,,,,,,,,,,,,,,,,,,,
1577418968.461317,57.000000,0.000000,4123.589844,4365.128418,4034.871826,4141.025879,4140.512695,0.000000,4.000000,,,,0.000000,4.000000,4.000000,1.000000,4.000000,4.000000,,,,,,,,,,,,,,,,,,,,,,,,,,,,,,,,45.386208,46.207134,37.176876,21.615047,21.550350,9.136805,8.224619,8.549706,7.971553,11.530989,58.216755,76.116791,81.920074,167.543671,322.458862,23.170576,15.472985,13.045757,6.503102,7.484380,58.562305,50.588703,33.193958,17.282894,9.330048
1577418968.469118,58.000000,0.000000,4130.769043,4384.102539,4035.384521,4150.256348,4147.179688,0.000000,4.000000,,,,0.000000,4.000000,4.000000,1.000000,4.000000,4.000000,,,,,,,,,,,,,,,,,,,,,,,,,,,,,,,,,,,,,,,,,,,,,,,,,,,,,,,,
1577418968.477019,59.000000,0.000000,4124.615234,4356.410156,4035.384521,4135.897461,4136.410156,0.000000,4.000000,,,,0.000000,4.000000,4.000000,1.000000,4.000000,4.000000,,,,,,,,,,,,,,,,,,,,,,,,,,,,,,,,,,,,,,,,,,,,,,,,,,,,,,,,
1577418968.484820,60.000000,0.000000,4129.743652,4340.512695,4038.974365,4140.512695,4140.000000,0.000000,4.000000,,,,0.000000,4.000000,4.000000,1.000000,4.000000,4.000000,,,,,,,,,,,,,,,,,,,,,,,,,,,,,,,,,,,,,,,,,,,,,,,,,,,,,,,,
1577418968.492721,61.000000,0.000000,4143.077148,4356.922852,4042.564209,4164.102539,4157.436035,0.000000,4.000000,,,,0.000000,4.000000,4.000000,1.000000,4.000000,4.000000,,,,,,,,,,,,,,,,,,,,,,,,,,,,,,,,,,,,,,,,,,,,,,,,,,,,,,,,
1577418968.500622,62.000000,0.000000,4135.384766,4358.974121,4049.743652,4160.512695,4154.358887,0.000000,4.000000,,,,0.000000,4.000000,4.000000,1.000000,4.000000,4.000000,,,,,,,,,,,,,,,,,,,,,,,,,,,,,,,,,,,,,,,,,,,,,,,,,,,,,,,,
1577418968.508423,63.000000,0.000000,4119.487305,4345.128418,4025.641113,4133.333496,4134.871582,0.000000,4.000000,,,,0.000000,4.000000,4.000000,1.000000,4.000000,4.000000,,,,,,,,,,,,,,,,,,,,,,,,,,,,,,,,,,,,,,,,,,,,,,,,,,,,,,,,
1577418968.516224,64.000000,0.000000,4121.538574,4341.025879,4026.666748,4134.358887,4138.974121,450.000000,4.000000,,,,0.000000,4.000000,4.000000,1.000000,4.000000,4.000000,,,,,,,,,,,,,,,,,,,,,,,,,,,,,,,,,,,,,,,,,,,,,,,,,,,,,,,,
1577418968.524125,65.000000,0.000000,4133.333496,4351.794922,4053.846191,4152.820313,4156.922852,450.000000,4.000000,,,,0.000000,4.000000,4.000000,1.000000,4.000000,4.000000,,,,,,,,,,,,,,,,,,,,,,,,,,,,,,,,,,,,,,,,,,,,,,,,,,,,,,,,
1577418968.532026,66.000000,0.000000,4127.179688,4348.717773,4044.615479,4137.436035,4151.794922,16208.000000,4.000000,,,,0.000000,4.000000,4.000000,1.000000,4.000000,4.000000,,,,,,,,,,,,,,,,,,,,,,,,,,,,,,,,,,,,,,,,,,,,,,,,,,,,,,,,
1577418968.539827,67.000000,0.000000,4112.307617,4337.436035,4039.487061,4122.563965,4137.436035,450.000000,4.000000,,,,0.000000,4.000000,4.000000,1.000000,4.000000,4.000000,,,,,,,,,,,,,,,,,,,,,,,,,,,,,,,,,,,,,,,,,,,,,,,,,,,,,,,,
1577418968.547728,68.000000,0.000000,4116.410156,4361.538574,4037.435791,4135.897461,4137.948730,16194.000000,4.000000,,,,0.000000,4.000000,4.000000,1.000000,4.000000,4.000000,,,,,,,,,,,,,,,,,,,,,,,,,,,,,,,,,,,,,,,,,,,,,,,,,,,,,,,,
1577418968.555529,69.000000,0.000000,4118.974121,4377.948730,4036.923096,4138.974121,4137.948730,450.000000,4.000000,,,,0.000000,4.000000,4.000000,1.000000,4.000000,4.000000,,,,,,,,,,,,,,,,,,,,,,,,,,,,,,,,,,,,,,,,,,,,,,,,,,,,,,,,
1577418968.563430,70.000000,0.000000,4107.692383,4354.871582,4046.666748,4129.743652,4127.692383,280.000000,4.000000,,,,0.000000,4.000000,4.000000,2.000000,4.000000,4.000000,,,,,,,,,,,,,,,,,,,,,,,,,,,,,,,,,,,,,,,,,,,,,,,,,,,,,,,,
1577418968.571231,71.000000,0.000000,4111.282227,4345.641113,4043.076904,4130.769043,4125.128418,450.000000,4.000000,,,,0.000000,4.000000,4.000000,2.000000,4.000000,4.000000,,,,,,,,,,,,,,,,,,,,,,,,,,,,,,,,,,,,,,,,,,,,,,,,,,,,,,,,
1577418968.579132,72.000000,0.000000,4127.179688,4356.922852,4053.846191,4143.077148,4140.000000,450.000000,4.000000,,,,0.000000,4.000000,4.000000,2.000000,4.000000,4.000000,,,,,,,,,,,,,,,,,,,,,,,,,,,,,,,,,,,,,,,,,,,,,,,,,,,,,,,,
1577418968.586933,73.000000,0.000000,4132.820313,4350.256348,4054.358887,4145.641113,4148.205078,16170.000000,4.000000,,,,0.000000,4.000000,4.000000,2.000000,4.000000,4.000000,,,,,,,,,,,,,,,,,,,,,,,,,,,,,,,,85.167976,85.430534,69.802277,39.834633,39.171711,16.542955,15.116467,15.108886,13.979909,19.287607,109.790527,141.866180,149.611130,240.462326,573.134094,44.577679,28.210625,23.635130,11.659694,13.964301,110.003098,91.723953,61.665028,31.655579,16.627724
1577418968.594834,74.000000,0.000000,4127.179688,4348.717773,4042.051270,4134.871582,4145.128418,450.000000,4.000000,,,,0.000000,4.000000,4.000000,2.000000,4.000000,4.000000,,,,,,,,,,,,,,,,,,,,,,,,,,,,,,,,,,,,,,,,,,,,,,,,,,,,,,,,
1577418968.602635,75.000000,0.000000,4130.256348,4371.794922,4052.307617,4138.461426,4150.256348,16222.000000,4.000000,,,,0.000000,4.000000,4.000000,2.000000,4.000000,4.000000,,,,,,,,,,,,,,,,,,,,,,,,,,,,,,,,,,,,,,,,,,,,,,,,,,,,,,,,
1577418968.610536,76.000000,0.000000,4136.410156,4373.333496,4042.564209,4146.666504,4149.743652,450.000000,4.000000,,,,0.000000,4.000000,4.000000,2.000000,4.000000,4.000000,,,,,,,,,,,,,,,,,,,,,,,,,,,,,,,,,,,,,,,,,,,,,,,,,,,,,,,,
1577418968.618337,77.000000,0.000000,4116.410156,4346.666504,4027.692383,4133.846191,4131.282227,450.000000,4.000000,,,,0.000000,4.000000,4.000000,2.000000,4.000000,4.000000,,,,,,,,,,,,,,,,,,,,,,,,,,,,,,,,,,,,,,,,,,,,,,,,,,,,,,,,
1577418968.626238,78.000000,0.000000,4103.077148,4339.487305,4033.846191,4121.538574,4123.077148,450.000000,4.000000,,,,0.000000,4.000000,4.000000,2.000000,4.000000,4.000000,,,,,,,,,,,,,,,,,,,,,,,,,,,,,,,,,,,,,,,,,,,,,,,,,,,,,,,,
1577418968.634039,79.000000,0.000000,4124.102539,4353.846191,4046.153809,4138.461426,4141.538574,16222.000000,4.000000,,,,0.000000,4.000000,4.000000,2.000000,4.000000,4.000000,,,,,,,,,,,,,,,,,,,,,,,,,,,,,,,,,,,,,,,,,,,,,,,,,,,,,,,,
1577418968.641940,80.000000,0.000000,4147.179688,4353.846191,4061.538574,4166.666504,4165.128418,450.000000,4.000000,,,,0.000000,4.000000,4.000000,2.000000,4.000000,4.000000,,,,,,,,,,,,,,,,,,,,,,,,,,,,,,,,,,,,,,,,,,,,,,,,,,,,,,,,
1577418968.649741,81.000000,0.000000,4154.358887,4349.230957,4053.333252,4167.179688,4170.769043,450.000000,4.000000,,,,0.000000,4.000000,4.000000,2.000000,4.000000,4.000000,,,,,,,,,,,,,,,,,,,,,,,,,,,,,,,,,,,,,,,,,,,,,,,,,,,,,,,,
1577418968.657642,82.000000,0.000000,4156.922852,4353.333496,4054.358887,4153.333496,4167.692383,450.000000,4.000000,,,,0.000000,4.000000,4.000000,2.000000,4.000000,4.000000,,,,,,,,,,,,,,,,,,,,,,,,,,,,,,,,,,,,,,,,,,,,,,,,,,,,,,,,
1577418968.665443,83.000000,0.000000,4156.922852,4363.077148,4064.615479,4150.769043,4167.692383,16222.000000,4.000000,,,,0.000000,4.000000,4.000000,2.000000,4.000000,4.000000,,,,,,,,,,,,,,,,,,,,,,,,,,,,,,,,,,,,,,,,,,,,,,,,,,,,,,,,
1577418968.673344,84.000000,0.000000,4146.153809,4355.897461,4054.358887,4146.153809,4162.051270,450.000000,4.000000,,,,0.000000,4.000000,4.000000,2.000000,4.000000,4.000000,,,,,,,,,,,,,,,,,,,,,,,,,,,,,,,,,,,,,,,,,,,,,,,,,,,,,,,,
1577418968.681245,85.000000,0.000000,4141.538574,4341.025879,4049.230713,4142.051270,4160.512695,450.000000,4.000000,,,,0.000000,4.000000,4.000000,2.000000,4.000000,4.000000,,,,,,,,,,,,,,,,,,,,,,,,,,,,,,,,,,,,,,,,,,,,,,,,,,,,,,,,
1577418968.689046,86.000000,0.000000,4160.512695,4359.487305,4043.589844,4142.051270,4168.717773,450.000000,4.000000,,,,0.000000,4.000000,4.000000,2.000000,4.000000,4.000000,,,,,,,,,,,,,,,,,,,,,,,,,,,,,,,,,,,,,,,,,,,,,,,,,,,,,,,,
1577418968.696847,87.000000,0.000000,4187.692383,4382.051270,4050.769287,4142.563965,4174.871582,16222.000000,4.000000,,,,0.000000,4.000000,4.000000,2.000000,4.000000,4.000000,,,,,,,,,,,,,,,,,,,,,,,,,,,,,,,,,,,,,,,,,,,,,,,,,,,,,,,,
1577418968.704748,88.000000,0.000000,4200.512695,4373.846191,4059.487061,4139.487305,4180.000000,450.000000,4.000000,,,,0.000000,4.000000,4.000000,2.000000,4.000000,4.000000,,,,,,,,,,,,,,,,,,,,,,,,,,,,,,,,,,,,,,,,,,,,,,,,,,,,,,,,
1577418968.712549,89.000000,0.000000,4217.948730,4359.487305,4049.743652,4131.794922,4193.333496,450.000000,4.000000,,,,0.000000,4.000000,4.000000,2.000000,4.000000,4.000000,,,,,,,,,,,,,,,,,,,,,,,,,,,,,,,,130.672134,128.416779,105.490387,59.515011,57.774860,24.839039,22.643393,22.255253,20.479746,27.511200,168.553070,213.269836,223.757767,317.822601,842.875366,69.624588,42.395229,35.340183,17.311108,21.132378,169.175812,136.327271,92.948029,47.271584,24.310017
1577418968.720450,90.000000,0.000000,4247.692383,4361.538574,4054.871826,4137.948730,4211.794922,450.000000,4.000000,,,,0.000000,4.000000,4.000000,2.000000,4.000000,4.000000,,,,,,,,,,,,,,,,,,,,,,,,,,,,,,,,,,,,,,,,,,,,,,,,,,,,,,,,
1577418968.728252,91.000000,0.000000,4268.717773,4362.051270,4052.820557,4142.051270,4219.487305,16222.000000,4.000000,,,,0.000000,4.000000,4.000000,2.000000,4.000000,4.000000,,,,,,,,,,,,,,,,,,,,,,,,,,,,,,,,,,,,,,,,,,,,,,,,,,,,,,,,
1577418968.736152,92.000000,0.000000,4288.717773,4352.820313,4052.820557,4135.384766,4226.153809,450.000000,4.000000,,,,0.000000,4.000000,4.000000,2.000000,4.000000,4.000000,,,,,,,,,,,,,,,,,,,,,,,,,,,,,,,,,,,,,,,,,,,,,,,,,,,,,,,,
1577418968.743954,93.000000,0.000000,4326.153809,4365.641113,4066.666748,4147.692383,4250.769043,450.000000,4.000000,,,,0.000000,4.000000,4.000000,2.000000,4.000000,4.000000,,,,,,,,,,,,,,,,,,,,,,,,,,,,,,,,,,,,,,,,,,,,,,,,,,,,,,,,
1577418968.751854,94.000000,0.000000,4362.051270,4382.563965,4061.538574,4163.589844,4277.436035,450.000000,4.000000,,,,0.000000,4.000000,4.000000,2.000000,4.000000,4.000000,,,,,,,,,,,,,,,,,,,,,,,,,,,,,,,,,,,,,,,,,,,,,,,,,,,,,,,,
1577418968.759656,95.000000,0.000000,4369.743652,4370.256348,4066.666748,4166.153809,4287.692383,16222.000000,4.000000,,,,0.000000,4.000000,4.000000,2.000000,4.000000,4.000000,,,,,,,,,,,,,,,,,,,,,,,,,,,,,,,,,,,,,,,,,,,,,,,,,,,,,,,,
1577418968.767556,96.000000,0.000000,4369.230957,4364.615234,4058.974365,4163.589844,4285.641113,450.000000,4.000000,,,,0.000000,4.000000,4.000000,2.000000,4.000000,4.000000,,,,,,,,,,,,,,,,,,,,,,,,,,,,,,,,,,,,,,,,,,,,,,,,,,,,,,,,
1577418968.775358,97.000000,0.000000,4378.461426,4373.846191,4045.641113,4154.871582,4283.077148,450.000000,4.000000,,,,0.000000,4.000000,4.000000,2.000000,4.000000,4.000000,,,,,,,,,,,,,,,,,,,,,,,,,,,,,,,,,,,,,,,,,,,,,,,,,,,,,,,,
1577418968.783258,98.000000,0.000000,4388.205078,4365.641113,4071.794922,4153.846191,4296.410156,450.000000,4.000000,,,,0.000000,4.000000,4.000000,2.000000,4.000000,4.000000,,,,,,,,,,,,,,,,,,,,,,,,,,,,,,,,,,,,,,,,,,,,,,,,,,,,,,,,
1577418968.791159,99.000000,0.000000,4399.487305,4361.025879,4077.948730,4161.025879,4309.743652,16222.000000,4.000000,,,,0.000000,4.000000,4.000000,2.000000,4.000000,4.000000,,,,,,,,,,,,,,,,,,,,,,,,,,,,,,,,,,,,,,,,,,,,,,,,,,,,,,,,
1577418968.798960,100.000000,0.000000,4402.563965,4366.153809,4060.512939,4156.410156,4308.205078,450.000000,4.000000,,,,0.000000,4.000000,4.000000,2.000000,4.000000,4.000000,,,,,,,,,,,,,,,,,,,,,,,,,,,,,,,,,,,,,,,,,,,,,,,,,,,,,,,,
1577418968.806861,101.000000,0.000000,4404.102539,4348.717773,4050.769287,4143.589844,4303.077148,450.000000,4.000000,,,,0.000000,4.000000,4.000000,2.000000,4.000000,4.000000,,,,,,,,,,,,,,,,,,,,,,,,,,,,,,,,,,,,,,,,,,,,,,,,,,,,,,,,
1577418968.814663,102.000000,0.000000,4416.922852,4342.563965,4052.820557,4147.179688,4310.256348,450.000000,4.000000,,,,0.000000,4.000000,4.000000,2.000000,4.000000,4.000000,,,,,,,,,,,,,,,,,,,,,,,,,,,,,,,,,,,,,,,,,,,,,,,,,,,,,,,,
1577418968.822563,103.000000,0.000000,4427.179688,4362.563965,4069.743652,4160.000000,4323.077148,16222.000000,4.000000,,,,0.000000,4.000000,4.000000,2.000000,4.000000,4.000000,,,,,,,,,,,,,,,,,,,,,,,,,,,,,,,,,,,,,,,,,,,,,,,,,,,,,,,,
1577418968.830365,104.000000,0.000000,4429.743652,4363.077148,4054.358887,4150.256348,4320.000000,450.000000,4.000000,,,,0.000000,4.000000,4.000000,2.000000,4.000000,4.000000,,,,,,,,,,,,,,,,,,,,,,,,,,,,,,,,,,,,,,,,,,,,,,,,,,,,,,,,
1577418968.838265,105.000000,0.000000,4428.717773,4346.666504,4045.641113,4134.871582,4312.307617,450.000000,4.000000,,,,0.000000,4.000000,4.000000,2.000000,4.000000,4.000000,,,,,,,,,,,,,,,,,,,,,,,,,,,,,,,,168.111115,162.180649,133.319702,74.573372,71.589935,31.565126,28.509975,27.782873,25.434351,33.666573,216.254868,268.530365,281.661346,373.745728,1048.096802,91.038589,53.800308,44.707191,21.709522,26.832848,218.800140,170.934677,117.498940,59.312111,30.004690
1577418968.846067,106.000000,0.000000,4434.871582,4357.948730,4068.718018,4143.077148,4326.666504,450.000000,4.000000,,,,0.000000,4.000000,4.000000,2.000000,4.000000,4.000000,,,,,,,,,,,,,,,,,,,,,,,,,,,,,,,,,,,,,,,,,,,,,,,,,,,,,,,,
1577418968.853967,107.000000,0.000000,4447.179688,4387.692383,4065.641113,4152.820313,4344.615234,16222.000000,4.000000,,,,0.000000,4.000000,4.000000,2.000000,4.000000,4.000000,,,,,,,,,,,,,,,,,,,,,,,,,,,,,,,,,,,,,,,,,,,,,,,,,,,,,,,,
1577418968.861769,108.000000,0.000000,4453.333496,4377.948730,4060.000000,4152.820313,4351.282227,450.000000,4.000000,,,,0.000000,4.000000,4.000000,2.000000,4.000000,4.000000,,,,,,,,,,,,,,,,,,,,,,,,,,,,,,,,,,,,,,,,,,,,,,,,,,,,,,,,
1577418968.869669,109.000000,0.000000,4460.000000,4353.846191,4064.102539,4156.922852,4360.000000,450.000000,4.000000,,,,0.000000,4.000000,4.000000,2.000000,4.000000,4.000000,,,,,,,,,,,,,,,,,,,,,,,,,,,,,,,,,,,,,,,,,,,,,,,,,,,,,,,,
1577418968.877471,110.000000,0.000000,4462.563965,4361.538574,4069.230713,4153.846191,4362.563965,450.000000,4.000000,,,,0.000000,4.000000,4.000000,2.000000,4.000000,4.000000,,,,,,,,,,,,,,,,,,,,,,,,,,,,,,,,,,,,,,,,,,,,,,,,,,,,,,,,
1577418968.885371,111.000000,0.000000,4460.512695,4361.025879,4067.692383,4148.717773,4356.922852,16222.000000,4.000000,,,,0.000000,4.000000,4.000000,2.000000,4.000000,4.000000,,,,,,,,,,,,,,,,,,,,,,,,,,,,,,,,,,,,,,,,,,,,,,,,,,,,,,,,
1577418968.893272,112.000000,0.000000,4459.487305,4337.948730,4050.769287,4151.794922,4355.897461,450.000000,4.000000,,,,0.000000,4.000000,4.000000,2.000000,4.000000,4.000000,,,,,,,,,,,,,,,,,,,,,,,,,,,,,,,,,,,,,,,,,,,,,,,,,,,,,,,,
1577418968.901074,113.000000,0.000000,4455.897461,4348.717773,4063.589844,4153.333496,4357.436035,450.000000,4.000000,,,,0.000000,4.000000,4.000000,2.000000,4.000000,4.000000,,,,,,,,,,,,,,,,,,,,,,,,,,,,,,,,,,,,,,,,,,,,,,,,,,,,,,,,
1577418968.908875,114.000000,0.000000,4456.410156,4382.563965,4071.794922,4146.153809,4357.948730,450.000000,4.000000,,,,0.000000,4.000000,4.000000,2.000000,4.000000,4.000000,,,,,,,,,,,,,,,,,,,,,,,,,,,,,,,,,,,,,,,,,,,,,,,,,,,,,,,,
1577418968.916776,115.000000,0.000000,4453.846191,4371.282227,4062.564209,4137.948730,4355.384766,16222.000000,4.000000,,,,0.000000,4.000000,4.000000,2.000000,4.000000,4.000000,,,,,,,,,,,,,,,,,,,,,,,,,,,,,,,,,,,,,,,,,,,,,,,,,,,,,,,,
1577418968.924577,116.000000,0.000000,4448.717773,4348.717773,4074.358887,4140.512695,4355.384766,450.000000,4.000000,,,,0.000000,4.000000,4.000000,2.000000,4.000000,4.000000,,,,,,,,,,,,,,,,,,,,,,,,,,,,,,,,,,,,,,,,,,,,,,,,,,,,,,,,
1577418968.932478,117.000000,0.000000,4450.769043,4356.410156,4073.333252,4146.153809,4357.436035,450.000000,4.000000,,,,0.000000,4.000000,4.000000,2.000000,4.000000,4.000000,,,,,,,,,,,,,,,,,,,,,,,,,,,,,,,,,,,,,,,,,,,,,,,,,,,,,,,,
1577418968.940378,118.000000,0.000000,4450.256348,4363.077148,4076.923096,4149.743652,4356.922852,450.000000,4.000000,,,,0.000000,4.000000,4.000000,2.000000,4.000000,4.000000,,,,,,,,,,,,,,,,,,,,,,,,,,,,,,,,,,,,,,,,,,,,,,,,,,,,,,,,
1577418968.948180,119.000000,0.000000,4445.641113,4356.410156,4088.205078,4149.743652,4355.384766,16222.000000,4.000000,,,,0.000000,4.000000,4.000000,2.000000,4.000000,4.000000,,,,,,,,,,,,,,,,,,,,,,,,,,,,,,,,,,,,,,,,,,,,,,,,,,,,,,,,
1577418968.956080,120.000000,0.000000,4443.077148,4349.743652,4085.641113,4146.666504,4355.384766,450.000000,4.000000,,,,0.000000,4.000000,4.000000,2.000000,4.000000,4.000000,,,,,,,,,,,,,,,,,,,,,,,,,,,,,,,,,,,,,,,,,,,,,,,,,,,,,,,,
1577418968.963882,121.000000,0.000000,4444.615234,4349.230957,4083.589844,4145.128418,4355.384766,450.000000,4.000000,,,,0.000000,4.000000,4.000000,2.000000,4.000000,4.000000,,,,,,,,,,,,,,,,,,,,,,,,,,,,,,,,185.610977,175.314026,143.730484,79.781059,75.813759,34.409317,30.698679,29.740530,27.110361,35.596870,237.309967,288.602783,303.132080,386.292542,1116.729736,101.502213,58.540295,48.571529,23.341064,29.122282,242.662689,183.762573,126.830620,63.596077,31.742008
1577418968.971782,122.000000,0.000000,4450.256348,4354.358887,4070.769287,4144.102539,4353.846191,450.000000,4.000000,,,,0.000000,4.000000,4.000000,2.000000,4.000000,4.000000,,,,,,,,,,,,,,,,,,,,,,,,,,,,,,,,,,,,,,,,,,,,,,,,,,,,,,,,
1577418968.979584,123.000000,0.000000,4447.179688,4354.871582,4069.743652,4151.794922,4352.307617,16222.000000,4.000000,,,,0.000000,4.000000,4.000000,2.000000,4.000000,4.000000,,,,,,,,,,,,,,,,,,,,,,,,,,,,,,,,,,,,,,,,,,,,,,,,,,,,,,,,
1577418968.987485,124.000000,0.000000,4448.717773,4357.436035,4076.410156,4164.102539,4358.974121,450.000000,4.000000,,,,0.000000,4.000000,4.000000,2.000000,4.000000,4.000000,,,,,,,,,,,,,,,,,,,,,,,,,,,,,,,,,,,,,,,,,,,,,,,,,,,,,,,,
1577418968.995386,125.000000,1.000000,4452.307617,4356.474121,4080.384521,4165.512695,4363.269043,2419.125000,4.000000,,,,0.000000,4.000000,4.000000,2.000000,4.000000,4.000000,,,,,,,,,,,,,,,,,,,,,,,,,,,,,,,,,,,,,,,,,,,,,,,,,,,,,,,,
1577418969.003187,126.000000,1.000000,4455.897461,4355.512695,4084.358887,4166.922852,4367.563965,4388.250000,4.000000,,,,0.000000,4.000000,4.000000,2.000000,4.000000,4.000000,,,,,,,,,,,,,,,,,,,,,,,,,,,,,,,,,,,,,,,,,,,,,,,,,,,,,,,,
1577418969.010988,127.000000,1.000000,4459.487305,4354.551270,4088.333252,4168.333496,4371.858887,6357.375000,4.000000,,,,0.000000,4.000000,4.000000,2.000000,4.000000,4.000000,,,,,,,,,,,,,,,,,,,,,,,,,,,,,,,,,,,,,,,,,,,,,,,,,,,,,,,,
1577418969.018790,0.000000,1.000000,4463.077148,4353.589844,4092.307617,4169.743652,4376.153809,450.000000,4.000000,,,,0.000000,4.000000,4.000000,2.000000,4.000000,4.000000,,,,,,,,,,,,,,,,,,,,,,,,,,,,,,,,,,,,,,,,,,,,,,,,,,,,,,,,
1577418969.026591,1.000000,1.000000,4466.666504,4352.628418,4096.282227,4171.153809,4380.448730,450.000000,4.000000,,,,0.000000,4.000000,4.000000,2.000000,4.000000,4.000000,,,,,,,,,,,,,,,,,,,,,,,,,,,,,,,,,,,,,,,,,,,,,,,,,,,,,,,,
1577418969.034392,2.000000,1.000000,4470.256348,4351.666504,4100.256348,4172.563965,4384.743652,16208.000000,4.000000,,,,0.000000,4.000000,4.000000,2.000000,4.000000,4.000000,,,,,,,,,,,,,,,,,,,,,,,,,,,,,,,,,,,,,,,,,,,,,,,,,,,,,,,,
1577418969.042193,3.000000,1.000000,4473.846191,4350.705078,4104.230957,4173.974121,4389.038574,450.000000,4.000000,,,,0.000000,4.000000,4.000000,2.000000,4.000000,4.000000,,,,,,,,,,,,,,,,,,,,,,,,,,,,,,,,,,,,,,,,,,,,,,,,,,,,,,,,
1577418969.049995,4.000000,0.000000,4477.436035,4349.743652,4108.205078,4175.384766,4393.333496,16203.000000,4.000000,,,,0.000000,4.000000,4.000000,2.000000,4.000000,4.000000,,,,,,,,,,,,,,,,,,,,,,,,,,,,,,,,,,,,,,,,,,,,,,,,,,,,,,,,
1577418969.057796,5.000000,0.000000,4465.641113,4365.128418,4094.358887,4165.641113,4384.102539,450.000000,4.000000,,,,0.000000,4.000000,4.000000,2.000000,4.000000,4.000000,,,,,,,,,,,,,,,,,,,,,,,,,,,,,,,,,,,,,,,,,,,,,,,,,,,,,,,,
1577418969.065496,6.000000,0.000000,4466.153809,4389.230957,4103.077148,4164.615234,4388.205078,320.000000,4.000000,,,,0.000000,4.000000,4.000000,2.000000,4.000000,4.000000,,,,,,,,,,,,,,,,,,,,,,,,,,,,,,,,,,,,,,,,,,,,,,,,,,,,,,,,
1577418969.073296,7.000000,0.000000,4458.461426,4355.384766,4090.769287,4155.897461,4377.436035,450.000000,4.000000,,,,0.000000,4.000000,4.000000,2.000000,4.000000,4.000000,,,,,,,,,,,,,,,,,,,,,,,,,,,,,,,,,,,,,,,,,,,,,,,,,,,,,,,,
1577418969.080997,8.000000,0.000000,4445.641113,4327.179688,4083.589844,4149.230957,4364.615234,450.000000,4.000000,,,,0.000000,4.000000,4.000000,2.000000,4.000000,4.000000,,,,,,,,,,,,,,,,,,,,,,,,,,,,,,,,,,,,,,,,,,,,,,,,,,,,,,,,
1577418969.088797,9.000000,0.000000,4443.589844,4356.410156,4096.410156,4155.384766,4370.256348,16185.000000,4.000000,,,,0.000000,4.000000,4.000000,2.000000,4.000000,4.000000,,,,,,,,,,,,,,,,,,,,,,,,,,,,,,,,177.796356,163.047043,132.995041,73.258110,68.910583,32.372208,28.426214,27.421736,24.919155,32.561939,223.291992,266.180237,280.220123,347.634491,1022.454895,97.456627,54.896004,45.540455,21.617880,27.193378,232.716370,170.143173,117.563828,58.568748,28.895891
1577418969.096497,10.000000,0.000000,4441.538574,4377.436035,4089.230713,4149.743652,4367.179688,450.000000,4.000000,,,,0.000000,4.000000,4.000000,2.000000,4.000000,4.000000,,,,,,,,,,,,,,,,,,,,,,,,,,,,,,,,,,,,,,,,,,,,,,,,,,,,,,,,
1577418969.104297,11.000000,0.000000,4430.256348,4353.333496,4088.718018,4145.128418,4355.384766,16217.000000,4.000000,,,,0.000000,4.000000,4.000000,2.000000,4.000000,4.000000,,,,,,,,,,,,,,,,,,,,,,,,,,,,,,,,,,,,,,,,,,,,,,,,,,,,,,,,
1577418969.111997,12.000000,0.000000,4421.538574,4331.794922,4089.230713,4148.205078,4350.256348,450.000000,4.000000,,,,0.000000,4.000000,4.000000,2.000000,4.000000,4.000000,,,,,,,,,,,,,,,,,,,,,,,,,,,,,,,,,,,,,,,,,,,,,,,,,,,,,,,,
1577418969.119797,13.000000,0.000000,4419.487305,4348.205078,4090.256348,4151.794922,4345.641113,450.000000,4.000000,,,,0.000000,4.000000,4.000000,2.000000,4.000000,4.000000,,,,,,,,,,,,,,,,,,,,,,,,,,,,,,,,,,,,,,,,,,,,,,,,,,,,,,,,
1577418969.127497,14.000000,0.000000,4426.666504,4378.461426,4096.922852,4165.128418,4348.717773,450.000000,4.000000,,,,0.000000,4.000000,4.000000,2.000000,4.000000,4.000000,,,,,,,,,,,,,,,,,,,,,,,,,,,,,,,,,,,,,,,,,,,,,,,,,,,,,,,,
1577418969.135198,15.000000,0.000000,4434.871582,4364.615234,4100.512695,4174.871582,4362.051270,16217.000000,4.000000,,,,0.000000,4.000000,4.000000,2.000000,4.000000,4.000000,,,,,,,,,,,,,,,,,,,,,,,,,,,,,,,,,,,,,,,,,,,,,,,,,,,,,,,,
1577418969.142998,16.000000,0.000000,4433.333496,4335.384766,4109.230957,4173.333496,4369.230957,0.000000,4.000000,,,,0.000000,4.000000,4.000000,2.000000,4.000000,4.000000,,,,,,,,,,,,,,,,,,,,,,,,,,,,,,,,,,,,,,,,,,,,,,,,,,,,,,,,
1577418969.150799,17.000000,0.000000,4430.769043,4354.871582,4090.769287,4165.641113,4362.051270,0.000000,4.000000,,,,0.000000,4.000000,4.000000,2.000000,4.000000,4.000000,,,,,,,,,,,,,,,,,,,,,,,,,,,,,,,,,,,,,,,,,,,,,,,,,,,,,,,,
1577418969.158499,18.000000,0.000000,4425.641113,4373.846191,4080.512939,4153.846191,4350.769043,0.000000,4.000000,,,,0.000000,4.000000,4.000000,2.000000,4.000000,4.000000,,,,,,,,,,,,,,,,,,,,,,,,,,,,,,,,,,,,,,,,,,,,,,,,,,,,,,,,
1577418969.166199,19.000000,0.000000,4416.922852,4354.358887,4090.256348,4144.102539,4340.512695,0.000000,4.000000,,,,0.000000,4.000000,4.000000,2.000000,4.000000,4.000000,,,,,,,,,,,,,,,,,,,,,,,,,,,,,,,,,,,,,,,,,,,,,,,,,,,,,,,,
1577418969.174000,20.000000,0.000000,4406.153809,4343.077148,4076.410156,4130.256348,4318.461426,0.000000,4.000000,,,,0.000000,4.000000,4.000000,2.000000,4.000000,4.000000,,,,,,,,,,,,,,,,,,,,,,,,,,,,,,,,,,,,,,,,,,,,,,,,,,,,,,,,
1577418969.181700,21.000000,0.000000,4395.897461,4341.538574,4086.153809,4136.922852,4303.589844,0.000000,4.000000,,,,0.000000,4.000000,4.000000,2.000000,4.000000,4.000000,,,,,,,,,,,,,,,,,,,,,,,,,,,,,,,,,,,,,,,,,,,,,,,,,,,,,,,,
1577418969.189400,22.000000,0.000000,4399.487305,4345.128418,4096.922852,4161.025879,4317.436035,0.000000,4.000000,,,,0.000000,4.000000,4.000000,2.000000,4.000000,4.000000,,,,,,,,,,,,,,,,,,,,,,,,,,,,,,,,,,,,,,,,,,,,,,,,,,,,,,,,
1577418969.197101,23.000000,0.000000,4399.487305,4351.282227,4086.666748,4167.179688,4332.820313,0.000000,4.000000,,,,0.000000,4.000000,4.000000,2.000000,4.000000,4.000000,,,,,,,,,,,,,,,,,,,,,,,,,,,,,,,,,,,,,,,,,,,,,,,,,,,,,,,,
1577418969.204902,24.000000,0.000000,4387.692383,4337.436035,4089.230713,4169.230957,4330.256348,0.000000,4.000000,,,,0.000000,4.000000,4.000000,2.000000,4.000000,4.000000,,,,,,,,,,,,,,,,,,,,,,,,,,,,,,,,,,,,,,,,,,,,,,,,,,,,,,,,
1577418969.212602,25.000000,0.000000,4382.051270,4323.077148,4086.153809,4171.282227,4321.025879,0.000000,4.000000,,,,0.000000,4.000000,4.000000,2.000000,4.000000,4.000000,,,,,,,,,,,,,,,,,,,,,,,,,,,,,,,,147.395889,129.802643,105.028259,57.394485,53.365536,26.169220,22.491047,21.689016,19.695471,25.616230,179.592667,209.358124,221.066299,268.768158,798.121460,80.194771,44.168537,36.696064,17.170500,21.760080,191.473938,134.876999,93.022064,46.058136,22.485533
1577418969.220403,26.000000,0.000000,4383.589844,4338.974121,4091.794922,4164.615234,4316.410156,0.000000,4.000000,,,,0.000000,4.000000,4.000000,2.000000,4.000000,4.000000,,,,,,,,,,,,,,,,,,,,,,,,,,,,,,,,,,,,,,,,,,,,,,,,,,,,,,,,
1577418969.228104,27.000000,0.000000,4384.615234,4358.974121,4093.333252,4161.025879,4316.410156,0.000000,4.000000,,,,0.000000,4.000000,4.000000,2.000000,4.000000,4.000000,,,,,,,,,,,,,,,,,,,,,,,,,,,,,,,,,,,,,,,,,,,,,,,,,,,,,,,,
1577418969.235804,28.000000,0.000000,4384.615234,4342.563965,4087.179443,4170.256348,4320.000000,0.000000,4.000000,,,,0.000000,4.000000,4.000000,2.000000,4.000000,4.000000,,,,,,,,,,,,,,,,,,,,,,,,,,,,,,,,,,,,,,,,,,,,,,,,,,,,,,,,
1577418969.243505,29.000000,0.000000,4382.563965,4314.871582,4102.051270,4180.512695,4327.692383,0.000000,4.000000,,,,0.000000,4.000000,4.000000,2.000000,4.000000,4.000000,,,,,,,,,,,,,,,,,,,,,,,,,,,,,,,,,,,,,,,,,,,,,,,,,,,,,,,,
1577418969.251306,30.000000,0.000000,4372.820313,4329.230957,4103.077148,4172.307617,4323.589844,0.000000,4.000000,,,,0.000000,4.000000,4.000000,2.000000,4.000000,4.000000,,,,,,,,,,,,,,,,,,,,,,,,,,,,,,,,,,,,,,,,,,,,,,,,,,,,,,,,
1577418969.259007,31.000000,0.000000,4351.282227,4358.974121,4101.025879,4159.487305,4304.615234,0.000000,4.000000,,,,0.000000,4.000000,4.000000,2.000000,4.000000,4.000000,,,,,,,,,,,,,,,,,,,,,,,,,,,,,,,,,,,,,,,,,,,,,,,,,,,,,,,,
1577418969.266808,32.000000,0.000000,4335.384766,4347.692383,4102.051270,4160.512695,4288.717773,0.000000,4.000000,,,,0.000000,4.000000,4.000000,2.000000,4.000000,4.000000,,,,,,,,,,,,,,,,,,,,,,,,,,,,,,,,,,,,,,,,,,,,,,,,,,,,,,,,
1577418969.274509,33.000000,0.000000,4336.922852,4331.794922,4094.871826,4162.563965,4285.641113,0.000000,4.000000,,,,0.000000,4.000000,4.000000,2.000000,4.000000,4.000000,,,,,,,,,,,,,,,,,,,,,,,,,,,,,,,,,,,,,,,,,,,,,,,,,,,,,,,,
1577418969.282310,34.000000,0.000000,4334.358887,4346.666504,4102.051270,4164.102539,4287.179688,0.000000,4.000000,,,,0.000000,4.000000,4.000000,2.000000,4.000000,4.000000,,,,,,,,,,,,,,,,,,,,,,,,,,,,,,,,,,,,,,,,,,,,,,,,,,,,,,,,
1577418969.290011,35.000000,0.000000,4322.563965,4338.461426,4089.743652,4165.128418,4280.512695,0.000000,4.000000,,,,0.000000,4.000000,4.000000,2.000000,4.000000,4.000000,,,,,,,,,,,,,,,,,,,,,,,,,,,,,,,,,,,,,,,,,,,,,,,,,,,,,,,,
1577418969.297911,36.000000,0.000000,4322.563965,4320.512695,4082.564209,4167.179688,4278.461426,0.000000,4.000000,,,,0.000000,4.000000,4.000000,2.000000,4.000000,4.000000,,,,,,,,,,,,,,,,,,,,,,,,,,,,,,,,,,,,,,,,,,,,,,,,,,,,,,,,
1577418969.305812,37.000000,0.000000,4332.820313,4335.897461,4095.897461,4173.846191,4291.282227,0.000000,4.000000,,,,0.000000,4.000000,4.000000,2.000000,4.000000,4.000000,,,,,,,,,,,,,,,,,,,,,,,,,,,,,,,,,,,,,,,,,,,,,,,,,,,,,,,,
1577418969.313714,38.000000,0.000000,4339.487305,4350.256348,4093.846191,4177.948730,4302.563965,0.000000,4.000000,,,,0.000000,4.000000,4.000000,2.000000,4.000000,4.000000,,,,,,,,,,,,,,,,,,,,,,,,,,,,,,,,,,,,,,,,,,,,,,,,,,,,,,,,
1577418969.321515,39.000000,0.000000,4353.333496,4357.948730,4105.641113,4185.128418,4315.384766,0.000000,4.000000,,,,0.000000,4.000000,4.000000,2.000000,4.000000,4.000000,,,,,,,,,,,,,,,,,,,,,,,,,,,,,,,,,,,,,,,,,,,,,,,,,,,,,,,,
1577418969.329416,40.000000,1.000000,4351.624023,4357.321777,4103.703613,4183.020020,4313.846191,0.000000,4.000000,,,,0.000000,4.000000,4.000000,2.000000,4.000000,4.000000,,,,,,,,,,,,,,,,,,,,,,,,,,,,,,,,,,,,,,,,,,,,,,,,,,,,,,,,
1577418969.337218,41.000000,1.000000,4349.914551,4356.695313,4101.766602,4180.911621,4312.307617,0.000000,4.000000,,,,0.000000,4.000000,4.000000,2.000000,4.000000,4.000000,,,,,,,,,,,,,,,,,,,,,,,,,,,,,,,,106.097977,87.033646,69.470650,37.653492,34.471836,17.924303,14.930779,14.516401,13.239736,17.105537,120.904587,137.521103,145.723602,174.117935,519.649719,55.719662,30.039022,25.015127,11.527004,14.700800,134.398270,89.893738,61.586536,30.358751,14.684266
1577418969.345019,42.000000,1.000000,4348.205078,4356.068359,4099.829102,4178.803223,4310.769043,0.000000,4.000000,,,,0.000000,4.000000,4.000000,2.000000,4.000000,4.000000,,,,,,,,,,,,,,,,,,,,,,,,,,,,,,,,,,,,,,,,,,,,,,,,,,,,,,,,
1577418969.352821,43.000000,1.000000,4346.495605,4355.441406,4097.891602,4176.695313,4309.230957,0.000000,4.000000,,,,0.000000,4.000000,4.000000,2.000000,4.000000,4.000000,,,,,,,,,,,,,,,,,,,,,,,,,,,,,,,,,,,,,,,,,,,,,,,,,,,,,,,,
1577418969.360622,44.000000,1.000000,4344.786133,4354.814941,4095.954346,4174.586914,4307.692383,0.000000,4.000000,,,,0.000000,4.000000,4.000000,2.000000,4.000000,4.000000,,,,,,,,,,,,,,,,,,,,,,,,,,,,,,,,,,,,,,,,,,,,,,,,,,,,,,,,
1577418969.368424,45.000000,1.000000,4343.077148,4354.187988,4094.017090,4172.478516,4306.153809,0.000000,4.000000,,,,0.000000,4.000000,4.000000,2.000000,4.000000,4.000000,,,,,,,,,,,,,,,,,,,,,,,,,,,,,,,,,,,,,,,,,,,,,,,,,,,,,,,,
1577418969.376226,46.000000,1.000000,4341.367676,4353.561035,4092.079834,4170.370605,4304.615234,0.000000,4.000000,,,,0.000000,4.000000,4.000000,2.000000,4.000000,4.000000,,,,,,,,,,,,,,,,,,,,,,,,,,,,,,,,,,,,,,,,,,,,,,,,,,,,,,,,
1577418969.384027,47.000000,1.000000,4339.658203,4352.934570,4090.142334,4168.262207,4303.077148,0.000000,4.000000,,,,0.000000,4.000000,4.000000,2.000000,4.000000,4.000000,,,,,,,,,,,,,,,,,,,,,,,,,,,,,,,,,,,,,,,,,,,,,,,,,,,,,,,,
1577418969.391829,48.000000,0.000000,4337.948730,4352.307617,4088.205078,4166.153809,4301.538574,0.000000,4.000000,,,,0.000000,4.000000,4.000000,2.000000,4.000000,4.000000,,,,,,,,,,,,,,,,,,,,,,,,,,,,,,,,,,,,,,,,,,,,,,,,,,,,,,,,
1577418969.399529,49.000000,0.000000,4327.179688,4318.974121,4083.076904,4155.384766,4291.282227,0.000000,4.000000,,,,0.000000,4.000000,4.000000,2.000000,4.000000,4.000000,,,,,,,,,,,,,,,,,,,,,,,,,,,,,,,,,,,,,,,,,,,,,,,,,,,,,,,,
1577418969.407330,50.000000,0.000000,4332.307617,4329.230957,4104.615234,4170.769043,4298.461426,0.000000,4.000000,,,,0.000000,4.000000,4.000000,2.000000,4.000000,4.000000,,,,,,,,,,,,,,,,,,,,,,,,,,,,,,,,,,,,,,,,,,,,,,,,,,,,,,,,
1577418969.415031,51.000000,0.000000,4341.025879,4365.128418,4107.692383,4181.025879,4313.846191,0.000000,4.000000,,,,0.000000,4.000000,4.000000,2.000000,4.000000,4.000000,,,,,,,,,,,,,,,,,,,,,,,,,,,,,,,,,,,,,,,,,,,,,,,,,,,,,,,,
1577418969.422831,52.000000,0.000000,4334.871582,4355.897461,4096.922852,4164.102539,4314.358887,0.000000,4.000000,,,,0.000000,4.000000,4.000000,2.000000,4.000000,4.000000,,,,,,,,,,,,,,,,,,,,,,,,,,,,,,,,,,,,,,,,,,,,,,,,,,,,,,,,
1577418969.430532,53.000000,0.000000,4321.025879,4325.641113,4080.512939,4142.051270,4298.461426,0.000000,4.000000,,,,0.000000,4.000000,4.000000,2.000000,4.000000,4.000000,,,,,,,,,,,,,,,,,,,,,,,,,,,,,,,,,,,,,,,,,,,,,,,,,,,,,,,,
1577418969.438433,54.000000,0.000000,4334.358887,4343.589844,4096.922852,4146.153809,4305.641113,0.000000,4.000000,,,,0.000000,4.000000,4.000000,2.000000,4.000000,4.000000,,,,,,,,,,,,,,,,,,,,,,,,,,,,,,,,,,,,,,,,,,,,,,,,,,,,,,,,
1577418969.446334,55.000000,0.000000,4368.205078,4375.384766,4121.025879,4167.179688,4333.846191,0.000000,4.000000,,,,0.000000,4.000000,4.000000,2.000000,4.000000,4.000000,,,,,,,,,,,,,,,,,,,,,,,,,,,,,,,,,,,,,,,,,,,,,,,,,,,,,,,,
1577418969.454135,56.000000,0.000000,4369.743652,4366.153809,4112.820313,4167.179688,4334.871582,0.000000,4.000000,,,,0.000000,4.000000,4.000000,2.000000,4.000000,4.000000,,,,,,,,,,,,,,,,,,,,,,,,,,,,,,,,,,,,,,,,,,,,,,,,,,,,,,,,
1577418969.461936,57.000000,0.000000,4342.563965,4344.102539,4107.179688,4153.333496,4309.230957,0.000000,4.000000,,,,0.000000,4.000000,4.000000,2.000000,4.000000,4.000000,,,,,,,,,,,,,,,,,,,,,,,,,,,,,,,,65.750435,47.669453,37.110783,19.954056,17.811357,10.121803,8.033789,8.071456,7.457684,9.555538,65.559990,72.329376,76.921257,90.147552,269.858948,31.771221,16.895670,14.039382,6.381100,8.158934,78.123657,48.699253,32.821392,16.195971,7.787026
1577418969.469837,58.000000,0.000000,4332.307617,4347.179688,4097.436035,4151.794922,4291.794922,0.000000,4.000000,,,,0.000000,4.000000,4.000000,2.000000,4.000000,4.000000,,,,,,,,,,,,,,,,,,,,,,,,,,,,,,,,,,,,,,,,,,,,,,,,,,,,,,,,
1577418969.477738,59.000000,0.000000,4328.717773,4353.846191,4096.922852,4156.922852,4291.282227,0.000000,4.000000,,,,0.000000,4.000000,4.000000,2.000000,4.000000,4.000000,,,,,,,,,,,,,,,,,,,,,,,,,,,,,,,,,,,,,,,,,,,,,,,,,,,,,,,,
1577418969.485539,60.000000,0.000000,4316.922852,4342.051270,4107.179688,4155.897461,4296.922852,0.000000,4.000000,,,,0.000000,4.000000,4.000000,2.000000,4.000000,4.000000,,,,,,,,,,,,,,,,,,,,,,,,,,,,,,,,,,,,,,,,,,,,,,,,,,,,,,,,
1577418969.493440,61.000000,0.000000,4311.794922,4344.615234,4103.077148,4154.871582,4292.307617,0.000000,4.000000,,,,0.000000,4.000000,4.000000,2.000000,4.000000,4.000000,,,,,,,,,,,,,,,,,,,,,,,,,,,,,,,,,,,,,,,,,,,,,,,,,,,,,,,,
1577418969.501241,62.000000,0.000000,4311.794922,4364.102539,4108.717773,4162.563965,4283.077148,0.000000,4.000000,,,,0.000000,4.000000,4.000000,2.000000,4.000000,4.000000,,,,,,,,,,,,,,,,,,,,,,,,,,,,,,,,,,,,,,,,,,,,,,,,,,,,,,,,
1577418969.509142,63.000000,0.000000,4311.794922,4356.922852,4101.538574,4164.615234,4284.615234,0.000000,4.000000,,,,0.000000,4.000000,4.000000,2.000000,4.000000,4.000000,,,,,,,,,,,,,,,,,,,,,,,,,,,,,,,,,,,,,,,,,,,,,,,,,,,,,,,,
1577418969.517043,64.000000,1.000000,4308.318848,4355.840332,4101.310547,4162.222168,4282.507324,450.000000,4.000000,,,,0.000000,4.000000,4.000000,2.000000,4.000000,4.000000,,,,,,,,,,,,,,,,,,,,,,,,,,,,,,,,,,,,,,,,,,,,,,,,,,,,,,,,
1577418969.524844,65.000000,1.000000,4304.843262,4354.757813,4101.082520,4159.829102,4280.398926,450.000000,4.000000,,,,0.000000,4.000000,4.000000,2.000000,4.000000,4.000000,,,,,,,,,,,,,,,,,,,,,,,,,,,,,,,,,,,,,,,,,,,,,,,,,,,,,,,,
1577418969.532646,66.000000,1.000000,4301.367676,4353.675293,4100.854492,4157.436035,4278.290527,16208.000000,4.000000,,,,0.000000,4.000000,4.000000,2.000000,4.000000,4.000000,,,,,,,,,,,,,,,,,,,,,,,,,,,,,,,,,,,,,,,,,,,,,,,,,,,,,,,,
1577418969.540447,67.000000,1.000000,4297.891602,4352.592773,4100.626953,4155.042969,4276.182129,450.000000,4.000000,,,,0.000000,4.000000,4.000000,2.000000,4.000000,4.000000,,,,,,,,,,,,,,,,,,,,,,,,,,,,,,,,,,,,,,,,,,,,,,,,,,,,,,,,
1577418969.548248,68.000000,1.000000,4294.416016,4351.509766,4100.398926,4152.649414,4274.074219,16203.000000,4.000000,,,,0.000000,4.000000,4.000000,2.000000,4.000000,4.000000,,,,,,,,,,,,,,,,,,,,,,,,,,,,,,,,,,,,,,,,,,,,,,,,,,,,,,,,
1577418969.556050,69.000000,1.000000,4290.939941,4350.427246,4100.170898,4150.256348,4271.965820,450.000000,4.000000,,,,0.000000,4.000000,4.000000,2.000000,4.000000,4.000000,,,,,,,,,,,,,,,,,,,,,,,,,,,,,,,,,,,,,,,,,,,,,,,,,,,,,,,,
1577418969.563851,70.000000,1.000000,4287.464355,4349.344727,4099.942871,4147.863281,4269.857422,320.000000,4.000000,,,,0.000000,4.000000,4.000000,2.000000,4.000000,4.000000,,,,,,,,,,,,,,,,,,,,,,,,,,,,,,,,,,,,,,,,,,,,,,,,,,,,,,,,
1577418969.571652,71.000000,1.000000,4283.988770,4348.262207,4099.715332,4145.470215,4267.749512,450.000000,4.000000,,,,0.000000,4.000000,4.000000,2.000000,4.000000,4.000000,,,,,,,,,,,,,,,,,,,,,,,,,,,,,,,,,,,,,,,,,,,,,,,,,,,,,,,,
1577418969.579454,72.000000,0.000000,4280.512695,4347.179688,4099.487305,4143.077148,4265.641113,450.000000,4.000000,,,,0.000000,4.000000,4.000000,2.000000,4.000000,4.000000,,,,,,,,,,,,,,,,,,,,,,,,,,,,,,,,,,,,,,,,,,,,,,,,,,,,,,,,
1577418969.587154,73.000000,0.000000,4266.666504,4346.153809,4095.384521,4140.000000,4250.256348,16179.000000,4.000000,,,,0.000000,4.000000,4.000000,2.000000,4.000000,4.000000,,,,,,,,,,,,,,,,,,,,,,,,,,,,,,,,36.339645,20.469759,15.057961,8.084031,6.819191,4.565453,3.327280,3.752402,3.546894,4.559063,26.383793,28.171783,30.004795,34.222786,102.196098,14.343581,7.809763,6.269654,2.864883,3.591863,36.701561,20.466337,13.174159,6.652442,3.207724
1577418969.594855,74.000000,0.000000,4255.897461,4347.692383,4088.718018,4139.487305,4241.025879,450.000000,4.000000,,,,0.000000,4.000000,4.000000,2.000000,4.000000,4.000000,,,,,,,,,,,,,,,,,,,,,,,,,,,,,,,,,,,,,,,,,,,,,,,,,,,,,,,,
1577418969.602655,75.000000,0.000000,4247.179688,4348.717773,4105.641113,4149.230957,4248.205078,16229.000000,4.000000,,,,0.000000,4.000000,4.000000,2.000000,4.000000,4.000000,,,,,,,,,,,,,,,,,,,,,,,,,,,,,,,,,,,,,,,,,,,,,,,,,,,,,,,,
1577418969.610456,76.000000,0.000000,4249.230957,4348.205078,4108.717773,4157.948730,4256.410156,450.000000,4.000000,,,,0.000000,4.000000,4.000000,2.000000,4.000000,4.000000,,,,,,,,,,,,,,,,,,,,,,,,,,,,,,,,,,,,,,,,,,,,,,,,,,,,,,,,
1577418969.618157,77.000000,0.000000,4250.256348,4337.948730,4109.230957,4155.897461,4249.743652,450.000000,4.000000,,,,0.000000,4.000000,4.000000,2.000000,4.000000,4.000000,,,,,,,,,,,,,,,,,,,,,,,,,,,,,,,,,,,,,,,,,,,,,,,,,,,,,,,,
1577418969.625858,78.000000,0.000000,4256.410156,4355.897461,4122.563965,4161.025879,4249.230957,450.000000,4.000000,,,,0.000000,4.000000,4.000000,2.000000,4.000000,4.000000,,,,,,,,,,,,,,,,,,,,,,,,,,,,,,,,,,,,,,,,,,,,,,,,,,,,,,,,
1577418969.633759,79.000000,0.000000,4271.282227,4373.846191,4122.563965,4170.256348,4264.615234,16229.000000,4.000000,,,,0.000000,4.000000,4.000000,2.000000,4.000000,4.000000,,,,,,,,,,,,,,,,,,,,,,,,,,,,,,,,,,,,,,,,,,,,,,,,,,,,,,,,
1577418969.641560,80.000000,0.000000,4271.282227,4345.128418,4116.410156,4163.589844,4268.717773,450.000000,4.000000,,,,0.000000,4.000000,4.000000,2.000000,4.000000,4.000000,,,,,,,,,,,,,,,,,,,,,,,,,,,,,,,,,,,,,,,,,,,,,,,,,,,,,,,,
1577418969.649362,81.000000,0.000000,4263.589844,4330.769043,4098.974121,4147.179688,4259.487305,450.000000,4.000000,,,,0.000000,4.000000,4.000000,2.000000,4.000000,4.000000,,,,,,,,,,,,,,,,,,,,,,,,,,,,,,,,,,,,,,,,,,,,,,,,,,,,,,,,
1577418969.657263,82.000000,0.000000,4264.615234,4363.589844,4095.384521,4146.153809,4256.922852,450.000000,4.000000,,,,0.000000,4.000000,4.000000,2.000000,4.000000,4.000000,,,,,,,,,,,,,,,,,,,,,,,,,,,,,,,,,,,,,,,,,,,,,,,,,,,,,,,,
1577418969.665164,83.000000,1.000000,4263.248047,4363.190918,4099.373047,4146.495605,4254.187988,2203.222168,4.000000,,,,0.000000,4.000000,4.000000,2.000000,4.000000,4.000000,,,,,,,,,,,,,,,,,,,,,,,,,,,,,,,,,,,,,,,,,,,,,,,,,,,,,,,,
1577418969.672966,84.000000,1.000000,4261.880371,4362.791992,4103.361816,4146.837402,4251.453125,3956.444336,4.000000,,,,0.000000,4.000000,4.000000,2.000000,4.000000,4.000000,,,,,,,,,,,,,,,,,,,,,,,,,,,,,,,,,,,,,,,,,,,,,,,,,,,,,,,,
1577418969.680767,85.000000,1.000000,4260.512695,4362.393066,4107.350586,4147.179688,4248.717773,5709.666504,4.000000,,,,0.000000,4.000000,4.000000,2.000000,4.000000,4.000000,,,,,,,,,,,,,,,,,,,,,,,,,,,,,,,,,,,,,,,,,,,,,,,,,,,,,,,,
1577418969.688569,86.000000,1.000000,4259.145508,4361.994141,4111.338867,4147.521484,4245.982910,7462.888672,4.000000,,,,0.000000,4.000000,4.000000,2.000000,4.000000,4.000000,,,,,,,,,,,,,,,,,,,,,,,,,,,,,,,,,,,,,,,,,,,,,,,,,,,,,,,,
1577418969.696370,87.000000,1.000000,4257.777832,4361.595215,4115.327637,4147.863281,4243.248047,9216.111328,4.000000,,,,0.000000,4.000000,4.000000,2.000000,4.000000,4.000000,,,,,,,,,,,,,,,,,,,,,,,,,,,,,,,,,,,,,,,,,,,,,,,,,,,,,,,,
1577418969.704172,88.000000,1.000000,4256.410156,4361.196777,4119.316406,4148.205078,4240.512695,10969.333008,4.000000,,,,0.000000,4.000000,4.000000,2.000000,4.000000,4.000000,,,,,,,,,,,,,,,,,,,,,,,,,,,,,,,,,,,,,,,,,,,,,,,,,,,,,,,,
1577418969.711973,89.000000,1.000000,4255.042969,4360.797852,4123.304688,4148.546875,4237.777832,12722.555664,4.000000,,,,0.000000,4.000000,4.000000,2.000000,4.000000,4.000000,,,,,,,,,,,,,,,,,,,,,,,,,,,,,,,,19.970510,7.126591,4.383100,2.471087,1.737211,1.726712,1.094984,1.707125,1.624379,2.280448,6.681034,7.172615,7.408328,7.919229,23.072584,5.163995,3.440893,2.311874,1.167427,1.283273,13.868231,6.860894,3.682929,2.141191,1.051840
1577418969.719775,90.000000,1.000000,4253.675293,4360.398926,4127.293457,4148.888672,4235.042969,14475.777344,4.000000,,,,0.000000,4.000000,4.000000,2.000000,4.000000,4.000000,,,,,,,,,,,,,,,,,,,,,,,,,,,,,,,,,,,,,,,,,,,,,,,,,,,,,,,,
1577418969.727576,91.000000,0.000000,4252.307617,4360.000000,4131.282227,4149.230957,4232.307617,16229.000000,4.000000,,,,0.000000,4.000000,4.000000,2.000000,4.000000,4.000000,,,,,,,,,,,,,,,,,,,,,,,,,,,,,,,,,,,,,,,,,,,,,,,,,,,,,,,,
1577418969.735277,92.000000,0.000000,4263.589844,4355.897461,4117.436035,4144.102539,4231.282227,450.000000,4.000000,,,,0.000000,4.000000,4.000000,2.000000,4.000000,4.000000,,,,,,,,,,,,,,,,,,,,,,,,,,,,,,,,,,,,,,,,,,,,,,,,,,,,,,,,
1577418969.743078,93.000000,0.000000,4274.358887,4356.922852,4124.615234,4151.794922,4237.436035,450.000000,4.000000,,,,0.000000,4.000000,4.000000,2.000000,4.000000,4.000000,,,,,,,,,,,,,,,,,,,,,,,,,,,,,,,,,,,,,,,,,,,,,,,,,,,,,,,,
1577418969.750878,94.000000,0.000000,4293.846191,4372.307617,4133.846191,4159.487305,4256.410156,450.000000,4.000000,,,,0.000000,4.000000,4.000000,2.000000,4.000000,4.000000,,,,,,,,,,,,,,,,,,,,,,,,,,,,,,,,,,,,,,,,,,,,,,,,,,,,,,,,
1577418969.758579,95.000000,0.000000,4294.871582,4372.820313,4125.128418,4147.179688,4254.871582,16229.000000,4.000000,,,,0.000000,4.000000,4.000000,2.000000,4.000000,4.000000,,,,,,,,,,,,,,,,,,,,,,,,,,,,,,,,,,,,,,,,,,,,,,,,,,,,,,,,
1577418969.766280,96.000000,0.000000,4274.871582,4361.025879,4112.820313,4128.717773,4230.256348,450.000000,4.000000,,,,0.000000,4.000000,4.000000,2.000000,4.000000,4.000000,,,,,,,,,,,,,,,,,,,,,,,,,,,,,,,,,,,,,,,,,,,,,,,,,,,,,,,,
1577418969.774081,97.000000,0.000000,4265.128418,4349.743652,4108.717773,4124.615234,4222.051270,450.000000,4.000000,,,,0.000000,4.000000,4.000000,2.000000,4.000000,4.000000,,,,,,,,,,,,,,,,,,,,,,,,,,,,,,,,,,,,,,,,,,,,,,,,,,,,,,,,
1577418969.781782,98.000000,0.000000,4261.538574,4345.641113,4125.128418,4133.333496,4227.179688,450.000000,4.000000,,,,0.000000,4.000000,4.000000,2.000000,4.000000,4.000000,,,,,,,,,,,,,,,,,,,,,,,,,,,,,,,,,,,,,,,,,,,,,,,,,,,,,,,,
1577418969.789683,99.000000,0.000000,4254.871582,4363.589844,4125.128418,4141.025879,4220.512695,16229.000000,4.000000,,,,0.000000,4.000000,4.000000,2.000000,4.000000,4.000000,,,,,,,,,,,,,,,,,,,,,,,,,,,,,,,,,,,,,,,,,,,,,,,,,,,,,,,,
1577418969.797485,100.000000,0.000000,4257.436035,4368.717773,4121.538574,4149.743652,4222.563965,450.000000,4.000000,,,,0.000000,4.000000,4.000000,2.000000,4.000000,4.000000,,,,,,,,,,,,,,,,,,,,,,,,,,,,,,,,,,,,,,,,,,,,,,,,,,,,,,,,
1577418969.805286,101.000000,0.000000,4268.717773,4357.948730,4129.230957,4157.436035,4231.282227,450.000000,4.000000,,,,0.000000,4.000000,4.000000,2.000000,4.000000,4.000000,,,,,,,,,,,,,,,,,,,,,,,,,,,,,,,,,,,,,,,,,,,,,,,,,,,,,,,,
1577418969.813088,102.000000,0.000000,4276.922852,4370.256348,4122.051270,4155.384766,4226.153809,450.000000,4.000000,,,,0.000000,4.000000,4.000000,2.000000,4.000000,4.000000,,,,,,,,,,,,,,,,,,,,,,,,,,,,,,,,,,,,,,,,,,,,,,,,,,,,,,,,
1577418969.820989,103.000000,1.000000,4272.820313,4368.205078,4122.051270,4152.136719,4221.994141,2203.222168,4.000000,,,,0.000000,4.000000,4.000000,2.000000,4.000000,4.000000,,,,,,,,,,,,,,,,,,,,,,,,,,,,,,,,,,,,,,,,,,,,,,,,,,,,,,,,
1577418969.828790,104.000000,1.000000,4268.717773,4366.153809,4122.051270,4148.888672,4217.834961,3956.444336,4.000000,,,,0.000000,4.000000,4.000000,2.000000,4.000000,4.000000,,,,,,,,,,,,,,,,,,,,,,,,,,,,,,,,,,,,,,,,,,,,,,,,,,,,,,,,
1577418969.836591,105.000000,1.000000,4264.615234,4364.102539,4122.051270,4145.641113,4213.675293,5709.666504,4.000000,,,,0.000000,4.000000,4.000000,2.000000,4.000000,4.000000,,,,,,,,,,,,,,,,,,,,,,,,,,,,,,,,13.194094,3.377007,1.351121,0.915621,0.400092,0.850905,0.557206,1.129541,0.996637,1.761669,0.883565,1.524683,1.113791,0.888181,1.914613,2.226178,2.360478,1.070999,0.705821,0.532893,5.663035,3.303791,1.035288,0.950177,0.444191
1577418969.844392,106.000000,1.000000,4260.512695,4362.051270,4122.051270,4142.393066,4209.515625,7462.888672,4.000000,,,,0.000000,4.000000,4.000000,2.000000,4.000000,4.000000,,,,,,,,,,,,,,,,,,,,,,,,,,,,,,,,,,,,,,,,,,,,,,,,,,,,,,,,
1577418969.852193,107.000000,1.000000,4256.410156,4360.000000,4122.051270,4139.145508,4205.355957,9216.111328,4.000000,,,,0.000000,4.000000,4.000000,2.000000,4.000000,4.000000,,,,,,,,,,,,,,,,,,,,,,,,,,,,,,,,,,,,,,,,,,,,,,,,,,,,,,,,
1577418969.859994,108.000000,1.000000,4252.307617,4357.948730,4122.051270,4135.897461,4201.196777,10969.333008,4.000000,,,,0.000000,4.000000,4.000000,2.000000,4.000000,4.000000,,,,,,,,,,,,,,,,,,,,,,,,,,,,,,,,,,,,,,,,,,,,,,,,,,,,,,,,
1577418969.867795,109.000000,1.000000,4248.205078,4355.897461,4122.051270,4132.649414,4197.037109,12722.555664,4.000000,,,,0.000000,4.000000,4.000000,2.000000,4.000000,4.000000,,,,,,,,,,,,,,,,,,,,,,,,,,,,,,,,,,,,,,,,,,,,,,,,,,,,,,,,
1577418969.875596,110.000000,1.000000,4244.102539,4353.846191,4122.051270,4129.401855,4192.877441,14475.777344,4.000000,,,,0.000000,4.000000,4.000000,2.000000,4.000000,4.000000,,,,,,,,,,,,,,,,,,,,,,,,,,,,,,,,,,,,,,,,,,,,,,,,,,,,,,,,
1577418969.883397,111.000000,0.000000,4240.000000,4351.794922,4122.051270,4126.153809,4188.717773,16229.000000,4.000000,,,,0.000000,4.000000,4.000000,2.000000,4.000000,4.000000,,,,,,,,,,,,,,,,,,,,,,,,,,,,,,,,,,,,,,,,,,,,,,,,,,,,,,,,
1577418969.891098,112.000000,0.000000,4262.051270,4372.307617,4128.717773,4148.717773,4218.461426,450.000000,4.000000,,,,0.000000,4.000000,4.000000,2.000000,4.000000,4.000000,,,,,,,,,,,,,,,,,,,,,,,,,,,,,,,,,,,,,,,,,,,,,,,,,,,,,,,,
1577418969.898799,113.000000,0.000000,4273.846191,4376.922852,4135.897461,4163.077148,4237.948730,450.000000,4.000000,,,,0.000000,4.000000,4.000000,2.000000,4.000000,4.000000,,,,,,,,,,,,,,,,,,,,,,,,,,,,,,,,,,,,,,,,,,,,,,,,,,,,,,,,
1577418969.906599,114.000000,0.000000,4258.974121,4365.641113,4136.922852,4150.256348,4224.615234,450.000000,4.000000,,,,0.000000,4.000000,4.000000,2.000000,4.000000,4.000000,,,,,,,,,,,,,,,,,,,,,,,,,,,,,,,,,,,,,,,,,,,,,,,,,,,,,,,,
1577418969.914400,115.000000,0.000000,4257.436035,4361.025879,4129.230957,4138.974121,4218.974121,16229.000000,4.000000,,,,0.000000,4.000000,4.000000,2.000000,4.000000,4.000000,,,,,,,,,,,,,,,,,,,,,,,,,,,,,,,,,,,,,,,,,,,,,,,,,,,,,,,,
1577418969.922101,116.000000,0.000000,4260.512695,4358.461426,4143.077148,4149.743652,4228.717773,450.000000,4.000000,,,,0.000000,4.000000,4.000000,2.000000,4.000000,4.000000,,,,,,,,,,,,,,,,,,,,,,,,,,,,,,,,,,,,,,,,,,,,,,,,,,,,,,,,
1577418969.930003,117.000000,1.000000,4254.700684,4358.632324,4142.051270,4148.147949,4225.185059,450.000000,4.000000,,,,0.000000,4.000000,4.000000,2.000000,4.000000,4.000000,,,,,,,,,,,,,,,,,,,,,,,,,,,,,,,,,,,,,,,,,,,,,,,,,,,,,,,,
1577418969.937806,118.000000,1.000000,4248.888672,4358.803223,4141.025879,4146.552734,4221.652344,450.000000,4.000000,,,,0.000000,4.000000,4.000000,2.000000,4.000000,4.000000,,,,,,,,,,,,,,,,,,,,,,,,,,,,,,,,,,,,,,,,,,,,,,,,,,,,,,,,
1577418969.945608,119.000000,1.000000,4243.077148,4358.974121,4140.000000,4144.957031,4218.119629,450.000000,4.000000,,,,0.000000,4.000000,4.000000,2.000000,4.000000,4.000000,,,,,,,,,,,,,,,,,,,,,,,,,,,,,,,,,,,,,,,,,,,,,,,,,,,,,,,,
1577418969.953410,120.000000,1.000000,4237.265137,4359.145508,4138.974121,4143.361816,4214.586914,450.000000,4.000000,,,,0.000000,4.000000,4.000000,2.000000,4.000000,4.000000,,,,,,,,,,,,,,,,,,,,,,,,,,,,,,,,,,,,,,,,,,,,,,,,,,,,,,,,
1577418969.961212,121.000000,1.000000,4231.453125,4359.316406,4137.948730,4141.766602,4211.054199,450.000000,4.000000,,,,0.000000,4.000000,4.000000,2.000000,4.000000,4.000000,,,,,,,,,,,,,,,,,,,,,,,,,,,,,,,,10.118956,3.274491,1.022113,0.714324,0.263743,0.799988,0.628499,1.012098,0.831807,1.816613,0.487725,1.187922,0.553976,0.386675,0.363928,1.881713,2.468346,0.898851,0.698833,0.368980,3.662636,3.479156,0.770493,0.901289,0.349067
1577418969.969015,122.000000,1.000000,4225.641113,4359.487305,4136.922852,4140.170898,4207.521484,450.000000,4.000000,,,,0.000000,4.000000,4.000000,2.000000,4.000000,4.000000,,,,,,,,,,,,,,,,,,,,,,,,,,,,,,,,,,,,,,,,,,,,,,,,,,,,,,,,
1577418969.976817,123.000000,1.000000,4219.829102,4359.658203,4135.897461,4138.575684,4203.988770,450.000000,4.000000,,,,0.000000,4.000000,4.000000,2.000000,4.000000,4.000000,,,,,,,,,,,,,,,,,,,,,,,,,,,,,,,,,,,,,,,,,,,,,,,,,,,,,,,,
1577418969.984619,124.000000,1.000000,4214.017090,4359.829102,4134.871582,4136.979980,4200.456055,450.000000,4.000000,,,,0.000000,4.000000,4.000000,2.000000,4.000000,4.000000,,,,,,,,,,,,,,,,,,,,,,,,,,,,,,,,,,,,,,,,,,,,,,,,,,,,,,,,
1577418969.992421,125.000000,0.000000,4208.205078,4360.000000,4133.846191,4135.384766,4196.922852,450.000000,4.000000,,,,0.000000,4.000000,4.000000,2.000000,4.000000,4.000000,,,,,,,,,,,,,,,,,,,,,,,,,,,,,,,,,,,,,,,,,,,,,,,,,,,,,,,,
1577418970.000323,126.000000,0.000000,4204.102539,4348.205078,4135.897461,4136.922852,4198.974121,450.000000,4.000000,,,,0.000000,4.000000,4.000000,2.000000,4.000000,4.000000,,,,,,,,,,,,,,,,,,,,,,,,,,,,,,,,,,,,,,,,,,,,,,,,,,,,,,,,
1577418970.008124,127.000000,0.000000,4209.743652,4353.846191,4141.025879,4150.256348,4208.717773,238.000000,4.000000,,,,0.000000,4.000000,4.000000,2.000000,4.000000,4.000000,,,,,,,,,,,,,,,,,,,,,,,,,,,,,,,,,,,,,,,,,,,,,,,,,,,,,,,,
1577418970.015925,0.000000,0.000000,4214.871582,4355.897461,4132.307617,4155.384766,4211.282227,450.000000,4.000000,,,,0.000000,4.000000,4.000000,2.000000,4.000000,4.000000,,,,,,,,,,,,,,,,,,,,,,,,,,,,,,,,,,,,,,,,,,,,,,,,,,,,,,,,
1577418970.023727,1.000000,0.000000,4204.615234,4344.615234,4133.333496,4147.692383,4201.538574,450.000000,4.000000,,,,0.000000,4.000000,4.000000,2.000000,4.000000,4.000000,,,,,,,,,,,,,,,,,,,,,,,,,,,,,,,,,,,,,,,,,,,,,,,,,,,,,,,,
1577418970.031528,2.000000,0.000000,4195.897461,4348.205078,4126.153809,4138.461426,4193.846191,16235.000000,4.000000,,,,0.000000,4.000000,4.000000,2.000000,4.000000,4.000000,,,,,,,,,,,,,,,,,,,,,,,,,,,,,,,,,,,,,,,,,,,,,,,,,,,,,,,,
1577418970.039229,3.000000,0.000000,4194.358887,4356.410156,4131.794922,4135.384766,4196.922852,450.000000,4.000000,,,,0.000000,4.000000,4.000000,2.000000,4.000000,4.000000,,,,,,,,,,,,,,,,,,,,,,,,,,,,,,,,,,,,,,,,,,,,,,,,,,,,,,,,
1577418970.047130,4.000000,1.000000,4194.473145,4357.037109,4132.535645,4136.638184,4197.094238,16203.000000,4.000000,,,,0.000000,4.000000,4.000000,2.000000,4.000000,4.000000,,,,,,,,,,,,,,,,,,,,,,,,,,,,,,,,,,,,,,,,,,,,,,,,,,,,,,,,
1577418970.054932,5.000000,1.000000,4194.586914,4357.663574,4133.276367,4137.891602,4197.265137,450.000000,4.000000,,,,0.000000,4.000000,4.000000,2.000000,4.000000,4.000000,,,,,,,,,,,,,,,,,,,,,,,,,,,,,,,,,,,,,,,,,,,,,,,,,,,,,,,,
1577418970.062733,6.000000,1.000000,4194.700684,4358.290527,4134.017090,4139.145508,4197.436035,320.000000,4.000000,,,,0.000000,4.000000,4.000000,2.000000,4.000000,4.000000,,,,,,,,,,,,,,,,,,,,,,,,,,,,,,,,,,,,,,,,,,,,,,,,,,,,,,,,
1577418970.070535,7.000000,1.000000,4194.814941,4358.917480,4134.757813,4140.398926,4197.606934,450.000000,4.000000,,,,0.000000,4.000000,4.000000,2.000000,4.000000,4.000000,,,,,,,,,,,,,,,,,,,,,,,,,,,,,,,,,,,,,,,,,,,,,,,,,,,,,,,,
1577418970.078336,8.000000,1.000000,4194.928711,4359.543945,4135.498535,4141.652344,4197.777832,450.000000,4.000000,,,,0.000000,4.000000,4.000000,2.000000,4.000000,4.000000,,,,,,,,,,,,,,,,,,,,,,,,,,,,,,,,,,,,,,,,,,,,,,,,,,,,,,,,
1577418970.086138,9.000000,1.000000,4195.042969,4360.170898,4136.239258,4142.905762,4197.948730,16179.000000,4.000000,,,,0.000000,4.000000,4.000000,2.000000,4.000000,4.000000,,,,,,,,,,,,,,,,,,,,,,,,,,,,,,,,7.626651,3.637009,0.984691,0.658767,0.232456,0.875630,0.741621,0.882060,0.750240,1.875056,0.606424,1.261027,0.539218,0.418737,0.317131,1.808538,2.577211,0.875860,0.734605,0.294796,2.846100,3.985428,0.713886,0.949342,0.320182
1577418970.093939,10.000000,1.000000,4195.156738,4360.797852,4136.979980,4144.159668,4198.119629,450.000000,4.000000,,,,0.000000,4.000000,4.000000,2.000000,4.000000,4.000000,,,,,,,,,,,,,,,,,,,,,,,,,,,,,,,,,,,,,,,,,,,,,,,,,,,,,,,,
1577418970.101741,11.000000,1.000000,4195.270508,4361.424316,4137.720703,4145.413086,4198.290527,16229.000000,4.000000,,,,0.000000,4.000000,4.000000,2.000000,4.000000,4.000000,,,,,,,,,,,,,,,,,,,,,,,,,,,,,,,,,,,,,,,,,,,,,,,,,,,,,,,,
1577418970.109542,12.000000,0.000000,4195.384766,4362.051270,4138.461426,4146.666504,4198.461426,450.000000,4.000000,,,,0.000000,4.000000,4.000000,2.000000,4.000000,4.000000,,,,,,,,,,,,,,,,,,,,,,,,,,,,,,,,,,,,,,,,,,,,,,,,,,,,,,,,
1577418970.117243,13.000000,0.000000,4168.717773,4325.641113,4111.794922,4127.692383,4172.820313,450.000000,4.000000,,,,0.000000,4.000000,4.000000,2.000000,4.000000,4.000000,,,,,,,,,,,,,,,,,,,,,,,,,,,,,,,,,,,,,,,,,,,,,,,,,,,,,,,,
1577418970.124944,14.000000,0.000000,4161.025879,4341.538574,4118.974121,4141.025879,4180.512695,450.000000,4.000000,,,,0.000000,4.000000,4.000000,2.000000,4.000000,4.000000,,,,,,,,,,,,,,,,,,,,,,,,,,,,,,,,,,,,,,,,,,,,,,,,,,,,,,,,
1577418970.132845,15.000000,0.000000,4146.666504,4363.077148,4111.794922,4135.384766,4173.333496,16234.000000,4.000000,,,,0.000000,4.000000,4.000000,2.000000,4.000000,4.000000,,,,,,,,,,,,,,,,,,,,,,,,,,,,,,,,,,,,,,,,,,,,,,,,,,,,,,,,
