title:h1, start timestamp:2019-12-27T21:54:17.570528+03:00, stop timestamp:2019-12-27T21:54:46.967570+03:00, headset type:INSIGHT, headset serial:A2D200FB, headset firmware:930, subject name:Qasim, channels:44, sampling rate:eeg_128;pow_8, samples:3330      , version:2.0
Timestamp,EEG.Counter,EEG.Interpolated,EEG.AF3,EEG.T7,EEG.Pz,EEG.T8,EEG.AF4,EEG.RawCq,EEG.Battery,MarkerIndex,MarkerType,MarkerValueInt,EEG.MarkerHardware,CQ.AF3,CQ.T7,CQ.Pz,CQ.T8,CQ.AF4,POW.AF3.Theta,POW.AF3.Alpha,POW.AF3.BetaL,POW.AF3.BetaH,POW.AF3.Gamma,POW.T7.Theta,POW.T7.Alpha,POW.T7.BetaL,POW.T7.BetaH,POW.T7.Gamma,POW.Pz.Theta,POW.Pz.Alpha,POW.Pz.BetaL,POW.Pz.BetaH,POW.Pz.Gamma,POW.T8.Theta,POW.T8.Alpha,POW.T8.BetaL,POW.T8.BetaH,POW.T8.Gamma,POW.AF4.Theta,POW.AF4.Alpha,POW.AF4.BetaL,POW.AF4.BetaH,POW.AF4.Gamma
1577472857.570528,83.000000,0.000000,4031.794922,4193.846191,3954.871826,3999.487061,3984.615479,16152.000000,3.000000,,,,0.000000,4.000000,4.000000,4.000000,4.000000,4.000000,,,,,,,,,,,,,,,,,,,,,,,,,
1577472857.578227,84.000000,0.000000,4062.051270,4237.436035,3982.564209,4031.794922,4016.923096,450.000000,3.000000,,,,0.000000,4.000000,4.000000,4.000000,4.000000,4.000000,,,,,,,,,,,,,,,,,,,,,,,,,
1577472857.586026,85.000000,0.000000,4051.281982,4232.307617,3967.692383,4051.281982,4010.769287,450.000000,3.000000,,,,0.000000,4.000000,4.000000,4.000000,4.000000,4.000000,,,,,,,,,,,,,,,,,,,,,,,,,
1577472857.593726,86.000000,0.000000,3988.205078,4160.512695,3914.871826,3937.435791,3981.538574,450.000000,3.000000,,,,0.000000,4.000000,4.000000,4.000000,4.000000,4.000000,9.591582,12.659772,5.906299,37.449024,15.700953,3.761746,3.396390,5.631290,13.108765,6.271498,5.852757,9.570648,6.349562,22.654198,9.793904,17.751469,9.553773,5.742668,10.698924,7.946252,8.685679,13.891745,3.979659,11.769550,8.247747
1577472857.601525,87.000000,0.000000,3973.333252,4157.948730,3905.128174,3874.871826,3994.358887,16152.000000,3.000000,,,,0.000000,4.000000,4.000000,4.000000,4.000000,4.000000,,,,,,,,,,,,,,,,,,,,,,,,,
1577472857.609224,88.000000,0.000000,4001.538574,4196.410156,3935.384521,4014.358887,3992.820557,450.000000,3.000000,,,,0.000000,4.000000,4.000000,4.000000,4.000000,4.000000,,,,,,,,,,,,,,,,,,,,,,,,,
1577472857.617023,89.000000,0.000000,4072.820557,4215.384766,3990.256348,4088.718018,4032.820557,450.000000,3.000000,,,,0.000000,4.000000,4.000000,4.000000,4.000000,4.000000,,,,,,,,,,,,,,,,,,,,,,,,,
1577472857.624722,90.000000,0.000000,4065.128174,4187.179688,3968.205078,4017.948730,4030.256348,450.000000,3.000000,,,,0.000000,4.000000,4.000000,4.000000,4.000000,4.000000,,,,,,,,,,,,,,,,,,,,,,,,,
1577472857.632521,91.000000,0.000000,3956.923096,4135.384766,3871.794922,3955.897461,3981.025635,16152.000000,3.000000,,,,0.000000,4.000000,4.000000,4.000000,4.000000,4.000000,,,,,,,,,,,,,,,,,,,,,,,,,
1577472857.640220,92.000000,0.000000,3933.333252,4134.358887,3861.538574,3890.256348,3999.487061,450.000000,3.000000,,,,0.000000,4.000000,4.000000,4.000000,4.000000,4.000000,,,,,,,,,,,,,,,,,,,,,,,,,
1577472857.648019,93.000000,0.000000,3999.487061,4175.897461,3920.512939,3925.128174,4020.512939,450.000000,3.000000,,,,0.000000,4.000000,4.000000,4.000000,4.000000,4.000000,,,,,,,,,,,,,,,,,,,,,,,,,
1577472857.655718,94.000000,0.000000,4085.641113,4221.538574,3986.666748,4121.538574,4050.256348,450.000000,3.000000,,,,0.000000,4.000000,4.000000,4.000000,4.000000,4.000000,,,,,,,,,,,,,,,,,,,,,,,,,
1577472857.663517,95.000000,0.000000,4088.205078,4203.589844,4001.025635,4120.000000,4053.846191,16152.000000,3.000000,,,,0.000000,4.000000,4.000000,4.000000,4.000000,4.000000,,,,,,,,,,,,,,,,,,,,,,,,,
1577472857.671215,96.000000,0.000000,4006.153809,4163.589844,3940.512939,3971.794922,4013.333252,450.000000,3.000000,,,,0.000000,4.000000,4.000000,4.000000,4.000000,4.000000,,,,,,,,,,,,,,,,,,,,,,,,,
1577472857.679014,97.000000,0.000000,4006.153809,4191.282227,3928.205078,4025.641113,4036.410156,450.000000,3.000000,,,,0.000000,4.000000,4.000000,4.000000,4.000000,4.000000,,,,,,,,,,,,,,,,,,,,,,,,,
1577472857.686713,98.000000,0.000000,4033.846191,4186.153809,3957.948730,4060.512939,4067.692383,450.000000,3.000000,,,,0.000000,4.000000,4.000000,4.000000,4.000000,4.000000,,,,,,,,,,,,,,,,,,,,,,,,,
1577472857.694511,99.000000,0.000000,4072.820557,4185.641113,4007.179443,4065.641113,4108.205078,16152.000000,3.000000,,,,0.000000,4.000000,4.000000,4.000000,4.000000,4.000000,,,,,,,,,,,,,,,,,,,,,,,,,
1577472857.702210,100.000000,0.000000,4095.384521,4229.230957,4015.897461,4127.692383,4103.589844,450.000000,3.000000,,,,0.000000,4.000000,4.000000,4.000000,4.000000,4.000000,,,,,,,,,,,,,,,,,,,,,,,,,
1577472857.710008,101.000000,0.000000,4022.051270,4203.589844,3934.871826,4020.000000,4011.281982,450.000000,3.000000,,,,0.000000,4.000000,4.000000,4.000000,4.000000,4.000000,,,,,,,,,,,,,,,,,,,,,,,,,
1577472857.717707,102.000000,0.000000,4023.589844,4181.538574,3926.153809,3961.025635,4016.923096,450.000000,3.000000,,,,0.000000,4.000000,4.000000,4.000000,4.000000,4.000000,10.824483,12.849075,5.498228,39.159031,15.009762,3.083916,3.519299,5.458336,13.410395,6.570157,4.792883,10.720085,7.017992,24.049124,9.294165,17.392191,10.799331,7.518150,11.983302,8.370993,9.771563,13.694544,3.678652,13.630625,7.496960
1577472857.725505,103.000000,0.000000,4036.923096,4188.717773,3944.615479,4076.923096,4051.281982,16152.000000,3.000000,,,,0.000000,4.000000,4.000000,4.000000,4.000000,4.000000,,,,,,,,,,,,,,,,,,,,,,,,,
1577472857.733204,104.000000,0.000000,3998.461426,4189.743652,3949.230713,4072.820557,4045.128174,450.000000,3.000000,,,,0.000000,4.000000,4.000000,4.000000,4.000000,4.000000,,,,,,,,,,,,,,,,,,,,,,,,,
1577472857.740903,105.000000,0.000000,4022.051270,4206.666504,3981.538574,3939.487061,4066.153809,450.000000,3.000000,,,,0.000000,4.000000,4.000000,4.000000,4.000000,4.000000,,,,,,,,,,,,,,,,,,,,,,,,,
1577472857.748703,106.000000,0.000000,4062.564209,4227.179688,3985.641113,3978.461426,4077.948730,450.000000,3.000000,,,,0.000000,4.000000,4.000000,4.000000,4.000000,4.000000,,,,,,,,,,,,,,,,,,,,,,,,,
1577472857.756402,107.000000,0.000000,4145.641113,4261.025879,4038.461426,4152.820313,4120.000000,16152.000000,3.000000,,,,0.000000,4.000000,4.000000,4.000000,4.000000,4.000000,,,,,,,,,,,,,,,,,,,,,,,,,
1577472857.764201,108.000000,0.000000,4160.512695,4233.333496,4054.871826,4101.538574,4143.077148,450.000000,3.000000,,,,0.000000,4.000000,4.000000,4.000000,4.000000,4.000000,,,,,,,,,,,,,,,,,,,,,,,,,
1577472857.771901,109.000000,0.000000,4070.256348,4192.820313,3994.358887,3951.794922,4121.025879,450.000000,3.000000,,,,0.000000,4.000000,4.000000,4.000000,4.000000,4.000000,,,,,,,,,,,,,,,,,,,,,,,,,
1577472857.779700,110.000000,0.000000,4070.256348,4236.922852,3989.230713,4035.384521,4124.102539,450.000000,3.000000,,,,0.000000,4.000000,4.000000,4.000000,4.000000,4.000000,,,,,,,,,,,,,,,,,,,,,,,,,
1577472857.787399,111.000000,0.000000,4141.025879,4256.922852,4015.897461,4119.487305,4137.436035,16152.000000,3.000000,,,,0.000000,4.000000,4.000000,4.000000,4.000000,4.000000,,,,,,,,,,,,,,,,,,,,,,,,,
1577472857.795198,112.000000,0.000000,4204.102539,4258.461426,4063.589844,4041.025635,4163.077148,450.000000,3.000000,,,,0.000000,4.000000,4.000000,4.000000,4.000000,4.000000,,,,,,,,,,,,,,,,,,,,,,,,,
1577472857.802898,113.000000,0.000000,4186.666504,4249.230957,4055.897461,4027.692383,4150.769043,450.000000,3.000000,,,,0.000000,4.000000,4.000000,4.000000,4.000000,4.000000,,,,,,,,,,,,,,,,,,,,,,,,,
1577472857.810697,114.000000,0.000000,4096.922852,4224.102539,3986.666748,4080.512939,4102.563965,450.000000,3.000000,,,,0.000000,4.000000,4.000000,4.000000,4.000000,4.000000,,,,,,,,,,,,,,,,,,,,,,,,,
1577472857.818396,115.000000,0.000000,4078.974365,4236.410156,3976.923096,4041.025635,4096.410156,16152.000000,3.000000,,,,0.000000,4.000000,4.000000,4.000000,4.000000,4.000000,,,,,,,,,,,,,,,,,,,,,,,,,
1577472857.826195,116.000000,0.000000,4138.974121,4260.000000,4014.358887,4034.871826,4141.025879,450.000000,3.000000,,,,0.000000,4.000000,4.000000,4.000000,4.000000,4.000000,,,,,,,,,,,,,,,,,,,,,,,,,
1577472857.833894,117.000000,0.000000,4212.307617,4305.641113,4087.692383,4161.025879,4204.102539,450.000000,3.000000,,,,0.000000,4.000000,4.000000,4.000000,4.000000,4.000000,,,,,,,,,,,,,,,,,,,,,,,,,
1577472857.841693,118.000000,0.000000,4211.282227,4281.538574,4077.948730,4140.512695,4185.128418,450.000000,3.000000,,,,0.000000,4.000000,4.000000,4.000000,4.000000,4.000000,12.855101,12.565456,5.092536,38.831371,14.048638,2.567956,3.350688,5.323020,13.346581,6.775569,4.581816,11.598820,7.677592,24.379616,8.388412,17.924704,11.726737,8.966499,13.199258,8.631084,10.615251,12.778951,3.352343,14.361177,6.581746
1577472857.849492,119.000000,0.000000,4169.743652,4235.897461,4006.666748,4024.615479,4139.487305,16152.000000,3.000000,,,,0.000000,4.000000,4.000000,4.000000,4.000000,4.000000,,,,,,,,,,,,,,,,,,,,,,,,,
1577472857.857189,120.000000,0.000000,4225.128418,4302.051270,4055.384521,4090.256348,4194.871582,450.000000,3.000000,,,,0.000000,4.000000,4.000000,4.000000,4.000000,4.000000,,,,,,,,,,,,,,,,,,,,,,,,,
1577472857.864888,121.000000,0.000000,4250.256348,4305.641113,4077.948730,4123.589844,4225.128418,450.000000,3.000000,,,,0.000000,4.000000,4.000000,4.000000,4.000000,4.000000,,,,,,,,,,,,,,,,,,,,,,,,,
1577472857.872687,122.000000,0.000000,4221.538574,4276.922852,4064.615479,4120.000000,4206.153809,450.000000,3.000000,,,,0.000000,4.000000,4.000000,4.000000,4.000000,4.000000,,,,,,,,,,,,,,,,,,,,,,,,,
1577472857.880385,123.000000,0.000000,4277.948730,4309.230957,4120.512695,4177.436035,4240.000000,16152.000000,3.000000,,,,0.000000,4.000000,4.000000,4.000000,4.000000,4.000000,,,,,,,,,,,,,,,,,,,,,,,,,
1577472857.888085,124.000000,0.000000,4330.256348,4315.384766,4147.692383,4148.205078,4265.641113,450.000000,3.000000,,,,0.000000,4.000000,4.000000,4.000000,4.000000,4.000000,,,,,,,,,,,,,,,,,,,,,,,,,
1577472857.895885,125.000000,0.000000,4340.000000,4346.153809,4173.333496,4143.077148,4259.487305,450.000000,3.000000,,,,0.000000,4.000000,4.000000,4.000000,4.000000,4.000000,,,,,,,,,,,,,,,,,,,,,,,,,
1577472857.903585,126.000000,0.000000,4306.153809,4361.025879,4147.692383,4165.128418,4227.179688,450.000000,3.000000,,,,0.000000,4.000000,4.000000,4.000000,4.000000,4.000000,,,,,,,,,,,,,,,,,,,,,,,,,
1577472857.911385,127.000000,0.000000,4249.230957,4322.563965,4093.333252,4091.281982,4207.692383,232.000000,3.000000,,,,0.000000,4.000000,4.000000,4.000000,4.000000,4.000000,,,,,,,,,,,,,,,,,,,,,,,,,
1577472857.919084,0.000000,0.000000,4273.333496,4316.410156,4142.051270,4064.102539,4251.282227,450.000000,3.000000,,,,0.000000,4.000000,4.000000,4.000000,4.000000,4.000000,,,,,,,,,,,,,,,,,,,,,,,,,
1577472857.926884,1.000000,0.000000,4340.000000,4338.461426,4192.307617,4156.410156,4289.230957,450.000000,3.000000,,,,0.000000,4.000000,4.000000,4.000000,4.000000,4.000000,,,,,,,,,,,,,,,,,,,,,,,,,
1577472857.934583,2.000000,0.000000,4395.384766,4379.487305,4213.333496,4251.282227,4304.102539,16106.000000,3.000000,,,,0.000000,4.000000,4.000000,4.000000,4.000000,4.000000,,,,,,,,,,,,,,,,,,,,,,,,,
1577472857.942383,3.000000,0.000000,4341.538574,4344.102539,4163.589844,4178.461426,4254.358887,450.000000,3.000000,,,,0.000000,4.000000,4.000000,4.000000,4.000000,4.000000,,,,,,,,,,,,,,,,,,,,,,,,,
1577472857.950082,4.000000,0.000000,4198.974121,4253.333496,4062.564209,4050.256348,4172.820313,16109.000000,3.000000,,,,0.000000,4.000000,4.000000,4.000000,4.000000,4.000000,,,,,,,,,,,,,,,,,,,,,,,,,
1577472857.957882,5.000000,0.000000,4201.538574,4297.436035,4082.051270,4079.487061,4211.794922,450.000000,3.000000,,,,0.000000,4.000000,4.000000,4.000000,4.000000,4.000000,,,,,,,,,,,,,,,,,,,,,,,,,
1577472857.965581,6.000000,0.000000,4315.384766,4364.615234,4164.615234,4155.897461,4294.871582,16143.000000,3.000000,,,,0.000000,4.000000,4.000000,4.000000,4.000000,4.000000,15.627888,11.776375,4.982585,36.598400,12.972227,2.374141,2.971416,5.351810,12.953683,6.811950,4.587485,12.094517,8.155538,23.472555,7.332892,18.430290,12.077869,9.728130,14.397142,9.199405,11.089870,11.341804,3.094287,13.679449,5.644486
1577472857.973282,7.000000,0.000000,4372.820313,4352.820313,4211.794922,4202.563965,4317.436035,450.000000,3.000000,,,,0.000000,4.000000,4.000000,4.000000,4.000000,4.000000,,,,,,,,,,,,,,,,,,,,,,,,,
1577472857.981082,8.000000,0.000000,4355.384766,4342.051270,4202.563965,4188.205078,4284.102539,450.000000,3.000000,,,,0.000000,4.000000,4.000000,4.000000,4.000000,4.000000,,,,,,,,,,,,,,,,,,,,,,,,,
1577472857.988783,9.000000,0.000000,4304.615234,4334.871582,4166.666504,4101.025879,4250.769043,16101.000000,3.000000,,,,0.000000,4.000000,4.000000,4.000000,4.000000,4.000000,,,,,,,,,,,,,,,,,,,,,,,,,
1577472857.996584,10.000000,0.000000,4270.256348,4336.922852,4158.461426,4113.333496,4247.692383,450.000000,3.000000,,,,0.000000,4.000000,4.000000,4.000000,4.000000,4.000000,,,,,,,,,,,,,,,,,,,,,,,,,
1577472858.004284,11.000000,0.000000,4257.948730,4333.846191,4155.897461,4170.769043,4235.384766,16114.000000,3.000000,,,,0.000000,4.000000,4.000000,4.000000,4.000000,4.000000,,,,,,,,,,,,,,,,,,,,,,,,,
1577472858.011986,12.000000,0.000000,4294.358887,4321.538574,4185.641113,4222.563965,4264.102539,450.000000,3.000000,,,,0.000000,4.000000,4.000000,4.000000,4.000000,4.000000,,,,,,,,,,,,,,,,,,,,,,,,,
1577472858.019689,13.000000,0.000000,4305.128418,4329.743652,4188.717773,4207.179688,4273.846191,450.000000,3.000000,,,,0.000000,4.000000,4.000000,4.000000,4.000000,4.000000,,,,,,,,,,,,,,,,,,,,,,,,,
1577472858.027492,14.000000,0.000000,4266.666504,4344.615234,4151.794922,4121.025879,4225.641113,450.000000,3.000000,,,,0.000000,4.000000,4.000000,4.000000,4.000000,4.000000,,,,,,,,,,,,,,,,,,,,,,,,,
1577472858.035195,15.000000,0.000000,4346.153809,4382.563965,4221.538574,4218.974121,4280.512695,16114.000000,3.000000,,,,0.000000,4.000000,4.000000,4.000000,4.000000,4.000000,,,,,,,,,,,,,,,,,,,,,,,,,
1577472858.042998,16.000000,0.000000,4403.077148,4401.025879,4266.153809,4334.871582,4341.538574,0.000000,3.000000,,,,0.000000,4.000000,4.000000,4.000000,4.000000,4.000000,,,,,,,,,,,,,,,,,,,,,,,,,
1577472858.050801,17.000000,0.000000,4320.000000,4377.948730,4206.153809,4217.436035,4310.769043,0.000000,3.000000,,,,0.000000,4.000000,4.000000,4.000000,4.000000,4.000000,,,,,,,,,,,,,,,,,,,,,,,,,
1577472858.058503,18.000000,0.000000,4313.846191,4362.051270,4220.000000,4156.922852,4310.769043,0.000000,3.000000,,,,0.000000,4.000000,4.000000,4.000000,4.000000,4.000000,,,,,,,,,,,,,,,,,,,,,,,,,
1577472858.066304,19.000000,0.000000,4392.820313,4361.538574,4291.794922,4290.769043,4352.820313,0.000000,3.000000,,,,0.000000,4.000000,4.000000,4.000000,4.000000,4.000000,,,,,,,,,,,,,,,,,,,,,,,,,
1577472858.074005,20.000000,0.000000,4457.436035,4395.384766,4329.743652,4389.230957,4403.077148,0.000000,3.000000,,,,0.000000,4.000000,4.000000,4.000000,4.000000,4.000000,,,,,,,,,,,,,,,,,,,,,,,,,
1577472858.081807,21.000000,0.000000,4452.307617,4427.692383,4316.410156,4320.512695,4409.743652,0.000000,3.000000,,,,0.000000,4.000000,4.000000,4.000000,4.000000,4.000000,,,,,,,,,,,,,,,,,,,,,,,,,
1577472858.089508,22.000000,0.000000,4369.230957,4413.846191,4277.948730,4228.717773,4379.487305,0.000000,3.000000,,,,0.000000,4.000000,4.000000,4.000000,4.000000,4.000000,19.842274,10.759155,5.397024,33.302544,12.042616,2.523600,2.552638,5.620548,12.365433,6.632840,4.615724,12.299851,8.406773,21.662199,6.474745,18.330385,11.859051,9.728645,15.897895,10.803550,11.617846,9.786132,3.109444,11.833526,4.861019
1577472858.097309,23.000000,0.000000,4315.897461,4376.922852,4252.307617,4202.563965,4349.230957,0.000000,3.000000,,,,0.000000,4.000000,4.000000,4.000000,4.000000,4.000000,,,,,,,,,,,,,,,,,,,,,,,,,
1577472858.105010,24.000000,0.000000,4331.794922,4356.410156,4256.922852,4236.922852,4328.205078,0.000000,3.000000,,,,0.000000,4.000000,4.000000,4.000000,4.000000,4.000000,,,,,,,,,,,,,,,,,,,,,,,,,
1577472858.112811,25.000000,0.000000,4417.948730,4414.871582,4321.025879,4352.820313,4400.512695,0.000000,3.000000,,,,0.000000,4.000000,4.000000,4.000000,4.000000,4.000000,,,,,,,,,,,,,,,,,,,,,,,,,
1577472858.120512,26.000000,0.000000,4435.384766,4432.820313,4332.820313,4312.820313,4434.358887,0.000000,3.000000,,,,0.000000,4.000000,4.000000,4.000000,4.000000,4.000000,,,,,,,,,,,,,,,,,,,,,,,,,
1577472858.128313,27.000000,0.000000,4325.641113,4355.384766,4241.025879,4147.692383,4341.025879,0.000000,3.000000,,,,0.000000,4.000000,4.000000,4.000000,4.000000,4.000000,,,,,,,,,,,,,,,,,,,,,,,,,
1577472858.136014,28.000000,0.000000,4265.641113,4331.794922,4179.487305,4199.487305,4268.717773,0.000000,3.000000,,,,0.000000,4.000000,4.000000,4.000000,4.000000,4.000000,,,,,,,,,,,,,,,,,,,,,,,,,
1577472858.143716,29.000000,0.000000,4407.179688,4432.307617,4310.256348,4385.641113,4392.820313,0.000000,3.000000,,,,0.000000,4.000000,4.000000,4.000000,4.000000,4.000000,,,,,,,,,,,,,,,,,,,,,,,,,
1577472858.151518,30.000000,0.000000,4491.282227,4474.358887,4396.410156,4378.974121,4547.179688,0.000000,3.000000,,,,0.000000,4.000000,4.000000,4.000000,4.000000,4.000000,,,,,,,,,,,,,,,,,,,,,,,,,
1577472858.159220,31.000000,0.000000,4084.615479,4145.128418,3996.923096,3980.512939,4131.282227,0.000000,3.000000,,,,0.000000,4.000000,4.000000,4.000000,4.000000,4.000000,,,,,,,,,,,,,,,,,,,,,,,,,
1577472858.167022,32.000000,0.000000,3530.256348,3922.564209,3482.051270,3767.692383,3500.000000,0.000000,3.000000,,,,0.000000,4.000000,4.000000,4.000000,4.000000,4.000000,,,,,,,,,,,,,,,,,,,,,,,,,
1577472858.174724,33.000000,0.000000,4094.871826,4394.358887,4073.333252,4294.871582,4168.717773,0.000000,3.000000,,,,0.000000,4.000000,4.000000,4.000000,4.000000,4.000000,,,,,,,,,,,,,,,,,,,,,,,,,
1577472858.182526,34.000000,0.000000,4319.487305,4179.487305,4146.153809,4069.743652,4218.461426,0.000000,3.000000,,,,0.000000,4.000000,4.000000,4.000000,4.000000,4.000000,,,,,,,,,,,,,,,,,,,,,,,,,
1577472858.190228,35.000000,0.000000,2261.538574,2637.948730,2076.923096,2424.102539,1999.487183,0.000000,3.000000,,,,0.000000,4.000000,4.000000,4.000000,4.000000,4.000000,,,,,,,,,,,,,,,,,,,,,,,,,
1577472858.198029,36.000000,0.000000,1101.025635,1932.307739,1117.948730,1718.974365,1094.359009,0.000000,3.000000,,,,0.000000,4.000000,4.000000,4.000000,4.000000,4.000000,,,,,,,,,,,,,,,,,,,,,,,,,
1577472858.205731,37.000000,0.000000,1795.384644,2578.974365,1825.640991,2445.641113,1798.461548,0.000000,3.000000,,,,0.000000,4.000000,4.000000,4.000000,4.000000,4.000000,,,,,,,,,,,,,,,,,,,,,,,,,
1577472858.213533,38.000000,0.000000,1800.512817,2752.307617,1809.230713,2619.487061,1721.025635,0.000000,3.000000,,,,0.000000,4.000000,4.000000,4.000000,4.000000,4.000000,24.156687,9.971949,6.167287,30.191288,11.485400,3.012434,2.249079,6.031475,11.719132,6.276516,4.726450,12.394063,8.423495,19.707142,6.086226,17.388182,11.246673,9.128818,17.947035,14.002099,12.036063,8.574105,3.398078,9.561786,4.405220
1577472858.221235,39.000000,0.000000,1643.589722,2429.230713,1673.333374,2325.641113,1578.461548,0.000000,3.000000,,,,0.000000,4.000000,4.000000,4.000000,4.000000,4.000000,,,,,,,,,,,,,,,,,,,,,,,,,
1577472858.229036,40.000000,0.000000,1877.435913,2580.512939,1869.230713,2536.923096,1790.256470,0.000000,3.000000,,,,0.000000,4.000000,4.000000,4.000000,4.000000,4.000000,,,,,,,,,,,,,,,,,,,,,,,,,
1577472858.236738,41.000000,0.000000,1945.128174,2849.230713,1953.846191,2734.871826,1911.794922,0.000000,3.000000,,,,0.000000,4.000000,4.000000,4.000000,4.000000,4.000000,,,,,,,,,,,,,,,,,,,,,,,,,
1577472858.244539,42.000000,0.000000,1931.794922,2857.435791,1950.256470,2710.256348,1899.487183,0.000000,3.000000,,,,0.000000,4.000000,4.000000,4.000000,4.000000,4.000000,,,,,,,,,,,,,,,,,,,,,,,,,
1577472858.252240,43.000000,0.000000,1984.615356,2845.641113,1967.692261,2796.410156,1934.359009,0.000000,3.000000,,,,0.000000,4.000000,4.000000,4.000000,4.000000,4.000000,,,,,,,,,,,,,,,,,,,,,,,,,
1577472858.260042,44.000000,0.000000,1976.410278,2840.000000,1948.205078,2804.102539,1931.282104,0.000000,3.000000,,,,0.000000,4.000000,4.000000,4.000000,4.000000,4.000000,,,,,,,,,,,,,,,,,,,,,,,,,
1577472858.267743,45.000000,0.000000,2058.974365,2872.820557,2041.025635,2806.153809,2011.282104,0.000000,3.000000,,,,0.000000,4.000000,4.000000,4.000000,4.000000,4.000000,,,,,,,,,,,,,,,,,,,,,,,,,
1577472858.275445,46.000000,0.000000,2134.358887,2943.076904,2105.128174,2882.051270,2065.641113,0.000000,3.000000,,,,0.000000,4.000000,4.000000,4.000000,4.000000,4.000000,,,,,,,,,,,,,,,,,,,,,,,,,
1577472858.283248,47.000000,0.000000,2100.512939,2951.794922,2057.948730,2884.102539,2055.384521,0.000000,3.000000,,,,0.000000,4.000000,4.000000,4.000000,4.000000,4.000000,,,,,,,,,,,,,,,,,,,,,,,,,
1577472858.290950,48.000000,0.000000,2153.333252,2947.692383,2108.205078,2881.025635,2157.435791,0.000000,3.000000,,,,0.000000,4.000000,4.000000,4.000000,4.000000,4.000000,,,,,,,,,,,,,,,,,,,,,,,,,
1577472858.298753,49.000000,0.000000,2168.718018,2941.025635,2132.820557,2857.435791,2162.564209,0.000000,3.000000,,,,0.000000,4.000000,4.000000,4.000000,4.000000,4.000000,,,,,,,,,,,,,,,,,,,,,,,,,
1577472858.306455,50.000000,0.000000,2192.307617,2954.358887,2169.743652,2894.358887,2170.256348,0.000000,3.000000,,,,0.000000,4.000000,4.000000,4.000000,4.000000,4.000000,,,,,,,,,,,,,,,,,,,,,,,,,
1577472858.314257,51.000000,0.000000,2241.025635,3035.897461,2196.410156,3049.230713,2210.769287,0.000000,3.000000,,,,0.000000,4.000000,4.000000,4.000000,4.000000,4.000000,,,,,,,,,,,,,,,,,,,,,,,,,
1577472858.321960,52.000000,0.000000,2202.564209,3034.358887,2134.871826,3027.179443,2200.000000,0.000000,3.000000,,,,0.000000,4.000000,4.000000,4.000000,4.000000,4.000000,,,,,,,,,,,,,,,,,,,,,,,,,
1577472858.329762,53.000000,0.000000,2247.692383,2992.820557,2179.487061,2862.564209,2266.153809,0.000000,3.000000,,,,0.000000,4.000000,4.000000,4.000000,4.000000,4.000000,,,,,,,,,,,,,,,,,,,,,,,,,
1577472858.337464,54.000000,0.000000,2265.641113,3022.564209,2231.281982,2921.025635,2283.076904,0.000000,3.000000,,,,0.000000,4.000000,4.000000,4.000000,4.000000,4.000000,48.967247,16.176500,9.304971,30.076902,13.148780,13.284506,5.850832,8.004274,11.960258,6.748242,22.769579,18.487072,10.960029,20.027681,7.859600,27.578060,14.729851,10.206263,22.017590,20.082800,34.148849,14.304375,6.176311,9.198965,6.182577
1577472858.345266,55.000000,0.000000,2260.000000,3089.743652,2244.102539,3065.641113,2296.410156,0.000000,3.000000,,,,0.000000,4.000000,4.000000,4.000000,4.000000,4.000000,,,,,,,,,,,,,,,,,,,,,,,,,
1577472858.352968,56.000000,0.000000,2331.794922,3129.743652,2254.871826,3065.128174,2327.179443,0.000000,3.000000,,,,0.000000,4.000000,4.000000,4.000000,4.000000,4.000000,,,,,,,,,,,,,,,,,,,,,,,,,
1577472858.360770,57.000000,0.000000,2333.333252,3058.974365,2257.948730,2994.871826,2300.000000,0.000000,3.000000,,,,0.000000,4.000000,4.000000,4.000000,4.000000,4.000000,,,,,,,,,,,,,,,,,,,,,,,,,
1577472858.368472,58.000000,0.000000,2383.076904,3025.641113,2368.205078,2996.923096,2378.974365,0.000000,3.000000,,,,0.000000,4.000000,4.000000,4.000000,4.000000,4.000000,,,,,,,,,,,,,,,,,,,,,,,,,
1577472858.376273,59.000000,0.000000,2418.974365,3118.461426,2389.743652,3071.794922,2428.718018,0.000000,3.000000,,,,0.000000,4.000000,4.000000,4.000000,4.000000,4.000000,,,,,,,,,,,,,,,,,,,,,,,,,
1577472858.383975,60.000000,0.000000,2395.897461,3178.974365,2354.358887,3073.333252,2420.000000,0.000000,3.000000,,,,0.000000,4.000000,4.000000,4.000000,4.000000,4.000000,,,,,,,,,,,,,,,,,,,,,,,,,
1577472858.391777,61.000000,0.000000,2447.179443,3196.923096,2413.846191,3079.487061,2455.384521,0.000000,3.000000,,,,0.000000,4.000000,4.000000,4.000000,4.000000,4.000000,,,,,,,,,,,,,,,,,,,,,,,,,
1577472858.399479,62.000000,0.000000,2455.384521,3195.897461,2413.333252,3093.846191,2436.410156,0.000000,3.000000,,,,0.000000,4.000000,4.000000,4.000000,4.000000,4.000000,,,,,,,,,,,,,,,,,,,,,,,,,
1577472858.407280,63.000000,0.000000,2500.512939,3183.076904,2452.820557,3053.846191,2510.769287,0.000000,3.000000,,,,0.000000,4.000000,4.000000,4.000000,4.000000,4.000000,,,,,,,,,,,,,,,,,,,,,,,,,
1577472858.414982,64.000000,0.000000,2528.205078,3202.564209,2488.205078,3060.512939,2548.205078,450.000000,3.000000,,,,0.000000,4.000000,4.000000,4.000000,4.000000,4.000000,,,,,,,,,,,,,,,,,,,,,,,,,
1577472858.422685,65.000000,0.000000,2502.051270,3227.179443,2478.974365,3131.281982,2496.410156,450.000000,3.000000,,,,0.000000,2.000000,4.000000,4.000000,4.000000,4.000000,,,,,,,,,,,,,,,,,,,,,,,,,
1577472858.430488,66.000000,0.000000,2559.487061,3256.923096,2550.769287,3207.179443,2551.281982,255.000000,3.000000,,,,0.000000,2.000000,4.000000,4.000000,4.000000,4.000000,,,,,,,,,,,,,,,,,,,,,,,,,
1577472858.438291,67.000000,0.000000,2584.102539,3269.743652,2546.153809,3194.871826,2593.333252,450.000000,3.000000,,,,0.000000,2.000000,4.000000,4.000000,4.000000,4.000000,,,,,,,,,,,,,,,,,,,,,,,,,
1577472858.445993,68.000000,0.000000,2641.025635,3276.410156,2564.102539,3137.435791,2632.307617,16110.000000,3.000000,,,,0.000000,2.000000,4.000000,4.000000,4.000000,4.000000,,,,,,,,,,,,,,,,,,,,,,,,,
1577472858.453695,69.000000,0.000000,2682.051270,3315.897461,2621.538574,3173.333252,2652.820557,450.000000,3.000000,,,,0.000000,2.000000,4.000000,2.000000,4.000000,4.000000,,,,,,,,,,,,,,,,,,,,,,,,,
1577472858.461498,70.000000,0.000000,2603.076904,3290.769287,2578.461426,3233.333252,2633.333252,249.000000,3.000000,,,,0.000000,2.000000,4.000000,2.000000,4.000000,4.000000,226.718887,64.404800,27.227839,42.004868,26.981407,101.522591,36.149796,21.019091,18.256023,13.972303,178.868851,63.710480,29.136074,31.103048,20.985510,123.473717,47.120598,23.106052,33.443409,35.344921,221.989136,63.583393,25.569456,19.229763,20.671188
1577472858.469201,71.000000,0.000000,2643.589844,3272.307617,2622.051270,3230.256348,2731.281982,450.000000,3.000000,,,,0.000000,2.000000,4.000000,2.000000,4.000000,4.000000,,,,,,,,,,,,,,,,,,,,,,,,,
1577472858.477003,72.000000,0.000000,2698.461426,3338.461426,2648.205078,3212.820557,2715.384521,450.000000,3.000000,,,,0.000000,2.000000,4.000000,2.000000,4.000000,4.000000,,,,,,,,,,,,,,,,,,,,,,,,,
1577472858.484806,73.000000,0.000000,2709.743652,3389.743652,2624.615479,3224.615479,2637.435791,295.000000,3.000000,,,,0.000000,2.000000,4.000000,2.000000,4.000000,4.000000,,,,,,,,,,,,,,,,,,,,,,,,,
1577472858.492507,74.000000,0.000000,2759.487061,3387.692383,2676.923096,3224.615479,2715.384521,450.000000,3.000000,,,,0.000000,2.000000,4.000000,2.000000,4.000000,2.000000,,,,,,,,,,,,,,,,,,,,,,,,,
1577472858.500308,75.000000,0.000000,2716.410156,3323.076904,2675.384521,3183.076904,2798.461426,278.000000,3.000000,,,,0.000000,2.000000,4.000000,2.000000,4.000000,2.000000,,,,,,,,,,,,,,,,,,,,,,,,,
1577472858.508009,76.000000,0.000000,2736.923096,3315.384521,2727.692383,3260.000000,2845.128174,450.000000,3.000000,,,,0.000000,2.000000,4.000000,2.000000,4.000000,2.000000,,,,,,,,,,,,,,,,,,,,,,,,,
1577472858.515810,77.000000,0.000000,2785.641113,3404.615479,2749.230713,3331.794922,2797.435791,450.000000,3.000000,,,,0.000000,2.000000,4.000000,2.000000,4.000000,2.000000,,,,,,,,,,,,,,,,,,,,,,,,,
1577472858.523511,78.000000,0.000000,2778.461426,3440.000000,2678.974365,3260.000000,2739.487061,450.000000,3.000000,,,,0.000000,2.000000,4.000000,2.000000,4.000000,2.000000,,,,,,,,,,,,,,,,,,,,,,,,,
1577472858.531213,79.000000,0.000000,2847.692383,3439.487061,2731.281982,3284.615479,2809.230713,278.000000,3.000000,,,,0.000000,2.000000,4.000000,2.000000,4.000000,2.000000,,,,,,,,,,,,,,,,,,,,,,,,,
1577472858.539015,80.000000,0.000000,2840.000000,3418.974365,2792.307617,3336.923096,2846.153809,450.000000,3.000000,,,,0.000000,2.000000,4.000000,2.000000,4.000000,2.000000,,,,,,,,,,,,,,,,,,,,,,,,,
1577472858.546717,81.000000,0.000000,2883.076904,3390.256348,2857.948730,3337.948730,2912.307617,450.000000,3.000000,,,,0.000000,2.000000,4.000000,2.000000,4.000000,2.000000,,,,,,,,,,,,,,,,,,,,,,,,,
1577472858.554519,82.000000,0.000000,2935.897461,3450.256348,2864.615479,3353.846191,2930.256348,450.000000,3.000000,,,,0.000000,2.000000,4.000000,2.000000,4.000000,2.000000,,,,,,,,,,,,,,,,,,,,,,,,,
1577472858.562221,83.000000,0.000000,2836.410156,3511.794922,2767.692383,3351.794922,2854.358887,278.000000,3.000000,,,,0.000000,2.000000,4.000000,2.000000,4.000000,2.000000,,,,,,,,,,,,,,,,,,,,,,,,,
1577472858.570023,84.000000,0.000000,2869.230713,3501.025635,2806.153809,3378.461426,2894.871826,450.000000,3.000000,,,,0.000000,2.000000,4.000000,2.000000,4.000000,2.000000,,,,,,,,,,,,,,,,,,,,,,,,,
1577472858.577725,85.000000,0.000000,2971.281982,3462.564209,2839.487061,3363.589844,2909.230713,450.000000,3.000000,,,,0.000000,2.000000,4.000000,2.000000,4.000000,2.000000,,,,,,,,,,,,,,,,,,,,,,,,,
1577472858.585428,86.000000,0.000000,3047.179443,3450.769287,2891.281982,3352.307617,2967.179443,450.000000,3.000000,,,,0.000000,2.000000,4.000000,2.000000,4.000000,2.000000,743.854797,209.503265,81.267570,79.087257,67.755707,370.356476,129.137512,60.787937,38.714264,37.055698,646.605530,199.034348,84.534462,65.414925,59.172104,410.914581,148.274033,64.204208,60.127029,69.038017,783.046509,214.489029,85.297760,52.194012,63.512405
1577472858.593231,87.000000,0.000000,3080.512939,3511.794922,2989.230713,3450.256348,3048.718018,278.000000,3.000000,,,,0.000000,2.000000,4.000000,2.000000,4.000000,2.000000,,,,,,,,,,,,,,,,,,,,,,,,,
1577472858.601034,88.000000,0.000000,2967.692383,3535.384521,2935.384521,3450.769287,2983.076904,450.000000,3.000000,,,,0.000000,2.000000,4.000000,2.000000,4.000000,2.000000,,,,,,,,,,,,,,,,,,,,,,,,,
1577472858.608735,89.000000,0.000000,2991.794922,3496.410156,2925.128174,3386.153809,2996.410156,450.000000,3.000000,,,,0.000000,2.000000,4.000000,2.000000,4.000000,2.000000,,,,,,,,,,,,,,,,,,,,,,,,,
1577472858.616537,90.000000,0.000000,3053.846191,3526.153809,2932.307617,3412.820557,3017.435791,450.000000,3.000000,,,,0.000000,2.000000,4.000000,2.000000,4.000000,2.000000,,,,,,,,,,,,,,,,,,,,,,,,,
1577472858.624239,91.000000,0.000000,3036.410156,3584.615479,2956.410156,3422.051270,3028.205078,278.000000,3.000000,,,,0.000000,2.000000,4.000000,2.000000,4.000000,2.000000,,,,,,,,,,,,,,,,,,,,,,,,,
1577472858.632040,92.000000,0.000000,3092.307617,3590.769287,3044.615479,3461.025635,3081.538574,450.000000,3.000000,,,,0.000000,2.000000,4.000000,2.000000,4.000000,2.000000,,,,,,,,,,,,,,,,,,,,,,,,,
1577472858.639741,93.000000,0.000000,3140.000000,3540.000000,3011.281982,3504.615479,3042.051270,450.000000,3.000000,,,,0.000000,2.000000,4.000000,2.000000,4.000000,2.000000,,,,,,,,,,,,,,,,,,,,,,,,,
1577472858.647543,94.000000,0.000000,3153.333252,3526.153809,2989.743652,3474.358887,3052.820557,450.000000,3.000000,,,,0.000000,2.000000,4.000000,2.000000,4.000000,2.000000,,,,,,,,,,,,,,,,,,,,,,,,,
1577472858.655244,95.000000,0.000000,3131.794922,3585.641113,3051.281982,3446.153809,3124.615479,278.000000,3.000000,,,,0.000000,2.000000,4.000000,2.000000,4.000000,2.000000,,,,,,,,,,,,,,,,,,,,,,,,,
1577472858.663045,96.000000,0.000000,3134.871826,3638.461426,3101.538574,3487.692383,3162.051270,450.000000,3.000000,,,,0.000000,2.000000,4.000000,2.000000,4.000000,2.000000,,,,,,,,,,,,,,,,,,,,,,,,,
1577472858.670747,97.000000,0.000000,3250.256348,3650.256348,3135.384521,3572.820557,3199.487061,450.000000,3.000000,,,,0.000000,2.000000,4.000000,2.000000,4.000000,2.000000,,,,,,,,,,,,,,,,,,,,,,,,,
1577472858.678548,98.000000,0.000000,3207.692383,3569.230713,3085.641113,3522.564209,3141.025635,450.000000,3.000000,,,,0.000000,2.000000,4.000000,2.000000,4.000000,2.000000,,,,,,,,,,,,,,,,,,,,,,,,,
1577472858.686251,99.000000,0.000000,3118.974365,3544.102539,3074.358887,3460.512939,3132.307617,278.000000,3.000000,,,,0.000000,2.000000,4.000000,2.000000,4.000000,2.000000,,,,,,,,,,,,,,,,,,,,,,,,,
1577472858.693956,100.000000,0.000000,3212.307617,3636.923096,3172.820557,3569.230713,3250.769287,450.000000,3.000000,,,,0.000000,2.000000,4.000000,2.000000,4.000000,2.000000,,,,,,,,,,,,,,,,,,,,,,,,,
1577472858.701761,101.000000,0.000000,3287.692383,3670.256348,3226.153809,3613.846191,3298.461426,450.000000,3.000000,,,,0.000000,2.000000,4.000000,2.000000,4.000000,2.000000,,,,,,,,,,,,,,,,,,,,,,,,,
1577472858.709566,102.000000,0.000000,3344.102539,3684.102539,3230.256348,3591.794922,3290.256348,450.000000,3.000000,,,,0.000000,2.000000,4.000000,2.000000,4.000000,2.000000,1730.171509,482.475769,184.572235,148.079758,143.211243,889.905823,305.665955,136.762878,77.858360,81.213951,1545.446899,453.087799,190.098770,129.668457,129.576553,962.458008,341.383057,143.283829,106.217117,125.547966,1860.573853,500.302307,199.614700,115.010803,142.877518
1577472858.717371,103.000000,0.000000,3329.230713,3676.410156,3205.128174,3626.153809,3250.256348,278.000000,3.000000,,,,0.000000,2.000000,4.000000,2.000000,4.000000,2.000000,,,,,,,,,,,,,,,,,,,,,,,,,
1577472858.725073,104.000000,0.000000,3273.333252,3636.923096,3200.000000,3601.025635,3260.512939,450.000000,3.000000,,,,0.000000,2.000000,4.000000,2.000000,4.000000,2.000000,,,,,,,,,,,,,,,,,,,,,,,,,
1577472858.732875,105.000000,0.000000,3334.871826,3667.179443,3285.128174,3575.897461,3383.076904,450.000000,3.000000,,,,0.000000,2.000000,4.000000,2.000000,4.000000,2.000000,,,,,,,,,,,,,,,,,,,,,,,,,
1577472858.740577,106.000000,0.000000,3384.102539,3696.410156,3329.230713,3629.230713,3427.179443,450.000000,3.000000,,,,0.000000,2.000000,4.000000,2.000000,4.000000,2.000000,,,,,,,,,,,,,,,,,,,,,,,,,
1577472858.748379,107.000000,0.000000,3403.076904,3702.564209,3305.128174,3657.948730,3380.512939,278.000000,3.000000,,,,0.000000,2.000000,4.000000,2.000000,4.000000,2.000000,,,,,,,,,,,,,,,,,,,,,,,,,
1577472858.756081,108.000000,0.000000,3412.820557,3706.153809,3280.512939,3607.179443,3328.718018,450.000000,3.000000,,,,0.000000,2.000000,4.000000,2.000000,4.000000,2.000000,,,,,,,,,,,,,,,,,,,,,,,,,
1577472858.763883,109.000000,0.000000,3362.051270,3687.179443,3258.461426,3548.205078,3314.871826,450.000000,3.000000,,,,0.000000,2.000000,4.000000,2.000000,4.000000,2.000000,,,,,,,,,,,,,,,,,,,,,,,,,
1577472858.771585,110.000000,0.000000,3357.435791,3689.743652,3290.256348,3559.487061,3368.718018,450.000000,3.000000,,,,0.000000,2.000000,4.000000,2.000000,4.000000,2.000000,,,,,,,,,,,,,,,,,,,,,,,,,
1577472858.779387,111.000000,0.000000,3397.435791,3689.743652,3343.589844,3609.230713,3406.153809,278.000000,3.000000,,,,0.000000,2.000000,4.000000,2.000000,4.000000,2.000000,,,,,,,,,,,,,,,,,,,,,,,,,
1577472858.787088,112.000000,0.000000,3430.769287,3707.179443,3364.615479,3656.410156,3421.025635,450.000000,3.000000,,,,0.000000,2.000000,4.000000,2.000000,4.000000,2.000000,,,,,,,,,,,,,,,,,,,,,,,,,
1577472858.794890,113.000000,0.000000,3443.589844,3735.384521,3356.923096,3642.051270,3426.666748,450.000000,3.000000,,,,0.000000,2.000000,4.000000,2.000000,4.000000,2.000000,,,,,,,,,,,,,,,,,,,,,,,,,
1577472858.802591,114.000000,0.000000,3453.333252,3733.333252,3376.923096,3629.743652,3449.230713,450.000000,3.000000,,,,0.000000,2.000000,4.000000,2.000000,4.000000,2.000000,,,,,,,,,,,,,,,,,,,,,,,,,
1577472858.810393,115.000000,0.000000,3545.641113,3772.820557,3460.000000,3717.435791,3528.205078,278.000000,3.000000,,,,0.000000,2.000000,4.000000,2.000000,4.000000,2.000000,,,,,,,,,,,,,,,,,,,,,,,,,
1577472858.818094,116.000000,0.000000,3545.641113,3771.794922,3445.128174,3727.179443,3515.897461,450.000000,3.000000,,,,0.000000,2.000000,4.000000,2.000000,4.000000,2.000000,,,,,,,,,,,,,,,,,,,,,,,,,
1577472858.825896,117.000000,0.000000,3456.410156,3736.410156,3382.564209,3604.102539,3469.743652,450.000000,3.000000,,,,0.000000,2.000000,4.000000,2.000000,4.000000,2.000000,,,,,,,,,,,,,,,,,,,,,,,,,
1577472858.833597,118.000000,0.000000,3496.923096,3769.743652,3430.256348,3589.230713,3538.974365,450.000000,3.000000,,,,0.000000,2.000000,4.000000,2.000000,4.000000,2.000000,3058.387939,854.508606,328.179718,241.103500,244.563034,1598.381714,547.623840,242.172134,131.599396,141.847549,2762.025879,798.680359,336.194885,216.976410,224.082230,1711.705566,606.491699,253.064789,166.557480,198.142303,3317.259277,891.111328,358.289886,201.276031,249.673950
1577472858.841398,119.000000,0.000000,3576.410156,3795.384521,3475.897461,3705.641113,3598.461426,278.000000,3.000000,,,,0.000000,2.000000,4.000000,2.000000,4.000000,2.000000,,,,,,,,,,,,,,,,,,,,,,,,,
1577472858.849099,120.000000,0.000000,3622.564209,3798.461426,3500.512939,3709.743652,3584.102539,450.000000,3.000000,,,,0.000000,2.000000,4.000000,2.000000,4.000000,2.000000,,,,,,,,,,,,,,,,,,,,,,,,,
1577472858.856901,121.000000,0.000000,3586.666748,3798.974365,3488.205078,3587.692383,3529.743652,450.000000,3.000000,,,,0.000000,2.000000,4.000000,2.000000,4.000000,2.000000,,,,,,,,,,,,,,,,,,,,,,,,,
1577472858.864602,122.000000,0.000000,3514.358887,3801.025635,3444.102539,3593.846191,3527.179443,450.000000,3.000000,,,,0.000000,2.000000,4.000000,2.000000,4.000000,2.000000,,,,,,,,,,,,,,,,,,,,,,,,,
1577472858.872304,123.000000,0.000000,3551.794922,3816.410156,3467.692383,3738.461426,3612.307617,278.000000,3.000000,,,,0.000000,2.000000,4.000000,2.000000,4.000000,2.000000,,,,,,,,,,,,,,,,,,,,,,,,,
1577472858.880106,124.000000,0.000000,3612.307617,3814.358887,3505.128174,3716.410156,3651.794922,450.000000,3.000000,,,,0.000000,2.000000,4.000000,2.000000,4.000000,2.000000,,,,,,,,,,,,,,,,,,,,,,,,,
1577472858.887809,125.000000,0.000000,3657.435791,3832.307617,3543.076904,3611.281982,3627.692383,450.000000,3.000000,,,,0.000000,2.000000,4.000000,2.000000,4.000000,2.000000,,,,,,,,,,,,,,,,,,,,,,,,,
1577472858.895611,126.000000,0.000000,3640.000000,3824.102539,3517.435791,3608.718018,3577.435791,450.000000,3.000000,,,,0.000000,2.000000,4.000000,2.000000,4.000000,2.000000,,,,,,,,,,,,,,,,,,,,,,,,,
1577472858.903313,127.000000,0.000000,3579.487061,3816.923096,3455.897461,3636.410156,3576.923096,232.000000,3.000000,,,,0.000000,2.000000,4.000000,2.000000,4.000000,2.000000,,,,,,,,,,,,,,,,,,,,,,,,,
1577472858.911115,0.000000,0.000000,3621.538574,3862.564209,3490.256348,3685.641113,3660.000000,450.000000,3.000000,,,,0.000000,2.000000,4.000000,2.000000,4.000000,2.000000,,,,,,,,,,,,,,,,,,,,,,,,,
1577472858.918817,1.000000,0.000000,3646.153809,3820.512939,3501.538574,3708.205078,3673.333252,450.000000,3.000000,,,,0.000000,4.000000,4.000000,2.000000,4.000000,2.000000,,,,,,,,,,,,,,,,,,,,,,,,,
1577472858.926620,2.000000,0.000000,3664.615479,3812.307617,3516.923096,3707.692383,3642.564209,16071.000000,3.000000,,,,0.000000,4.000000,4.000000,2.000000,4.000000,2.000000,,,,,,,,,,,,,,,,,,,,,,,,,
1577472858.934422,3.000000,0.000000,3753.846191,3920.000000,3593.846191,3724.102539,3692.820557,450.000000,3.000000,,,,0.000000,4.000000,4.000000,2.000000,4.000000,2.000000,,,,,,,,,,,,,,,,,,,,,,,,,
1577472858.942123,4.000000,0.000000,3794.871826,3927.179443,3637.435791,3788.718018,3770.256348,16126.000000,3.000000,,,,0.000000,4.000000,4.000000,2.000000,4.000000,2.000000,,,,,,,,,,,,,,,,,,,,,,,,,
1577472858.949824,5.000000,0.000000,3819.487061,3891.794922,3674.871826,3858.461426,3810.256348,450.000000,3.000000,,,,0.000000,4.000000,4.000000,4.000000,4.000000,2.000000,,,,,,,,,,,,,,,,,,,,,,,,,
1577472858.957626,6.000000,0.000000,3803.589844,3895.897461,3651.794922,3762.564209,3777.435791,16086.000000,3.000000,,,,0.000000,4.000000,4.000000,4.000000,4.000000,2.000000,4435.574219,1234.464600,478.051086,335.265472,346.344910,2337.709717,795.948242,351.613739,186.799393,204.113785,4024.963379,1150.990356,487.872253,306.270538,319.111176,2490.877930,878.041077,367.472900,226.489471,268.961700,4829.613770,1291.107666,523.633545,290.446655,357.308563
1577472858.965328,7.000000,0.000000,3742.564209,3893.846191,3605.641113,3672.820557,3733.846191,450.000000,3.000000,,,,0.000000,4.000000,4.000000,4.000000,4.000000,2.000000,,,,,,,,,,,,,,,,,,,,,,,,,
1577472858.973130,8.000000,0.000000,3738.461426,3892.820557,3619.487061,3682.051270,3738.461426,450.000000,3.000000,,,,0.000000,4.000000,4.000000,4.000000,4.000000,2.000000,,,,,,,,,,,,,,,,,,,,,,,,,
1577472858.980832,9.000000,0.000000,3766.153809,3891.281982,3632.820557,3649.230713,3746.153809,290.000000,3.000000,,,,0.000000,4.000000,4.000000,4.000000,4.000000,4.000000,,,,,,,,,,,,,,,,,,,,,,,,,
1577472858.988633,10.000000,0.000000,3815.897461,3909.230713,3659.487061,3711.794922,3751.794922,450.000000,3.000000,,,,0.000000,4.000000,4.000000,4.000000,4.000000,4.000000,,,,,,,,,,,,,,,,,,,,,,,,,
1577472858.996435,11.000000,0.000000,3802.051270,3907.179443,3621.538574,3770.769287,3723.076904,16063.000000,3.000000,,,,0.000000,4.000000,4.000000,4.000000,4.000000,4.000000,,,,,,,,,,,,,,,,,,,,,,,,,
1577472859.004135,12.000000,0.000000,3729.230713,3878.461426,3548.205078,3706.153809,3697.435791,450.000000,3.000000,,,,0.000000,4.000000,4.000000,4.000000,4.000000,4.000000,,,,,,,,,,,,,,,,,,,,,,,,,
1577472859.011837,13.000000,0.000000,3744.102539,3875.897461,3565.641113,3688.205078,3741.025635,450.000000,3.000000,,,,0.000000,4.000000,4.000000,4.000000,4.000000,4.000000,,,,,,,,,,,,,,,,,,,,,,,,,
1577472859.019540,14.000000,0.000000,3808.718018,3895.384521,3607.692383,3727.692383,3781.538574,450.000000,3.000000,,,,0.000000,4.000000,4.000000,4.000000,4.000000,4.000000,,,,,,,,,,,,,,,,,,,,,,,,,
1577472859.027343,15.000000,0.000000,3896.410156,3964.102539,3682.564209,3797.948730,3818.974365,16063.000000,3.000000,,,,0.000000,4.000000,4.000000,4.000000,4.000000,4.000000,,,,,,,,,,,,,,,,,,,,,,,,,
1577472859.035145,16.000000,0.000000,3910.769287,3969.743652,3688.205078,3767.692383,3806.153809,0.000000,3.000000,,,,0.000000,4.000000,4.000000,4.000000,4.000000,4.000000,,,,,,,,,,,,,,,,,,,,,,,,,
1577472859.042847,17.000000,0.000000,3818.974365,3889.743652,3602.564209,3676.410156,3753.846191,0.000000,3.000000,,,,0.000000,4.000000,4.000000,4.000000,4.000000,4.000000,,,,,,,,,,,,,,,,,,,,,,,,,
1577472859.050648,18.000000,0.000000,3839.487061,3921.025635,3642.564209,3726.153809,3807.179443,0.000000,3.000000,,,,0.000000,4.000000,4.000000,4.000000,4.000000,4.000000,,,,,,,,,,,,,,,,,,,,,,,,,
1577472859.058349,19.000000,0.000000,3903.076904,3975.384521,3701.538574,3785.128174,3863.076904,0.000000,3.000000,,,,0.000000,4.000000,4.000000,4.000000,4.000000,4.000000,,,,,,,,,,,,,,,,,,,,,,,,,
1577472859.066150,20.000000,0.000000,3896.410156,3952.820557,3715.897461,3773.846191,3847.692383,0.000000,3.000000,,,,0.000000,4.000000,4.000000,4.000000,4.000000,4.000000,,,,,,,,,,,,,,,,,,,,,,,,,
1577472859.073851,21.000000,0.000000,3913.846191,3941.538574,3764.615479,3771.794922,3835.384521,0.000000,3.000000,,,,0.000000,4.000000,4.000000,4.000000,4.000000,4.000000,,,,,,,,,,,,,,,,,,,,,,,,,
1577472859.081652,22.000000,0.000000,3934.871826,3964.615479,3793.846191,3737.435791,3847.179443,0.000000,3.000000,,,,0.000000,4.000000,4.000000,4.000000,4.000000,4.000000,5402.185547,1501.315430,586.976990,400.839752,416.279449,2861.832031,972.017456,430.503540,226.069138,248.484772,4909.904785,1397.500854,597.240112,369.620056,384.670013,3041.227783,1068.583130,450.358215,266.976135,315.825134,5895.176270,1572.862305,643.766296,354.824280,431.831329
1577472859.089354,23.000000,0.000000,3937.435791,3996.923096,3805.641113,3669.230713,3876.410156,0.000000,3.000000,,,,0.000000,4.000000,4.000000,4.000000,4.000000,4.000000,,,,,,,,,,,,,,,,,,,,,,,,,
1577472859.097155,24.000000,0.000000,3908.205078,3971.794922,3782.564209,3725.128174,3854.358887,0.000000,3.000000,,,,0.000000,4.000000,4.000000,4.000000,4.000000,4.000000,,,,,,,,,,,,,,,,,,,,,,,,,
1577472859.104856,25.000000,0.000000,3880.000000,3944.615479,3780.000000,3902.051270,3822.564209,0.000000,3.000000,,,,0.000000,4.000000,4.000000,4.000000,4.000000,4.000000,,,,,,,,,,,,,,,,,,,,,,,,,
1577472859.112656,26.000000,0.000000,3912.820557,4005.641113,3838.974365,3999.487061,3854.871826,0.000000,3.000000,,,,0.000000,4.000000,4.000000,4.000000,4.000000,4.000000,,,,,,,,,,,,,,,,,,,,,,,,,
1577472859.120357,27.000000,0.000000,3968.205078,4041.538574,3895.384521,3946.153809,3903.589844,0.000000,3.000000,,,,0.000000,4.000000,4.000000,4.000000,4.000000,4.000000,,,,,,,,,,,,,,,,,,,,,,,,,
1577472859.128059,28.000000,0.000000,4026.153809,4024.615479,3959.487061,3997.948730,3937.435791,0.000000,3.000000,,,,0.000000,4.000000,4.000000,4.000000,4.000000,4.000000,,,,,,,,,,,,,,,,,,,,,,,,,
1577472859.135861,29.000000,0.000000,4010.256348,4006.666748,3953.846191,4096.922852,3919.487061,0.000000,3.000000,,,,0.000000,4.000000,4.000000,4.000000,4.000000,4.000000,,,,,,,,,,,,,,,,,,,,,,,,,
1577472859.143663,30.000000,0.000000,3926.153809,4011.794922,3890.769287,4076.923096,3881.538574,0.000000,3.000000,,,,0.000000,4.000000,4.000000,4.000000,4.000000,4.000000,,,,,,,,,,,,,,,,,,,,,,,,,
1577472859.151364,31.000000,0.000000,3924.102539,4033.846191,3897.435791,4070.769287,3891.794922,0.000000,3.000000,,,,0.000000,4.000000,4.000000,4.000000,4.000000,4.000000,,,,,,,,,,,,,,,,,,,,,,,,,
1577472859.159066,32.000000,0.000000,3991.794922,4047.692383,3958.461426,4038.461426,3937.948730,0.000000,3.000000,,,,0.000000,4.000000,4.000000,4.000000,4.000000,4.000000,,,,,,,,,,,,,,,,,,,,,,,,,
1577472859.166868,33.000000,0.000000,4067.179443,4096.410156,4034.871826,4067.179443,3979.487061,0.000000,3.000000,,,,0.000000,4.000000,4.000000,4.000000,4.000000,4.000000,,,,,,,,,,,,,,,,,,,,,,,,,
1577472859.174569,34.000000,0.000000,4035.384521,4077.435791,4007.692383,4022.051270,3924.102539,0.000000,3.000000,,,,0.000000,4.000000,4.000000,4.000000,4.000000,4.000000,,,,,,,,,,,,,,,,,,,,,,,,,
1577472859.182371,35.000000,0.000000,3925.641113,3997.435791,3918.461426,3807.179443,3863.589844,0.000000,3.000000,,,,0.000000,4.000000,4.000000,4.000000,4.000000,4.000000,,,,,,,,,,,,,,,,,,,,,,,,,
1577472859.190073,36.000000,0.000000,3979.487061,4025.128174,3979.487061,3796.923096,3943.589844,0.000000,3.000000,,,,0.000000,4.000000,4.000000,4.000000,4.000000,4.000000,,,,,,,,,,,,,,,,,,,,,,,,,
1577472859.197874,37.000000,0.000000,4075.384521,4079.487061,4052.820557,3921.538574,4000.000000,0.000000,3.000000,,,,0.000000,4.000000,4.000000,4.000000,4.000000,4.000000,,,,,,,,,,,,,,,,,,,,,,,,,
1577472859.205576,38.000000,0.000000,4097.948730,4101.538574,4045.641113,3928.205078,3998.461426,0.000000,3.000000,,,,0.000000,4.000000,4.000000,4.000000,4.000000,4.000000,5639.295410,1560.685059,616.455200,414.831726,429.805389,2999.347412,1013.845520,450.918091,235.605423,259.513733,5128.824219,1450.377808,625.999084,384.936188,397.828552,3182.875977,1111.152832,472.321289,273.335663,322.368408,6163.964355,1636.537231,676.520081,372.372437,447.402893
1577472859.213378,39.000000,0.000000,4087.692383,4078.974365,4018.974365,3854.358887,3995.897461,0.000000,3.000000,,,,0.000000,4.000000,4.000000,4.000000,4.000000,4.000000,,,,,,,,,,,,,,,,,,,,,,,,,
1577472859.221079,40.000000,0.000000,4050.256348,4045.128174,3991.281982,3903.076904,3982.564209,0.000000,3.000000,,,,0.000000,4.000000,4.000000,4.000000,4.000000,4.000000,,,,,,,,,,,,,,,,,,,,,,,,,
1577472859.228880,41.000000,0.000000,4074.871826,4076.410156,4001.025635,3965.641113,4002.051270,0.000000,3.000000,,,,0.000000,4.000000,4.000000,4.000000,4.000000,4.000000,,,,,,,,,,,,,,,,,,,,,,,,,
1577472859.236582,42.000000,0.000000,4087.179443,4078.461426,3977.435791,3866.666748,4012.307617,0.000000,3.000000,,,,0.000000,4.000000,4.000000,4.000000,4.000000,4.000000,,,,,,,,,,,,,,,,,,,,,,,,,
1577472859.244383,43.000000,0.000000,4119.487305,4062.051270,3990.769287,3863.076904,4077.435791,0.000000,3.000000,,,,0.000000,4.000000,4.000000,4.000000,4.000000,4.000000,,,,,,,,,,,,,,,,,,,,,,,,,
1577472859.252084,44.000000,0.000000,4197.948730,4095.384521,4064.615479,4013.846191,4144.615234,0.000000,3.000000,,,,0.000000,4.000000,4.000000,4.000000,4.000000,4.000000,,,,,,,,,,,,,,,,,,,,,,,,,
1577472859.259786,45.000000,0.000000,4190.256348,4128.205078,4067.692383,4011.281982,4097.948730,0.000000,3.000000,,,,0.000000,4.000000,4.000000,4.000000,4.000000,4.000000,,,,,,,,,,,,,,,,,,,,,,,,,
1577472859.267589,46.000000,0.000000,4214.871582,4172.307617,4089.230713,3886.153809,4100.000000,0.000000,3.000000,,,,0.000000,4.000000,4.000000,4.000000,4.000000,4.000000,,,,,,,,,,,,,,,,,,,,,,,,,
1577472859.275291,47.000000,0.000000,4236.410156,4170.256348,4117.948730,3879.487061,4137.436035,0.000000,3.000000,,,,0.000000,4.000000,4.000000,4.000000,4.000000,4.000000,,,,,,,,,,,,,,,,,,,,,,,,,
1577472859.283093,48.000000,0.000000,4170.769043,4126.153809,4097.948730,3978.461426,4138.461426,0.000000,3.000000,,,,0.000000,4.000000,4.000000,4.000000,4.000000,4.000000,,,,,,,,,,,,,,,,,,,,,,,,,
1577472859.290796,49.000000,0.000000,4148.205078,4124.102539,4100.512695,3948.205078,4126.153809,0.000000,3.000000,,,,0.000000,4.000000,4.000000,4.000000,4.000000,4.000000,,,,,,,,,,,,,,,,,,,,,,,,,
1577472859.298598,50.000000,0.000000,4173.333496,4141.025879,4121.538574,3819.487061,4108.205078,0.000000,3.000000,,,,0.000000,4.000000,4.000000,4.000000,4.000000,4.000000,,,,,,,,,,,,,,,,,,,,,,,,,
1577472859.306300,51.000000,0.000000,4208.717773,4171.282227,4144.615234,3866.153809,4144.615234,0.000000,3.000000,,,,0.000000,4.000000,4.000000,4.000000,4.000000,4.000000,,,,,,,,,,,,,,,,,,,,,,,,,
1577472859.314102,52.000000,0.000000,4180.000000,4174.358887,4118.974121,3947.692383,4140.000000,0.000000,3.000000,,,,0.000000,4.000000,4.000000,4.000000,4.000000,4.000000,,,,,,,,,,,,,,,,,,,,,,,,,
1577472859.321804,53.000000,0.000000,4100.512695,4142.563965,4066.153809,3914.871826,4085.641113,0.000000,3.000000,,,,0.000000,4.000000,4.000000,4.000000,4.000000,4.000000,,,,,,,,,,,,,,,,,,,,,,,,,
1577472859.329606,54.000000,0.000000,4133.333496,4173.333496,4108.205078,3909.743652,4116.410156,0.000000,3.000000,,,,0.000000,4.000000,4.000000,4.000000,4.000000,4.000000,5049.494141,1391.563599,555.755127,372.197845,382.167908,2690.217529,906.547913,405.271332,211.965378,233.345612,4592.002441,1290.895508,563.455750,346.600830,353.978882,2860.231934,993.916199,426.294312,242.805771,286.137512,5523.519531,1459.687134,610.300964,336.996094,398.759552
1577472859.337308,55.000000,0.000000,4220.512695,4224.615234,4187.692383,3952.820557,4170.256348,0.000000,3.000000,,,,0.000000,4.000000,4.000000,4.000000,4.000000,4.000000,,,,,,,,,,,,,,,,,,,,,,,,,
1577472859.345110,56.000000,0.000000,4249.743652,4230.256348,4215.384766,4001.025635,4189.230957,0.000000,3.000000,,,,0.000000,4.000000,4.000000,4.000000,4.000000,4.000000,,,,,,,,,,,,,,,,,,,,,,,,,
1577472859.352812,57.000000,0.000000,4191.794922,4193.333496,4162.563965,4003.076904,4133.846191,0.000000,3.000000,,,,0.000000,4.000000,4.000000,4.000000,4.000000,4.000000,,,,,,,,,,,,,,,,,,,,,,,,,
1577472859.360613,58.000000,0.000000,4100.000000,4174.358887,4080.000000,3937.435791,4065.641113,0.000000,3.000000,,,,0.000000,4.000000,4.000000,4.000000,4.000000,4.000000,,,,,,,,,,,,,,,,,,,,,,,,,
1577472859.368315,59.000000,0.000000,4117.948730,4237.436035,4091.281982,3907.179443,4097.948730,0.000000,3.000000,,,,0.000000,4.000000,4.000000,4.000000,4.000000,4.000000,,,,,,,,,,,,,,,,,,,,,,,,,
1577472859.376018,60.000000,0.000000,4161.538574,4261.538574,4116.922852,3915.384521,4133.846191,0.000000,3.000000,,,,0.000000,4.000000,4.000000,4.000000,4.000000,4.000000,,,,,,,,,,,,,,,,,,,,,,,,,
1577472859.383821,61.000000,0.000000,4171.282227,4355.384766,4117.436035,3929.230713,4171.794922,0.000000,3.000000,,,,0.000000,4.000000,4.000000,4.000000,4.000000,4.000000,,,,,,,,,,,,,,,,,,,,,,,,,
1577472859.391523,62.000000,0.000000,4194.358887,4688.205078,4132.820313,3992.307617,4199.487305,0.000000,3.000000,,,,0.000000,4.000000,4.000000,4.000000,4.000000,4.000000,,,,,,,,,,,,,,,,,,,,,,,,,
1577472859.399326,63.000000,0.000000,4197.436035,4920.512695,4134.871582,3986.153809,4178.974121,0.000000,3.000000,,,,0.000000,4.000000,4.000000,4.000000,4.000000,4.000000,,,,,,,,,,,,,,,,,,,,,,,,,
1577472859.407129,64.000000,0.000000,4218.461426,4929.230957,4164.102539,3969.743652,4207.179688,450.000000,3.000000,,,,0.000000,4.000000,4.000000,4.000000,4.000000,4.000000,,,,,,,,,,,,,,,,,,,,,,,,,
1577472859.414830,65.000000,0.000000,4196.410156,4904.102539,4144.615234,4002.564209,4190.769043,450.000000,3.000000,,,,0.000000,4.000000,4.000000,4.000000,4.000000,4.000000,,,,,,,,,,,,,,,,,,,,,,,,,
1577472859.422533,66.000000,0.000000,4150.769043,4872.307617,4104.615234,3988.718018,4158.974121,16090.000000,3.000000,,,,0.000000,4.000000,4.000000,4.000000,4.000000,4.000000,,,,,,,,,,,,,,,,,,,,,,,,,
1577472859.430335,67.000000,0.000000,4177.948730,4873.333496,4134.871582,3974.871826,4194.358887,450.000000,3.000000,,,,0.000000,4.000000,4.000000,4.000000,4.000000,4.000000,,,,,,,,,,,,,,,,,,,,,,,,,
1577472859.438038,68.000000,0.000000,4216.410156,4912.307617,4157.948730,3993.333252,4207.179688,16106.000000,3.000000,,,,0.000000,4.000000,4.000000,4.000000,4.000000,4.000000,,,,,,,,,,,,,,,,,,,,,,,,,
1577472859.445840,69.000000,0.000000,4251.282227,4984.102539,4170.769043,4033.333252,4216.922852,450.000000,3.000000,,,,0.000000,4.000000,4.000000,4.000000,4.000000,4.000000,,,,,,,,,,,,,,,,,,,,,,,,,
1577472859.453543,70.000000,0.000000,4207.179688,5030.769043,4129.743652,4005.128174,4184.102539,16061.000000,3.000000,,,,0.000000,4.000000,4.000000,4.000000,4.000000,4.000000,3846.088867,1055.720825,426.822845,287.990814,290.484192,2054.718018,689.571716,310.183105,163.512222,179.448471,3497.227051,976.352905,432.141754,268.241974,268.916016,2199.333740,761.990845,329.586609,185.926163,219.893585,4209.721191,1107.078613,469.204437,261.398590,303.675934
1577472859.461345,71.000000,0.000000,4108.205078,4992.820313,4063.076904,3932.307617,4143.077148,450.000000,3.000000,,,,0.000000,4.000000,4.000000,4.000000,4.000000,4.000000,,,,,,,,,,,,,,,,,,,,,,,,,
1577472859.469147,72.000000,0.000000,4093.846191,4982.563965,4053.846191,3896.923096,4153.333496,450.000000,3.000000,,,,0.000000,4.000000,4.000000,4.000000,4.000000,4.000000,,,,,,,,,,,,,,,,,,,,,,,,,
1577472859.476848,73.000000,0.000000,4127.692383,5027.692383,4046.666748,3916.923096,4143.077148,309.000000,3.000000,,,,0.000000,4.000000,4.000000,4.000000,4.000000,4.000000,,,,,,,,,,,,,,,,,,,,,,,,,
1577472859.484550,74.000000,0.000000,4202.051270,5156.922852,4091.281982,4004.615479,4181.538574,450.000000,3.000000,,,,0.000000,4.000000,4.000000,4.000000,4.000000,4.000000,,,,,,,,,,,,,,,,,,,,,,,,,
1577472859.492352,75.000000,0.000000,4227.692383,5309.230957,4128.717773,4003.589844,4220.000000,16132.000000,3.000000,,,,0.000000,4.000000,4.000000,4.000000,4.000000,4.000000,,,,,,,,,,,,,,,,,,,,,,,,,
1577472859.500154,76.000000,0.000000,4163.077148,5303.589844,4087.692383,3941.025635,4197.436035,450.000000,3.000000,,,,0.000000,4.000000,4.000000,4.000000,4.000000,4.000000,,,,,,,,,,,,,,,,,,,,,,,,,
1577472859.507855,77.000000,0.000000,4166.666504,5317.436035,4097.948730,3976.923096,4215.897461,450.000000,3.000000,,,,0.000000,4.000000,4.000000,4.000000,4.000000,4.000000,,,,,,,,,,,,,,,,,,,,,,,,,
1577472859.515656,78.000000,0.000000,4198.974121,5433.333496,4127.692383,3981.025635,4231.794922,450.000000,3.000000,,,,0.000000,4.000000,4.000000,4.000000,4.000000,4.000000,,,,,,,,,,,,,,,,,,,,,,,,,
1577472859.523356,79.000000,0.000000,4224.102539,5502.051270,4157.436035,3964.102539,4250.769043,16132.000000,3.000000,,,,0.000000,4.000000,4.000000,4.000000,4.000000,4.000000,,,,,,,,,,,,,,,,,,,,,,,,,
1577472859.531058,80.000000,0.000000,4234.358887,5528.717773,4172.820313,3971.281982,4252.820313,450.000000,3.000000,,,,0.000000,4.000000,4.000000,4.000000,4.000000,4.000000,,,,,,,,,,,,,,,,,,,,,,,,,
1577472859.538860,81.000000,0.000000,4189.743652,5501.538574,4121.025879,3897.435791,4193.846191,450.000000,3.000000,,,,0.000000,4.000000,4.000000,4.000000,4.000000,4.000000,,,,,,,,,,,,,,,,,,,,,,,,,
1577472859.546562,82.000000,0.000000,4190.769043,5584.102539,4112.820313,3871.281982,4194.358887,450.000000,3.000000,,,,0.000000,4.000000,4.000000,4.000000,4.000000,4.000000,,,,,,,,,,,,,,,,,,,,,,,,,
1577472859.554364,83.000000,0.000000,4167.692383,5710.769043,4107.179688,3927.692383,4199.487305,16132.000000,3.000000,,,,0.000000,4.000000,4.000000,4.000000,4.000000,4.000000,,,,,,,,,,,,,,,,,,,,,,,,,
1577472859.562065,84.000000,0.000000,4181.025879,5766.666504,4145.128418,3967.692383,4236.410156,450.000000,3.000000,,,,0.000000,4.000000,4.000000,4.000000,4.000000,4.000000,,,,,,,,,,,,,,,,,,,,,,,,,
1577472859.569867,85.000000,0.000000,4257.436035,5925.641113,4204.102539,3971.794922,4296.410156,450.000000,3.000000,,,,0.000000,4.000000,4.000000,4.000000,4.000000,4.000000,,,,,,,,,,,,,,,,,,,,,,,,,
1577472859.577568,86.000000,0.000000,4113.333496,5813.846191,4046.153809,3875.384521,4129.230957,450.000000,3.000000,,,,0.000000,4.000000,4.000000,4.000000,4.000000,4.000000,2429.951172,666.183228,273.955444,190.451233,185.503113,1302.836914,438.693512,199.630325,106.905289,116.099792,2216.956543,612.732605,277.051025,176.285538,171.187424,1423.692505,496.983704,215.480011,121.554565,145.584000,2662.465088,698.200562,301.497467,171.042328,194.257874
1577472859.585370,87.000000,0.000000,4361.025879,5995.897461,4292.820313,4076.410156,4350.769043,16132.000000,3.000000,,,,0.000000,4.000000,4.000000,4.000000,4.000000,4.000000,,,,,,,,,,,,,,,,,,,,,,,,,
1577472859.593071,88.000000,0.000000,5101.538574,6708.205078,5026.666504,4587.692383,5090.256348,450.000000,3.000000,,,,0.000000,4.000000,4.000000,4.000000,4.000000,4.000000,,,,,,,,,,,,,,,,,,,,,,,,,
1577472859.600873,89.000000,0.000000,5268.205078,6694.358887,5227.179688,4786.153809,5346.666504,450.000000,3.000000,,,,0.000000,4.000000,4.000000,4.000000,4.000000,4.000000,,,,,,,,,,,,,,,,,,,,,,,,,
1577472859.608574,90.000000,0.000000,5162.051270,6680.000000,5109.230957,4722.051270,5284.615234,450.000000,3.000000,,,,0.000000,4.000000,4.000000,4.000000,4.000000,4.000000,,,,,,,,,,,,,,,,,,,,,,,,,
1577472859.616375,91.000000,0.000000,5260.512695,6950.769043,5191.282227,4660.000000,5319.487305,16132.000000,3.000000,,,,0.000000,4.000000,4.000000,4.000000,4.000000,4.000000,,,,,,,,,,,,,,,,,,,,,,,,,
1577472859.624076,92.000000,0.000000,5318.974121,6918.461426,5284.102539,4660.512695,5365.128418,450.000000,3.000000,,,,0.000000,4.000000,4.000000,4.000000,4.000000,4.000000,,,,,,,,,,,,,,,,,,,,,,,,,
1577472859.631877,93.000000,0.000000,5408.205078,7191.282227,5327.179688,4706.153809,5463.589844,450.000000,3.000000,,,,0.000000,4.000000,4.000000,4.000000,4.000000,4.000000,,,,,,,,,,,,,,,,,,,,,,,,,
1577472859.639579,94.000000,0.000000,5371.282227,7271.794922,5269.743652,4674.358887,5433.333496,450.000000,3.000000,,,,0.000000,4.000000,4.000000,4.000000,4.000000,4.000000,,,,,,,,,,,,,,,,,,,,,,,,,
1577472859.647380,95.000000,0.000000,5314.871582,7232.307617,5247.692383,4631.794922,5388.717773,16132.000000,3.000000,,,,0.000000,4.000000,4.000000,4.000000,4.000000,4.000000,,,,,,,,,,,,,,,,,,,,,,,,,
1577472859.655081,96.000000,0.000000,5404.102539,7407.692383,5315.897461,4670.256348,5430.769043,450.000000,3.000000,,,,0.000000,4.000000,4.000000,4.000000,4.000000,4.000000,,,,,,,,,,,,,,,,,,,,,,,,,
1577472859.662882,97.000000,0.000000,5487.179688,7391.282227,5371.794922,4778.974121,5489.743652,450.000000,3.000000,,,,0.000000,4.000000,4.000000,4.000000,4.000000,4.000000,,,,,,,,,,,,,,,,,,,,,,,,,
1577472859.670583,98.000000,0.000000,5505.641113,7467.179688,5379.487305,4743.589844,5538.461426,450.000000,3.000000,,,,0.000000,4.000000,4.000000,4.000000,4.000000,4.000000,,,,,,,,,,,,,,,,,,,,,,,,,
1577472859.678384,99.000000,0.000000,5414.871582,7478.461426,5305.641113,4617.948730,5473.846191,16132.000000,3.000000,,,,0.000000,4.000000,4.000000,4.000000,4.000000,4.000000,,,,,,,,,,,,,,,,,,,,,,,,,
1577472859.686085,100.000000,0.000000,5380.512695,7463.077148,5291.282227,4651.282227,5422.563965,450.000000,3.000000,,,,0.000000,4.000000,4.000000,4.000000,4.000000,4.000000,,,,,,,,,,,,,,,,,,,,,,,,,
1577472859.693885,101.000000,0.000000,5417.948730,7597.436035,5312.820313,4640.512695,5443.077148,450.000000,3.000000,,,,0.000000,4.000000,4.000000,4.000000,4.000000,4.000000,,,,,,,,,,,,,,,,,,,,,,,,,
1577472859.701586,102.000000,0.000000,5475.384766,7604.102539,5381.025879,4657.436035,5565.128418,450.000000,3.000000,,,,0.000000,4.000000,4.000000,4.000000,4.000000,4.000000,1220.194214,334.074402,142.061340,107.929573,97.176659,658.244202,228.331863,106.231964,59.369438,61.738289,1128.585205,304.124237,143.663544,97.651306,88.701180,768.636108,277.318024,117.102898,68.233322,84.081261,1338.849121,349.874817,155.886841,92.531464,101.785721
1577472859.709288,103.000000,0.000000,5564.615234,7617.948730,5463.589844,4820.000000,5600.000000,16132.000000,3.000000,,,,0.000000,4.000000,4.000000,4.000000,4.000000,4.000000,,,,,,,,,,,,,,,,,,,,,,,,,
1577472859.717090,104.000000,0.000000,5297.948730,7594.358887,5156.410156,4486.153809,5311.282227,450.000000,3.000000,,,,0.000000,4.000000,4.000000,4.000000,4.000000,4.000000,,,,,,,,,,,,,,,,,,,,,,,,,
1577472859.724792,105.000000,0.000000,5560.000000,7504.102539,5446.666504,4617.948730,5735.384766,450.000000,3.000000,,,,0.000000,4.000000,4.000000,4.000000,4.000000,4.000000,,,,,,,,,,,,,,,,,,,,,,,,,
1577472859.732594,106.000000,0.000000,6257.948730,7695.897461,6064.102539,5256.410156,6055.384766,450.000000,3.000000,,,,0.000000,4.000000,4.000000,4.000000,4.000000,4.000000,,,,,,,,,,,,,,,,,,,,,,,,,
1577472859.740296,107.000000,0.000000,5614.358887,7838.974121,5331.282227,4527.692383,5273.333496,16132.000000,3.000000,,,,0.000000,4.000000,4.000000,4.000000,4.000000,4.000000,,,,,,,,,,,,,,,,,,,,,,,,,
1577472859.748097,108.000000,0.000000,5480.512695,7751.282227,5287.179688,4361.538574,5660.512695,450.000000,3.000000,,,,0.000000,4.000000,4.000000,4.000000,4.000000,4.000000,,,,,,,,,,,,,,,,,,,,,,,,,
1577472859.755799,109.000000,0.000000,6203.589844,7763.077148,6002.563965,5032.307617,6238.974121,450.000000,3.000000,,,,0.000000,4.000000,4.000000,4.000000,4.000000,4.000000,,,,,,,,,,,,,,,,,,,,,,,,,
1577472859.763601,110.000000,0.000000,5854.871582,7794.358887,5605.641113,4662.563965,5682.051270,450.000000,3.000000,,,,0.000000,4.000000,4.000000,4.000000,4.000000,4.000000,,,,,,,,,,,,,,,,,,,,,,,,,
1577472859.771302,111.000000,0.000000,5638.974121,7769.230957,5450.256348,4583.077148,5723.589844,16132.000000,3.000000,,,,0.000000,4.000000,4.000000,4.000000,4.000000,4.000000,,,,,,,,,,,,,,,,,,,,,,,,,
1577472859.779104,112.000000,0.000000,6103.077148,7779.487305,5898.461426,4991.282227,6034.871582,450.000000,3.000000,,,,0.000000,4.000000,4.000000,4.000000,4.000000,4.000000,,,,,,,,,,,,,,,,,,,,,,,,,
1577472859.786805,113.000000,0.000000,5905.128418,7775.384766,5640.000000,4620.000000,5664.102539,450.000000,3.000000,,,,0.000000,4.000000,4.000000,4.000000,4.000000,4.000000,,,,,,,,,,,,,,,,,,,,,,,,,
1577472859.794607,114.000000,0.000000,5516.922852,7739.487305,5341.538574,4445.128418,5655.384766,450.000000,3.000000,,,,0.000000,4.000000,4.000000,4.000000,4.000000,4.000000,,,,,,,,,,,,,,,,,,,,,,,,,
1577472859.802308,115.000000,0.000000,5822.051270,7756.922852,5732.307617,5046.153809,5951.282227,16132.000000,3.000000,,,,0.000000,4.000000,4.000000,4.000000,4.000000,4.000000,,,,,,,,,,,,,,,,,,,,,,,,,
1577472859.810110,116.000000,0.000000,5623.589844,7733.846191,5507.692383,4767.692383,5496.410156,450.000000,3.000000,,,,0.000000,4.000000,4.000000,4.000000,4.000000,4.000000,,,,,,,,,,,,,,,,,,,,,,,,,
1577472859.817811,117.000000,0.000000,5370.256348,7669.743652,5284.615234,4474.871582,5462.563965,450.000000,3.000000,,,,0.000000,4.000000,4.000000,4.000000,4.000000,4.000000,,,,,,,,,,,,,,,,,,,,,,,,,
1577472859.825612,118.000000,0.000000,5550.256348,7695.897461,5477.436035,4789.743652,5605.641113,450.000000,3.000000,,,,0.000000,4.000000,4.000000,4.000000,4.000000,4.000000,477.174896,129.087296,59.574390,56.598099,42.472878,302.552795,107.316063,49.498848,31.334641,27.447697,469.339111,115.337830,60.918030,48.117573,37.421616,375.797821,150.345398,54.609386,36.381069,46.722023,523.958862,135.313965,63.369724,42.184650,43.950581
1577472859.833314,119.000000,0.000000,5389.743652,7691.794922,5306.153809,4621.538574,5350.769043,16132.000000,3.000000,,,,0.000000,4.000000,4.000000,4.000000,4.000000,4.000000,,,,,,,,,,,,,,,,,,,,,,,,,
1577472859.841016,120.000000,0.000000,5486.666504,7682.563965,5431.794922,4717.948730,5546.666504,450.000000,3.000000,,,,0.000000,4.000000,4.000000,4.000000,4.000000,4.000000,,,,,,,,,,,,,,,,,,,,,,,,,
1577472859.848819,121.000000,0.000000,5502.563965,7686.666504,5456.410156,4780.000000,5530.769043,450.000000,3.000000,,,,0.000000,4.000000,4.000000,4.000000,4.000000,4.000000,,,,,,,,,,,,,,,,,,,,,,,,,
1577472859.856521,122.000000,0.000000,5390.769043,7617.436035,5345.641113,4602.563965,5437.436035,450.000000,3.000000,,,,0.000000,4.000000,4.000000,4.000000,4.000000,4.000000,,,,,,,,,,,,,,,,,,,,,,,,,
1577472859.864323,123.000000,0.000000,5489.743652,7594.871582,5434.358887,4696.922852,5506.666504,16132.000000,3.000000,,,,0.000000,4.000000,4.000000,4.000000,4.000000,4.000000,,,,,,,,,,,,,,,,,,,,,,,,,
1577472859.872026,124.000000,0.000000,5503.077148,7663.589844,5437.948730,4760.512695,5464.615234,450.000000,3.000000,,,,0.000000,4.000000,4.000000,4.000000,4.000000,4.000000,,,,,,,,,,,,,,,,,,,,,,,,,
1577472859.879828,125.000000,0.000000,5507.692383,7719.487305,5444.615234,4693.333496,5528.717773,450.000000,3.000000,,,,0.000000,4.000000,4.000000,4.000000,4.000000,4.000000,,,,,,,,,,,,,,,,,,,,,,,,,
1577472859.887530,126.000000,0.000000,5547.692383,7697.948730,5474.871582,4711.282227,5593.333496,450.000000,3.000000,,,,0.000000,4.000000,4.000000,4.000000,4.000000,4.000000,,,,,,,,,,,,,,,,,,,,,,,,,
1577472859.895332,127.000000,0.000000,5529.743652,7649.743652,5427.692383,4749.230957,5491.794922,232.000000,3.000000,,,,0.000000,4.000000,4.000000,4.000000,4.000000,4.000000,,,,,,,,,,,,,,,,,,,,,,,,,
1577472859.903034,0.000000,0.000000,5537.948730,7632.820313,5424.102539,4714.871582,5479.487305,450.000000,3.000000,,,,0.000000,4.000000,4.000000,4.000000,4.000000,4.000000,,,,,,,,,,,,,,,,,,,,,,,,,
1577472859.910836,1.000000,0.000000,5597.436035,7651.282227,5490.769043,4740.000000,5572.307617,450.000000,3.000000,,,,0.000000,4.000000,4.000000,4.000000,4.000000,4.000000,,,,,,,,,,,,,,,,,,,,,,,,,
1577472859.918538,2.000000,0.000000,5519.487305,7688.205078,5426.153809,4773.333496,5501.025879,264.000000,3.000000,,,,0.000000,2.000000,4.000000,4.000000,4.000000,4.000000,,,,,,,,,,,,,,,,,,,,,,,,,
1577472859.926340,3.000000,0.000000,5373.846191,7643.077148,5286.153809,4687.692383,5379.487305,450.000000,3.000000,,,,0.000000,2.000000,4.000000,4.000000,4.000000,4.000000,,,,,,,,,,,,,,,,,,,,,,,,,
1577472859.934047,4.000000,0.000000,5363.589844,7532.307617,5266.153809,4637.948730,5400.512695,6.000000,3.000000,,,,0.000000,2.000000,0.000000,2.000000,4.000000,4.000000,,,,,,,,,,,,,,,,,,,,,,,,,
1577472859.941854,5.000000,0.000000,5488.717773,7551.282227,5391.282227,4785.128418,5508.205078,450.000000,3.000000,,,,0.000000,2.000000,0.000000,2.000000,4.000000,4.000000,,,,,,,,,,,,,,,,,,,,,,,,,
1577472859.949661,6.000000,0.000000,5544.615234,7633.333496,5429.743652,4849.230957,5463.589844,296.000000,3.000000,,,,0.000000,2.000000,0.000000,2.000000,4.000000,4.000000,179.508896,59.433014,31.318159,36.712788,22.587265,195.705872,80.673256,30.181200,23.442537,14.108570,211.988403,53.452702,33.583572,28.570705,18.875862,237.598511,117.619232,30.591938,25.773548,33.700340,196.506561,63.611378,29.327156,22.079823,21.870693
1577472859.957566,7.000000,0.000000,5268.717773,7568.205078,5157.436035,4515.384766,5291.282227,450.000000,3.000000,,,,0.000000,2.000000,0.000000,2.000000,4.000000,4.000000,,,,,,,,,,,,,,,,,,,,,,,,,
1577472859.965372,8.000000,0.000000,5466.153809,7514.871582,5387.179688,4718.461426,5608.717773,450.000000,3.000000,,,,0.000000,2.000000,0.000000,2.000000,4.000000,4.000000,,,,,,,,,,,,,,,,,,,,,,,,,
1577472859.973177,9.000000,0.000000,5902.563965,7705.641113,5743.589844,5142.563965,5641.538574,324.000000,3.000000,,,,0.000000,2.000000,0.000000,2.000000,4.000000,4.000000,,,,,,,,,,,,,,,,,,,,,,,,,
1577472859.980882,10.000000,0.000000,5560.000000,7880.512695,5311.282227,4648.717773,5183.589844,450.000000,3.000000,,,,0.000000,2.000000,0.000000,2.000000,4.000000,2.000000,,,,,,,,,,,,,,,,,,,,,,,,,
1577472859.988685,11.000000,0.000000,5386.153809,7698.461426,5221.025879,4447.179688,5528.205078,272.000000,3.000000,,,,0.000000,2.000000,0.000000,2.000000,4.000000,2.000000,,,,,,,,,,,,,,,,,,,,,,,,,
1577472859.996389,12.000000,0.000000,5772.820313,7471.282227,5719.487305,5084.102539,5970.256348,450.000000,3.000000,,,,0.000000,2.000000,0.000000,2.000000,4.000000,2.000000,,,,,,,,,,,,,,,,,,,,,,,,,
1577472860.004193,13.000000,0.000000,5567.179688,7366.666504,5485.128418,5009.743652,5386.153809,450.000000,3.000000,,,,0.000000,2.000000,0.000000,2.000000,4.000000,2.000000,,,,,,,,,,,,,,,,,,,,,,,,,
1577472860.011897,14.000000,0.000000,5153.846191,7292.820313,5042.051270,4524.615234,5055.384766,450.000000,3.000000,,,,0.000000,2.000000,0.000000,2.000000,4.000000,2.000000,,,,,,,,,,,,,,,,,,,,,,,,,
1577472860.019802,15.000000,0.000000,5417.948730,7347.692383,5343.077148,4802.563965,5502.563965,272.000000,3.000000,,,,0.000000,2.000000,0.000000,2.000000,4.000000,2.000000,,,,,,,,,,,,,,,,,,,,,,,,,
1577472860.027607,16.000000,0.000000,5467.692383,7269.743652,5397.436035,4930.256348,5446.153809,0.000000,3.000000,,,,0.000000,2.000000,0.000000,2.000000,4.000000,2.000000,,,,,,,,,,,,,,,,,,,,,,,,,
1577472860.035412,17.000000,0.000000,5235.384766,7149.230957,5152.820313,4710.256348,5204.615234,0.000000,3.000000,,,,0.000000,2.000000,0.000000,2.000000,4.000000,2.000000,,,,,,,,,,,,,,,,,,,,,,,,,
1577472860.043115,18.000000,0.000000,5375.897461,7185.128418,5282.563965,4855.384766,5326.153809,0.000000,3.000000,,,,0.000000,2.000000,0.000000,2.000000,4.000000,2.000000,,,,,,,,,,,,,,,,,,,,,,,,,
1577472860.050919,19.000000,0.000000,5371.794922,7162.563965,5287.692383,4880.000000,5297.948730,0.000000,3.000000,,,,0.000000,2.000000,0.000000,2.000000,4.000000,2.000000,,,,,,,,,,,,,,,,,,,,,,,,,
1577472860.058623,20.000000,0.000000,5350.769043,7167.692383,5271.282227,4810.769043,5350.256348,0.000000,3.000000,,,,0.000000,2.000000,0.000000,2.000000,4.000000,2.000000,,,,,,,,,,,,,,,,,,,,,,,,,
1577472860.066527,21.000000,0.000000,5322.563965,7084.102539,5233.333496,4801.025879,5321.025879,0.000000,3.000000,,,,0.000000,2.000000,0.000000,2.000000,4.000000,2.000000,,,,,,,,,,,,,,,,,,,,,,,,,
1577472860.074332,22.000000,0.000000,5279.487305,7025.641113,5213.333496,4872.307617,5242.563965,0.000000,3.000000,,,,0.000000,2.000000,0.000000,2.000000,4.000000,2.000000,203.502319,82.534615,41.642952,37.275921,29.664640,299.092346,117.176292,34.754055,28.739826,14.864146,245.216797,78.425339,45.047791,29.056374,26.419865,273.739502,143.804123,32.919804,29.106670,40.201019,218.914536,90.380272,36.726604,23.591358,27.154402
1577472860.082036,23.000000,0.000000,5375.897461,7093.846191,5299.487305,4927.179688,5287.692383,0.000000,3.000000,,,,0.000000,2.000000,0.000000,2.000000,4.000000,2.000000,,,,,,,,,,,,,,,,,,,,,,,,,
1577472860.089841,24.000000,0.000000,5386.666504,7023.589844,5293.333496,4932.820313,5302.563965,0.000000,3.000000,,,,0.000000,2.000000,0.000000,2.000000,4.000000,2.000000,,,,,,,,,,,,,,,,,,,,,,,,,
1577472860.097545,25.000000,0.000000,5300.512695,6989.230957,5237.948730,5021.025879,5289.230957,0.000000,3.000000,,,,0.000000,2.000000,0.000000,2.000000,4.000000,2.000000,,,,,,,,,,,,,,,,,,,,,,,,,
1577472860.105350,26.000000,0.000000,5295.897461,6980.512695,5223.589844,5051.282227,5276.410156,0.000000,3.000000,,,,0.000000,2.000000,0.000000,2.000000,4.000000,2.000000,,,,,,,,,,,,,,,,,,,,,,,,,
1577472860.113054,27.000000,0.000000,5356.410156,6921.538574,5237.436035,4976.922852,5268.205078,0.000000,3.000000,,,,0.000000,2.000000,0.000000,2.000000,4.000000,2.000000,,,,,,,,,,,,,,,,,,,,,,,,,
1577472860.120858,28.000000,0.000000,5388.717773,6942.563965,5259.487305,4964.615234,5303.589844,0.000000,3.000000,,,,0.000000,2.000000,0.000000,2.000000,4.000000,2.000000,,,,,,,,,,,,,,,,,,,,,,,,,
1577472860.128563,29.000000,0.000000,5375.897461,6916.922852,5251.794922,4982.051270,5334.358887,0.000000,3.000000,,,,0.000000,2.000000,0.000000,2.000000,4.000000,2.000000,,,,,,,,,,,,,,,,,,,,,,,,,
1577472860.136367,30.000000,0.000000,5322.563965,6874.358887,5187.692383,4934.358887,5294.358887,0.000000,3.000000,,,,0.000000,2.000000,0.000000,2.000000,4.000000,2.000000,,,,,,,,,,,,,,,,,,,,,,,,,
1577472860.144072,31.000000,0.000000,5285.128418,6831.282227,5142.563965,4932.307617,5225.128418,0.000000,3.000000,,,,0.000000,2.000000,0.000000,2.000000,4.000000,2.000000,,,,,,,,,,,,,,,,,,,,,,,,,
1577472860.151876,32.000000,0.000000,5285.641113,6773.333496,5153.846191,4911.794922,5207.692383,0.000000,3.000000,,,,0.000000,2.000000,0.000000,2.000000,4.000000,2.000000,,,,,,,,,,,,,,,,,,,,,,,,,
1577472860.159580,33.000000,0.000000,5332.307617,6813.846191,5193.846191,4843.589844,5269.230957,0.000000,3.000000,,,,0.000000,2.000000,0.000000,2.000000,4.000000,2.000000,,,,,,,,,,,,,,,,,,,,,,,,,
1577472860.167384,34.000000,0.000000,5330.256348,6791.794922,5182.563965,4729.743652,5267.179688,0.000000,3.000000,,,,0.000000,2.000000,0.000000,2.000000,4.000000,2.000000,,,,,,,,,,,,,,,,,,,,,,,,,
1577472860.175088,35.000000,0.000000,5262.051270,6729.230957,5148.717773,4603.077148,5195.897461,0.000000,3.000000,,,,0.000000,2.000000,0.000000,2.000000,4.000000,2.000000,,,,,,,,,,,,,,,,,,,,,,,,,
1577472860.182892,36.000000,0.000000,5278.974121,6722.051270,5166.153809,4655.897461,5188.205078,0.000000,3.000000,,,,0.000000,2.000000,0.000000,2.000000,4.000000,2.000000,,,,,,,,,,,,,,,,,,,,,,,,,
1577472860.190596,37.000000,0.000000,5313.333496,6701.025879,5145.128418,4703.077148,5211.794922,0.000000,3.000000,,,,0.000000,2.000000,0.000000,2.000000,4.000000,2.000000,,,,,,,,,,,,,,,,,,,,,,,,,
1577472860.198400,38.000000,0.000000,5303.589844,6726.666504,5109.743652,4573.333496,5245.641113,0.000000,3.000000,,,,0.000000,2.000000,0.000000,2.000000,4.000000,2.000000,370.840271,148.853867,68.547165,46.008263,55.526604,462.098694,177.031052,47.181751,38.434795,21.428007,399.756592,142.178040,71.575340,37.995125,53.218201,374.363770,186.977402,45.728027,38.446747,62.916500,391.668274,161.797668,61.043274,35.743568,51.572769
1577472860.206104,39.000000,0.000000,5280.512695,6691.282227,5097.948730,4511.794922,5238.974121,0.000000,3.000000,,,,0.000000,2.000000,0.000000,2.000000,4.000000,2.000000,,,,,,,,,,,,,,,,,,,,,,,,,
1577472860.213908,40.000000,0.000000,5257.948730,6625.128418,5087.179688,4617.948730,5191.794922,0.000000,3.000000,,,,0.000000,2.000000,0.000000,2.000000,4.000000,2.000000,,,,,,,,,,,,,,,,,,,,,,,,,
1577472860.221611,41.000000,0.000000,5313.333496,6678.461426,5141.538574,4740.512695,5207.179688,0.000000,3.000000,,,,0.000000,2.000000,0.000000,2.000000,4.000000,2.000000,,,,,,,,,,,,,,,,,,,,,,,,,
1577472860.229415,42.000000,0.000000,5298.974121,6677.436035,5128.205078,4753.333496,5187.692383,0.000000,3.000000,,,,0.000000,2.000000,0.000000,2.000000,4.000000,2.000000,,,,,,,,,,,,,,,,,,,,,,,,,
1577472860.237119,43.000000,0.000000,5189.743652,6618.461426,5041.538574,4788.717773,5148.717773,0.000000,3.000000,,,,0.000000,2.000000,0.000000,2.000000,4.000000,2.000000,,,,,,,,,,,,,,,,,,,,,,,,,
1577472860.244922,44.000000,0.000000,5181.025879,6551.794922,5042.051270,5004.102539,5170.256348,0.000000,3.000000,,,,0.000000,2.000000,0.000000,2.000000,4.000000,2.000000,,,,,,,,,,,,,,,,,,,,,,,,,
1577472860.252626,45.000000,0.000000,5234.358887,6526.153809,5066.153809,5149.230957,5165.641113,0.000000,3.000000,,,,0.000000,2.000000,0.000000,2.000000,4.000000,2.000000,,,,,,,,,,,,,,,,,,,,,,,,,
1577472860.260531,46.000000,0.000000,5266.153809,6560.512695,5080.000000,5097.436035,5152.307617,0.000000,3.000000,,,,0.000000,2.000000,0.000000,2.000000,4.000000,2.000000,,,,,,,,,,,,,,,,,,,,,,,,,
1577472860.268335,47.000000,0.000000,5248.205078,6485.128418,5066.666504,5119.487305,5171.794922,0.000000,3.000000,,,,0.000000,2.000000,0.000000,2.000000,4.000000,2.000000,,,,,,,,,,,,,,,,,,,,,,,,,
1577472860.276140,48.000000,0.000000,5197.436035,6435.384766,5021.025879,5191.282227,5169.743652,0.000000,3.000000,,,,0.000000,2.000000,0.000000,2.000000,4.000000,2.000000,,,,,,,,,,,,,,,,,,,,,,,,,
1577472860.283843,49.000000,0.000000,5166.666504,6412.820313,5005.128418,5122.051270,5113.333496,0.000000,3.000000,,,,0.000000,2.000000,0.000000,2.000000,4.000000,2.000000,,,,,,,,,,,,,,,,,,,,,,,,,
1577472860.291747,50.000000,0.000000,5179.487305,6355.384766,5029.230957,5044.615234,5099.487305,0.000000,3.000000,,,,0.000000,2.000000,0.000000,2.000000,4.000000,2.000000,,,,,,,,,,,,,,,,,,,,,,,,,
1577472860.299552,51.000000,0.000000,5252.307617,6406.666504,5098.974121,5098.461426,5180.000000,0.000000,3.000000,,,,0.000000,2.000000,0.000000,2.000000,4.000000,2.000000,,,,,,,,,,,,,,,,,,,,,,,,,
1577472860.307356,52.000000,0.000000,5237.436035,6369.230957,5093.846191,4946.666504,5183.077148,0.000000,3.000000,,,,0.000000,2.000000,0.000000,2.000000,4.000000,2.000000,,,,,,,,,,,,,,,,,,,,,,,,,
1577472860.315161,53.000000,0.000000,5136.922852,6275.384766,5013.333496,4621.025879,5100.512695,0.000000,3.000000,,,,0.000000,2.000000,0.000000,2.000000,4.000000,2.000000,,,,,,,,,,,,,,,,,,,,,,,,,
1577472860.322865,54.000000,0.000000,5139.487305,6264.102539,5018.974121,4631.794922,5073.333496,0.000000,3.000000,,,,0.000000,2.000000,0.000000,2.000000,4.000000,2.000000,597.717651,230.108170,100.327797,56.281460,96.919121,637.145569,232.377502,58.806358,47.347298,29.532412,606.512085,217.060806,100.305946,48.652500,96.842247,493.322021,223.708115,60.870335,49.392956,102.775810,622.663757,244.651627,88.906845,51.418747,93.237976
1577472860.330669,55.000000,0.000000,5166.153809,6244.102539,5024.102539,4746.153809,5084.102539,0.000000,3.000000,,,,0.000000,2.000000,0.000000,2.000000,4.000000,2.000000,,,,,,,,,,,,,,,,,,,,,,,,,
1577472860.338373,56.000000,0.000000,5161.025879,6274.871582,5013.333496,4741.025879,5125.128418,0.000000,3.000000,,,,0.000000,2.000000,0.000000,2.000000,4.000000,2.000000,,,,,,,,,,,,,,,,,,,,,,,,,
1577472860.346178,57.000000,0.000000,5111.282227,6209.230957,4990.256348,4906.666504,5104.615234,0.000000,3.000000,,,,0.000000,2.000000,0.000000,2.000000,4.000000,2.000000,,,,,,,,,,,,,,,,,,,,,,,,,
1577472860.353882,58.000000,0.000000,5018.461426,6092.820313,4903.077148,5044.102539,4989.743652,0.000000,3.000000,,,,0.000000,2.000000,0.000000,2.000000,4.000000,2.000000,,,,,,,,,,,,,,,,,,,,,,,,,
1577472860.361686,59.000000,0.000000,5087.179688,6172.307617,4953.333496,5264.615234,5022.563965,0.000000,3.000000,,,,0.000000,2.000000,0.000000,2.000000,4.000000,2.000000,,,,,,,,,,,,,,,,,,,,,,,,,
1577472860.369490,60.000000,0.000000,5192.307617,6228.205078,5043.077148,5758.974121,5125.128418,0.000000,3.000000,,,,0.000000,2.000000,0.000000,2.000000,4.000000,2.000000,,,,,,,,,,,,,,,,,,,,,,,,,
1577472860.377198,61.000000,0.000000,5146.153809,6167.179688,5002.051270,5893.333496,5130.256348,0.000000,3.000000,,,,0.000000,2.000000,0.000000,2.000000,4.000000,2.000000,,,,,,,,,,,,,,,,,,,,,,,,,
1577472860.385107,62.000000,0.000000,5063.077148,6083.077148,4960.000000,5820.000000,5087.179688,0.000000,3.000000,,,,0.000000,2.000000,0.000000,2.000000,4.000000,2.000000,,,,,,,,,,,,,,,,,,,,,,,,,
1577472860.392916,63.000000,0.000000,5008.717773,6041.025879,4932.820313,5943.077148,5015.384766,0.000000,3.000000,,,,0.000000,2.000000,0.000000,2.000000,4.000000,2.000000,,,,,,,,,,,,,,,,,,,,,,,,,
1577472860.400725,64.000000,0.000000,5055.384766,6113.333496,4973.846191,5953.333496,5036.922852,450.000000,3.000000,,,,0.000000,2.000000,0.000000,2.000000,4.000000,2.000000,,,,,,,,,,,,,,,,,,,,,,,,,
1577472860.408632,65.000000,0.000000,5055.897461,6086.153809,4989.230957,5756.922852,5060.000000,450.000000,3.000000,,,,0.000000,2.000000,0.000000,2.000000,4.000000,2.000000,,,,,,,,,,,,,,,,,,,,,,,,,
1577472860.416440,66.000000,0.000000,4922.051270,5942.563965,4893.333496,5585.641113,5004.615234,323.000000,3.000000,,,,0.000000,2.000000,0.000000,2.000000,4.000000,2.000000,,,,,,,,,,,,,,,,,,,,,,,,,
1577472860.424347,67.000000,0.000000,4995.897461,5981.538574,4987.179688,5532.820313,5070.769043,450.000000,3.000000,,,,0.000000,2.000000,1.000000,2.000000,4.000000,2.000000,,,,,,,,,,,,,,,,,,,,,,,,,
1577472860.432155,68.000000,0.000000,4957.948730,5983.589844,4931.282227,5197.948730,4940.000000,116.000000,3.000000,,,,0.000000,2.000000,1.000000,2.000000,4.000000,2.000000,,,,,,,,,,,,,,,,,,,,,,,,,
1577472860.439962,69.000000,0.000000,4847.179688,5929.230957,4839.487305,4862.051270,5021.538574,450.000000,3.000000,,,,0.000000,2.000000,1.000000,2.000000,4.000000,2.000000,,,,,,,,,,,,,,,,,,,,,,,,,
1577472860.447868,70.000000,0.000000,5443.077148,6305.641113,5398.461426,4940.512695,5460.512695,16075.000000,3.000000,,,,0.000000,2.000000,1.000000,4.000000,4.000000,2.000000,804.804443,309.067749,128.716156,64.547798,148.172363,750.842468,266.543274,67.013138,52.973526,37.079449,770.103882,285.758179,122.977493,57.289982,151.781326,583.698853,246.116760,73.810936,58.857498,156.985718,820.371216,318.515594,112.009949,65.536827,148.127289
1577472860.455674,71.000000,0.000000,5134.358887,6136.410156,5018.974121,3972.820557,4797.948730,450.000000,3.000000,,,,0.000000,2.000000,1.000000,4.000000,4.000000,2.000000,,,,,,,,,,,,,,,,,,,,,,,,,
1577472860.463580,72.000000,0.000000,4628.717773,5838.974121,4586.153809,3052.820557,4781.538574,450.000000,3.000000,,,,0.000000,2.000000,1.000000,4.000000,4.000000,2.000000,,,,,,,,,,,,,,,,,,,,,,,,,
1577472860.471386,73.000000,0.000000,5377.948730,6262.051270,5323.077148,3477.435791,5636.410156,305.000000,3.000000,,,,0.000000,2.000000,1.000000,4.000000,4.000000,2.000000,,,,,,,,,,,,,,,,,,,,,,,,,
1577472860.479291,74.000000,0.000000,5250.256348,6148.205078,5140.000000,3344.615479,5164.615234,450.000000,3.000000,,,,0.000000,2.000000,1.000000,4.000000,4.000000,2.000000,,,,,,,,,,,,,,,,,,,,,,,,,
1577472860.487198,75.000000,0.000000,4941.538574,5963.077148,4878.461426,3186.153809,5011.794922,16087.000000,3.000000,,,,0.000000,2.000000,1.000000,4.000000,4.000000,4.000000,,,,,,,,,,,,,,,,,,,,,,,,,
1577472860.495005,76.000000,0.000000,5210.256348,6094.871582,5140.000000,3600.512939,5282.051270,450.000000,3.000000,,,,0.000000,2.000000,1.000000,4.000000,4.000000,4.000000,,,,,,,,,,,,,,,,,,,,,,,,,
1577472860.502912,77.000000,0.000000,5043.077148,5956.922852,4968.205078,3712.820557,5046.666504,450.000000,3.000000,,,,0.000000,2.000000,1.000000,4.000000,4.000000,4.000000,,,,,,,,,,,,,,,,,,,,,,,,,
1577472860.510719,78.000000,0.000000,5017.948730,5927.692383,4952.820313,3924.102539,5051.282227,450.000000,3.000000,,,,0.000000,2.000000,1.000000,4.000000,4.000000,4.000000,,,,,,,,,,,,,,,,,,,,,,,,,
1577472860.518526,79.000000,0.000000,5114.358887,5955.897461,5037.948730,4193.333496,5127.692383,16087.000000,3.000000,,,,0.000000,2.000000,1.000000,4.000000,4.000000,4.000000,,,,,,,,,,,,,,,,,,,,,,,,,
1577472860.526431,80.000000,0.000000,5164.102539,5968.717773,5084.102539,4314.358887,5191.282227,450.000000,3.000000,,,,0.000000,2.000000,1.000000,4.000000,4.000000,4.000000,,,,,,,,,,,,,,,,,,,,,,,,,
1577472860.534338,81.000000,0.000000,5156.410156,5956.922852,5070.256348,4270.769043,5167.692383,450.000000,3.000000,,,,0.000000,2.000000,1.000000,4.000000,4.000000,4.000000,,,,,,,,,,,,,,,,,,,,,,,,,
1577472860.542145,82.000000,0.000000,5149.230957,5936.410156,5057.436035,4303.077148,5150.256348,450.000000,3.000000,,,,0.000000,2.000000,1.000000,4.000000,4.000000,4.000000,,,,,,,,,,,,,,,,,,,,,,,,,
1577472860.550051,83.000000,0.000000,5181.538574,5934.871582,5084.615234,4415.897461,5184.102539,16087.000000,3.000000,,,,0.000000,2.000000,1.000000,4.000000,4.000000,4.000000,,,,,,,,,,,,,,,,,,,,,,,,,
1577472860.557858,84.000000,0.000000,5126.153809,5898.461426,5035.384766,4322.563965,5125.641113,450.000000,3.000000,,,,0.000000,2.000000,1.000000,4.000000,4.000000,4.000000,,,,,,,,,,,,,,,,,,,,,,,,,
1577472860.565764,85.000000,0.000000,5098.974121,5877.436035,5015.384766,4307.692383,5096.922852,450.000000,3.000000,,,,0.000000,2.000000,1.000000,4.000000,4.000000,4.000000,,,,,,,,,,,,,,,,,,,,,,,,,
1577472860.573571,86.000000,0.000000,5115.897461,5853.333496,5037.948730,4476.922852,5110.256348,450.000000,3.000000,,,,0.000000,2.000000,1.000000,4.000000,4.000000,4.000000,930.535583,364.241699,145.392685,67.534431,197.177902,766.485413,270.851227,71.108818,53.957951,42.102776,851.694519,327.719849,132.308670,60.760406,205.373383,692.443054,256.610077,80.216522,63.665897,214.871613,929.183594,360.794281,122.920586,73.407799,204.595108
1577472860.581477,87.000000,0.000000,5081.538574,5791.282227,5009.230957,4491.794922,5069.230957,16087.000000,3.000000,,,,0.000000,2.000000,1.000000,4.000000,4.000000,4.000000,,,,,,,,,,,,,,,,,,,,,,,,,
1577472860.589283,88.000000,0.000000,5057.948730,5781.538574,4986.666504,4439.487305,5031.282227,450.000000,3.000000,,,,0.000000,2.000000,1.000000,4.000000,4.000000,4.000000,,,,,,,,,,,,,,,,,,,,,,,,,
1577472860.597189,89.000000,0.000000,5095.897461,5812.307617,5027.692383,4495.897461,5055.384766,450.000000,3.000000,,,,0.000000,2.000000,1.000000,4.000000,4.000000,4.000000,,,,,,,,,,,,,,,,,,,,,,,,,
1577472860.604996,90.000000,0.000000,5135.384766,5785.641113,5072.820313,4511.282227,5093.846191,450.000000,3.000000,,,,0.000000,2.000000,1.000000,4.000000,4.000000,4.000000,,,,,,,,,,,,,,,,,,,,,,,,,
1577472860.612902,91.000000,0.000000,5138.974121,5727.179688,5067.179688,4522.051270,5091.282227,16087.000000,3.000000,,,,0.000000,2.000000,1.000000,4.000000,4.000000,4.000000,,,,,,,,,,,,,,,,,,,,,,,,,
1577472860.620708,92.000000,0.000000,5145.641113,5721.025879,5054.358887,4625.128418,5078.974121,450.000000,3.000000,,,,0.000000,2.000000,1.000000,4.000000,4.000000,4.000000,,,,,,,,,,,,,,,,,,,,,,,,,
1577472860.628614,93.000000,0.000000,5167.179688,5745.128418,5062.563965,4678.461426,5086.666504,450.000000,3.000000,,,,0.000000,2.000000,1.000000,4.000000,4.000000,4.000000,,,,,,,,,,,,,,,,,,,,,,,,,
1577472860.636521,94.000000,0.000000,5154.358887,5741.538574,5047.692383,4611.794922,5075.384766,450.000000,3.000000,,,,0.000000,2.000000,1.000000,4.000000,4.000000,4.000000,,,,,,,,,,,,,,,,,,,,,,,,,
1577472860.644328,95.000000,0.000000,5134.358887,5758.461426,5025.641113,4611.282227,5062.563965,16087.000000,3.000000,,,,0.000000,2.000000,1.000000,4.000000,4.000000,4.000000,,,,,,,,,,,,,,,,,,,,,,,,,
1577472860.652235,96.000000,0.000000,5135.897461,5761.538574,5013.333496,4688.205078,5051.794922,450.000000,3.000000,,,,0.000000,2.000000,1.000000,4.000000,4.000000,4.000000,,,,,,,,,,,,,,,,,,,,,,,,,
1577472860.660043,97.000000,0.000000,5101.025879,5683.589844,4965.641113,4661.025879,4998.461426,450.000000,3.000000,,,,0.000000,2.000000,1.000000,4.000000,4.000000,4.000000,,,,,,,,,,,,,,,,,,,,,,,,,
1577472860.667950,98.000000,0.000000,5079.487305,5642.051270,4944.615234,4540.000000,4978.461426,450.000000,3.000000,,,,0.000000,2.000000,1.000000,4.000000,4.000000,4.000000,,,,,,,,,,,,,,,,,,,,,,,,,
1577472860.675757,99.000000,0.000000,5144.102539,5691.282227,5019.487305,4526.666504,5039.487305,16087.000000,3.000000,,,,0.000000,2.000000,1.000000,4.000000,4.000000,4.000000,,,,,,,,,,,,,,,,,,,,,,,,,
1577472860.683664,100.000000,0.000000,5200.000000,5697.948730,5077.436035,4642.051270,5079.487305,450.000000,3.000000,,,,0.000000,2.000000,1.000000,4.000000,4.000000,4.000000,,,,,,,,,,,,,,,,,,,,,,,,,
1577472860.691471,101.000000,0.000000,5161.025879,5636.410156,5030.769043,4611.794922,5033.846191,450.000000,3.000000,,,,0.000000,2.000000,1.000000,4.000000,4.000000,4.000000,,,,,,,,,,,,,,,,,,,,,,,,,
1577472860.699378,102.000000,0.000000,5127.692383,5611.794922,4998.461426,4435.897461,5007.179688,450.000000,3.000000,,,,0.000000,2.000000,1.000000,4.000000,4.000000,4.000000,936.686035,378.998718,145.642746,63.675934,230.822159,694.878418,246.341934,71.404991,50.268177,43.788280,812.441162,329.201202,125.180923,57.661083,243.235199,991.161194,274.720093,84.328239,62.750797,262.238586,909.664917,357.677765,117.931046,72.824150,248.383301
1577472860.707185,103.000000,0.000000,5165.128418,5609.743652,5038.974121,4429.743652,5054.871582,16087.000000,3.000000,,,,0.000000,2.000000,1.000000,4.000000,4.000000,4.000000,,,,,,,,,,,,,,,,,,,,,,,,,
1577472860.715092,104.000000,0.000000,5177.436035,5585.641113,5052.307617,4555.897461,5072.820313,450.000000,3.000000,,,,0.000000,2.000000,1.000000,4.000000,4.000000,4.000000,,,,,,,,,,,,,,,,,,,,,,,,,
1577472860.722898,105.000000,0.000000,5143.077148,5548.205078,5027.692383,4467.692383,5037.948730,450.000000,3.000000,,,,0.000000,2.000000,1.000000,4.000000,4.000000,4.000000,,,,,,,,,,,,,,,,,,,,,,,,,
1577472860.730805,106.000000,0.000000,5113.846191,5504.615234,5011.794922,4277.436035,5000.512695,450.000000,3.000000,,,,0.000000,2.000000,1.000000,4.000000,4.000000,4.000000,,,,,,,,,,,,,,,,,,,,,,,,,
1577472860.738612,107.000000,0.000000,5096.410156,5484.102539,4994.358887,4294.871582,4969.743652,16087.000000,3.000000,,,,0.000000,2.000000,1.000000,4.000000,4.000000,4.000000,,,,,,,,,,,,,,,,,,,,,,,,,
1577472860.746518,108.000000,0.000000,5083.589844,5472.820313,4969.230957,4336.922852,4955.384766,450.000000,3.000000,,,,0.000000,2.000000,1.000000,4.000000,4.000000,4.000000,,,,,,,,,,,,,,,,,,,,,,,,,
1577472860.754325,109.000000,0.000000,5058.461426,5436.922852,4944.102539,4232.820313,4931.282227,450.000000,3.000000,,,,0.000000,2.000000,1.000000,4.000000,4.000000,4.000000,,,,,,,,,,,,,,,,,,,,,,,,,
1577472860.762231,110.000000,0.000000,5038.461426,5417.948730,4931.282227,4138.461426,4909.743652,450.000000,3.000000,,,,0.000000,2.000000,1.000000,4.000000,4.000000,4.000000,,,,,,,,,,,,,,,,,,,,,,,,,
1577472860.770038,111.000000,0.000000,5061.538574,5438.461426,4944.615234,4183.077148,4937.436035,16087.000000,3.000000,,,,0.000000,2.000000,1.000000,4.000000,4.000000,4.000000,,,,,,,,,,,,,,,,,,,,,,,,,
1577472860.777944,112.000000,0.000000,5096.410156,5442.051270,4972.307617,4257.436035,4974.358887,450.000000,3.000000,,,,0.000000,2.000000,1.000000,4.000000,4.000000,4.000000,,,,,,,,,,,,,,,,,,,,,,,,,
1577472860.785750,113.000000,0.000000,5082.563965,5389.743652,4971.282227,4192.820313,4960.000000,450.000000,3.000000,,,,0.000000,2.000000,1.000000,4.000000,4.000000,4.000000,,,,,,,,,,,,,,,,,,,,,,,,,
1577472860.793656,114.000000,0.000000,5041.025879,5340.512695,4939.487305,4143.077148,4925.128418,450.000000,3.000000,,,,0.000000,2.000000,1.000000,4.000000,4.000000,4.000000,,,,,,,,,,,,,,,,,,,,,,,,,
1577472860.801462,115.000000,0.000000,5019.487305,5338.461426,4912.820313,4287.692383,4898.974121,16087.000000,3.000000,,,,0.000000,2.000000,1.000000,4.000000,4.000000,4.000000,,,,,,,,,,,,,,,,,,,,,,,,,
1577472860.809368,116.000000,0.000000,4955.897461,5275.384766,4850.256348,4330.769043,4857.948730,450.000000,3.000000,,,,0.000000,2.000000,1.000000,4.000000,4.000000,4.000000,,,,,,,,,,,,,,,,,,,,,,,,,
1577472860.817275,117.000000,0.000000,5069.743652,5332.307617,4969.743652,4291.282227,4970.256348,450.000000,3.000000,,,,0.000000,2.000000,1.000000,4.000000,4.000000,4.000000,,,,,,,,,,,,,,,,,,,,,,,,,
1577472860.825083,118.000000,0.000000,4982.051270,5254.358887,4857.948730,4205.128418,4759.487305,450.000000,3.000000,,,,0.000000,2.000000,1.000000,4.000000,4.000000,4.000000,814.791809,349.544647,130.889313,53.910358,241.522476,543.692627,203.348328,68.882835,43.232330,43.002346,667.553101,290.387207,104.605423,48.940590,256.232208,1824.618652,354.274994,99.066460,58.349857,288.078735,766.124146,311.039581,99.593262,64.741585,269.566315
1577472860.832990,119.000000,0.000000,4687.179688,4970.256348,4607.179688,4150.256348,4690.769043,16087.000000,3.000000,,,,0.000000,2.000000,1.000000,4.000000,4.000000,4.000000,,,,,,,,,,,,,,,,,,,,,,,,,
1577472860.840797,120.000000,0.000000,5344.102539,5424.102539,5276.410156,4904.102539,5431.282227,450.000000,3.000000,,,,0.000000,2.000000,1.000000,4.000000,4.000000,4.000000,,,,,,,,,,,,,,,,,,,,,,,,,
1577472860.848704,121.000000,0.000000,5173.846191,5347.692383,5061.025879,4735.897461,4906.153809,450.000000,3.000000,,,,0.000000,2.000000,1.000000,4.000000,4.000000,4.000000,,,,,,,,,,,,,,,,,,,,,,,,,
1577472860.856511,122.000000,0.000000,4384.615234,4812.820313,4351.794922,3930.769287,4314.871582,450.000000,3.000000,,,,0.000000,2.000000,1.000000,4.000000,4.000000,4.000000,,,,,,,,,,,,,,,,,,,,,,,,,
1577472860.864418,123.000000,0.000000,4959.487305,5203.589844,4897.948730,4522.563965,4965.128418,16087.000000,3.000000,,,,0.000000,2.000000,1.000000,4.000000,4.000000,4.000000,,,,,,,,,,,,,,,,,,,,,,,,,
1577472860.872225,124.000000,0.000000,4993.333496,5184.615234,4864.615234,4665.128418,4787.692383,450.000000,3.000000,,,,0.000000,2.000000,1.000000,4.000000,4.000000,4.000000,,,,,,,,,,,,,,,,,,,,,,,,,
1577472860.880032,125.000000,0.000000,4637.948730,4962.563965,4591.794922,4331.794922,4621.025879,450.000000,3.000000,,,,0.000000,2.000000,1.000000,4.000000,4.000000,4.000000,,,,,,,,,,,,,,,,,,,,,,,,,
1577472860.887937,126.000000,0.000000,4803.077148,5080.512695,4748.205078,4437.948730,4800.000000,450.000000,3.000000,,,,0.000000,2.000000,1.000000,4.000000,4.000000,4.000000,,,,,,,,,,,,,,,,,,,,,,,,,
1577472860.895844,127.000000,0.000000,4781.538574,5008.717773,4683.077148,4423.589844,4686.666504,232.000000,3.000000,,,,0.000000,2.000000,1.000000,4.000000,4.000000,4.000000,,,,,,,,,,,,,,,,,,,,,,,,,
1577472860.903651,0.000000,0.000000,4838.974121,5024.615234,4735.897461,4513.846191,4741.538574,450.000000,3.000000,,,,0.000000,2.000000,1.000000,4.000000,4.000000,4.000000,,,,,,,,,,,,,,,,,,,,,,,,,
1577472860.911458,1.000000,0.000000,4857.436035,5015.897461,4728.205078,4512.820313,4730.256348,450.000000,3.000000,,,,0.000000,2.000000,1.000000,4.000000,4.000000,4.000000,,,,,,,,,,,,,,,,,,,,,,,,,
1577472860.919364,2.000000,0.000000,4852.307617,5007.692383,4705.128418,4488.205078,4708.717773,16079.000000,3.000000,,,,0.000000,4.000000,1.000000,4.000000,4.000000,4.000000,,,,,,,,,,,,,,,,,,,,,,,,,
1577472860.927270,3.000000,0.000000,4859.487305,4998.974121,4687.692383,4493.333496,4677.436035,450.000000,3.000000,,,,0.000000,4.000000,2.000000,4.000000,4.000000,4.000000,,,,,,,,,,,,,,,,,,,,,,,,,
1577472860.935077,4.000000,0.000000,4839.487305,4958.974121,4652.307617,4490.769043,4649.230957,269.000000,3.000000,,,,0.000000,4.000000,2.000000,4.000000,4.000000,4.000000,,,,,,,,,,,,,,,,,,,,,,,,,
1577472860.942984,5.000000,0.000000,4875.384766,4969.743652,4695.384766,4537.436035,4700.512695,450.000000,3.000000,,,,0.000000,4.000000,2.000000,4.000000,4.000000,4.000000,,,,,,,,,,,,,,,,,,,,,,,,,
1577472860.950790,6.000000,0.000000,4907.179688,4960.000000,4717.436035,4574.358887,4742.051270,16095.000000,3.000000,,,,0.000000,4.000000,2.000000,4.000000,4.000000,4.000000,621.407837,285.941803,107.486816,41.186104,230.005844,392.068604,155.508743,64.321312,34.758026,41.485466,470.079315,224.408752,78.044991,37.473183,244.017258,3396.510742,539.516541,137.083374,54.343060,288.977600,558.934204,236.812439,75.261955,52.698509,266.259918
1577472860.958696,7.000000,0.000000,4916.922852,4965.641113,4719.487305,4613.333496,4760.000000,450.000000,3.000000,,,,0.000000,4.000000,2.000000,4.000000,4.000000,4.000000,,,,,,,,,,,,,,,,,,,,,,,,,
1577472860.966503,8.000000,0.000000,4892.820313,4988.717773,4690.769043,4563.589844,4715.897461,450.000000,3.000000,,,,0.000000,4.000000,2.000000,4.000000,4.000000,4.000000,,,,,,,,,,,,,,,,,,,,,,,,,
1577472860.974409,9.000000,0.000000,4873.333496,4973.333496,4646.153809,4543.077148,4678.461426,288.000000,3.000000,,,,0.000000,4.000000,2.000000,4.000000,4.000000,4.000000,,,,,,,,,,,,,,,,,,,,,,,,,
1577472860.982317,10.000000,0.000000,4875.384766,4953.333496,4640.512695,4597.948730,4698.974121,450.000000,3.000000,,,,0.000000,4.000000,2.000000,4.000000,4.000000,4.000000,,,,,,,,,,,,,,,,,,,,,,,,,
1577472860.990124,11.000000,0.000000,4822.563965,4895.384766,4611.794922,4547.179688,4667.179688,16096.000000,3.000000,,,,0.000000,4.000000,2.000000,4.000000,4.000000,4.000000,,,,,,,,,,,,,,,,,,,,,,,,,
1577472860.997932,12.000000,0.000000,4808.717773,4867.692383,4611.794922,4553.333496,4640.512695,450.000000,3.000000,,,,0.000000,4.000000,2.000000,4.000000,4.000000,4.000000,,,,,,,,,,,,,,,,,,,,,,,,,
1577472861.005837,13.000000,0.000000,4891.282227,4935.384766,4677.948730,4600.512695,4682.563965,450.000000,3.000000,,,,0.000000,4.000000,2.000000,4.000000,4.000000,4.000000,,,,,,,,,,,,,,,,,,,,,,,,,
1577472861.013644,14.000000,0.000000,4895.897461,4936.410156,4684.102539,4550.769043,4700.000000,450.000000,3.000000,,,,0.000000,4.000000,2.000000,4.000000,4.000000,4.000000,,,,,,,,,,,,,,,,,,,,,,,,,
1577472861.021550,15.000000,0.000000,4824.102539,4866.153809,4641.025879,4586.153809,4684.615234,16096.000000,3.000000,,,,0.000000,4.000000,2.000000,4.000000,4.000000,4.000000,,,,,,,,,,,,,,,,,,,,,,,,,
1577472861.029356,16.000000,0.000000,4811.794922,4848.717773,4632.820313,4685.128418,4683.077148,0.000000,3.000000,,,,0.000000,4.000000,2.000000,4.000000,4.000000,4.000000,,,,,,,,,,,,,,,,,,,,,,,,,
1577472861.037261,17.000000,0.000000,4830.769043,4847.179688,4635.384766,4622.051270,4673.846191,0.000000,3.000000,,,,0.000000,4.000000,2.000000,4.000000,4.000000,4.000000,,,,,,,,,,,,,,,,,,,,,,,,,
1577472861.045168,18.000000,0.000000,4872.307617,4857.436035,4669.743652,4582.563965,4688.205078,0.000000,3.000000,,,,0.000000,4.000000,2.000000,4.000000,4.000000,4.000000,,,,,,,,,,,,,,,,,,,,,,,,,
1577472861.052975,19.000000,0.000000,4900.000000,4867.179688,4691.282227,4683.077148,4728.717773,0.000000,3.000000,,,,0.000000,4.000000,2.000000,4.000000,4.000000,4.000000,,,,,,,,,,,,,,,,,,,,,,,,,
1577472861.060782,20.000000,0.000000,4848.717773,4831.794922,4646.153809,4673.846191,4715.897461,0.000000,3.000000,,,,0.000000,4.000000,2.000000,4.000000,4.000000,4.000000,,,,,,,,,,,,,,,,,,,,,,,,,
1577472861.068688,21.000000,0.000000,4800.000000,4791.282227,4594.358887,4633.846191,4659.487305,0.000000,3.000000,,,,0.000000,4.000000,2.000000,4.000000,4.000000,4.000000,,,,,,,,,,,,,,,,,,,,,,,,,
1577472861.076594,22.000000,0.000000,4805.641113,4769.743652,4569.743652,4663.077148,4642.563965,0.000000,3.000000,,,,0.000000,4.000000,2.000000,4.000000,4.000000,4.000000,404.879761,207.589645,83.345695,29.146444,204.786514,253.120453,113.912979,58.124332,26.543428,41.151958,273.190308,151.763657,53.693081,26.797457,215.002884,5610.100098,828.784912,200.707382,53.679893,270.771484,342.904663,157.869217,53.032551,41.177673,245.167374
1577472861.084401,23.000000,0.000000,4837.948730,4764.615234,4615.897461,4677.436035,4696.922852,0.000000,3.000000,,,,0.000000,4.000000,2.000000,4.000000,4.000000,4.000000,,,,,,,,,,,,,,,,,,,,,,,,,
1577472861.092308,24.000000,0.000000,4822.563965,4732.307617,4626.666504,4659.487305,4702.563965,0.000000,3.000000,,,,0.000000,4.000000,2.000000,4.000000,4.000000,4.000000,,,,,,,,,,,,,,,,,,,,,,,,,
1577472861.100216,25.000000,0.000000,4797.436035,4725.641113,4577.436035,4635.384766,4656.922852,0.000000,3.000000,,,,0.000000,4.000000,2.000000,4.000000,4.000000,4.000000,,,,,,,,,,,,,,,,,,,,,,,,,
1577472861.108024,26.000000,0.000000,4790.256348,4758.974121,4570.769043,4657.436035,4629.230957,0.000000,3.000000,,,,0.000000,4.000000,2.000000,4.000000,4.000000,4.000000,,,,,,,,,,,,,,,,,,,,,,,,,
1577472861.115832,27.000000,0.000000,4708.717773,4664.102539,4509.743652,4613.846191,4557.948730,0.000000,3.000000,,,,0.000000,4.000000,2.000000,4.000000,4.000000,4.000000,,,,,,,,,,,,,,,,,,,,,,,,,
1577472861.123738,28.000000,0.000000,4661.025879,4553.846191,4450.769043,4548.717773,4528.717773,0.000000,3.000000,,,,0.000000,4.000000,2.000000,4.000000,4.000000,4.000000,,,,,,,,,,,,,,,,,,,,,,,,,
1577472861.131545,29.000000,0.000000,4438.461426,4415.897461,4242.563965,4382.051270,4305.128418,0.000000,3.000000,,,,0.000000,4.000000,2.000000,4.000000,4.000000,4.000000,,,,,,,,,,,,,,,,,,,,,,,,,
1577472861.139451,30.000000,0.000000,3961.025635,4089.743652,3780.512939,4058.461426,3761.538574,0.000000,3.000000,,,,0.000000,4.000000,2.000000,4.000000,4.000000,4.000000,,,,,,,,,,,,,,,,,,,,,,,,,
1577472861.147258,31.000000,0.000000,3852.307617,3984.615479,3653.846191,4051.794922,3581.025635,0.000000,3.000000,,,,0.000000,4.000000,2.000000,4.000000,4.000000,4.000000,,,,,,,,,,,,,,,,,,,,,,,,,
1577472861.155164,32.000000,0.000000,4169.230957,4238.974121,3974.871826,4361.538574,3943.589844,0.000000,3.000000,,,,0.000000,4.000000,2.000000,4.000000,4.000000,4.000000,,,,,,,,,,,,,,,,,,,,,,,,,
1577472861.162971,33.000000,0.000000,4356.410156,4400.000000,4182.563965,4494.871582,4211.282227,0.000000,3.000000,,,,0.000000,4.000000,2.000000,4.000000,4.000000,4.000000,,,,,,,,,,,,,,,,,,,,,,,,,
1577472861.170877,34.000000,0.000000,4389.230957,4390.769043,4211.794922,4505.641113,4258.461426,0.000000,3.000000,,,,0.000000,4.000000,2.000000,4.000000,4.000000,4.000000,,,,,,,,,,,,,,,,,,,,,,,,,
1577472861.178683,35.000000,0.000000,4561.538574,4477.436035,4372.820313,4621.538574,4416.922852,0.000000,3.000000,,,,0.000000,4.000000,2.000000,4.000000,4.000000,4.000000,,,,,,,,,,,,,,,,,,,,,,,,,
1577472861.186589,36.000000,0.000000,4720.512695,4563.589844,4530.769043,4753.846191,4553.333496,0.000000,3.000000,,,,0.000000,4.000000,2.000000,4.000000,4.000000,4.000000,,,,,,,,,,,,,,,,,,,,,,,,,
1577472861.194396,37.000000,0.000000,4688.717773,4513.846191,4503.589844,4732.307617,4537.436035,0.000000,3.000000,,,,0.000000,4.000000,2.000000,4.000000,4.000000,4.000000,,,,,,,,,,,,,,,,,,,,,,,,,
1577472861.202302,38.000000,0.000000,4632.307617,4505.128418,4466.153809,4585.128418,4549.743652,0.000000,3.000000,,,,0.000000,4.000000,2.000000,4.000000,4.000000,4.000000,235.483063,134.806503,64.430687,20.673740,178.399704,171.626892,83.091286,50.431042,19.622393,43.545547,131.187897,90.621193,37.108898,19.743446,182.503723,7932.477051,1154.471680,275.928070,56.763870,245.767807,182.648636,93.352264,38.554626,33.770290,218.347519
1577472861.210209,39.000000,0.000000,4643.077148,4520.000000,4488.717773,4592.307617,4576.410156,0.000000,3.000000,,,,0.000000,4.000000,2.000000,4.000000,4.000000,4.000000,,,,,,,,,,,,,,,,,,,,,,,,,
1577472861.218016,40.000000,0.000000,4703.589844,4505.641113,4523.589844,4784.615234,4587.179688,0.000000,3.000000,,,,0.000000,4.000000,2.000000,4.000000,4.000000,4.000000,,,,,,,,,,,,,,,,,,,,,,,,,
1577472861.225923,41.000000,0.000000,4756.410156,4541.538574,4570.256348,4831.794922,4618.461426,0.000000,3.000000,,,,0.000000,4.000000,2.000000,4.000000,4.000000,4.000000,,,,,,,,,,,,,,,,,,,,,,,,,
1577472861.233730,42.000000,0.000000,4750.769043,4548.717773,4577.948730,4708.205078,4643.589844,0.000000,3.000000,,,,0.000000,4.000000,2.000000,4.000000,4.000000,4.000000,,,,,,,,,,,,,,,,,,,,,,,,,
1577472861.241637,43.000000,0.000000,4695.384766,4490.769043,4523.077148,4656.922852,4620.512695,0.000000,3.000000,,,,0.000000,4.000000,2.000000,4.000000,4.000000,4.000000,,,,,,,,,,,,,,,,,,,,,,,,,
1577472861.249444,44.000000,0.000000,4668.717773,4476.922852,4489.230957,4692.820313,4576.922852,0.000000,3.000000,,,,0.000000,4.000000,2.000000,4.000000,4.000000,4.000000,,,,,,,,,,,,,,,,,,,,,,,,,
1577472861.257351,45.000000,0.000000,4680.512695,4485.128418,4500.000000,4693.333496,4568.717773,0.000000,3.000000,,,,0.000000,4.000000,2.000000,4.000000,4.000000,4.000000,,,,,,,,,,,,,,,,,,,,,,,,,
1577472861.265158,46.000000,0.000000,4676.410156,4457.436035,4522.563965,4685.128418,4598.974121,0.000000,3.000000,,,,0.000000,4.000000,2.000000,4.000000,4.000000,4.000000,,,,,,,,,,,,,,,,,,,,,,,,,
1577472861.273065,47.000000,0.000000,4656.922852,4436.922852,4521.025879,4679.487305,4592.307617,0.000000,3.000000,,,,0.000000,4.000000,2.000000,4.000000,4.000000,4.000000,,,,,,,,,,,,,,,,,,,,,,,,,
1577472861.280872,48.000000,0.000000,4646.153809,4433.846191,4496.410156,4678.974121,4542.563965,0.000000,3.000000,,,,0.000000,4.000000,2.000000,4.000000,4.000000,4.000000,,,,,,,,,,,,,,,,,,,,,,,,,
1577472861.288779,49.000000,0.000000,4676.410156,4440.512695,4515.384766,4707.692383,4550.769043,0.000000,3.000000,,,,0.000000,4.000000,2.000000,4.000000,4.000000,4.000000,,,,,,,,,,,,,,,,,,,,,,,,,
1577472861.296586,50.000000,0.000000,4662.563965,4421.025879,4505.641113,4710.769043,4557.436035,0.000000,3.000000,,,,0.000000,4.000000,2.000000,4.000000,4.000000,4.000000,,,,,,,,,,,,,,,,,,,,,,,,,
1577472861.304492,51.000000,0.000000,4602.563965,4369.230957,4466.153809,4693.333496,4542.051270,0.000000,3.000000,,,,0.000000,4.000000,2.000000,4.000000,4.000000,4.000000,,,,,,,,,,,,,,,,,,,,,,,,,
1577472861.312299,52.000000,0.000000,4612.820313,4360.000000,4489.743652,4680.000000,4569.743652,0.000000,3.000000,,,,0.000000,4.000000,2.000000,4.000000,4.000000,4.000000,,,,,,,,,,,,,,,,,,,,,,,,,
1577472861.320205,53.000000,0.000000,4670.769043,4407.692383,4536.922852,4674.871582,4593.333496,0.000000,3.000000,,,,0.000000,4.000000,2.000000,4.000000,4.000000,4.000000,,,,,,,,,,,,,,,,,,,,,,,,,
1577472861.328012,54.000000,0.000000,4706.666504,4435.897461,4562.563965,4698.461426,4587.179688,0.000000,3.000000,,,,0.000000,4.000000,2.000000,4.000000,4.000000,4.000000,134.917953,80.884247,53.619728,17.106495,160.831482,126.890717,61.465733,42.028366,14.599154,48.825470,59.189213,50.703632,30.652668,17.606003,157.910736,9659.720703,1398.447266,340.218689,61.482063,225.817230,96.915741,52.631416,34.278282,32.154163,196.775345
1577472861.335918,55.000000,0.000000,4664.102539,4398.974121,4519.487305,4724.102539,4555.897461,0.000000,3.000000,,,,0.000000,4.000000,2.000000,4.000000,4.000000,4.000000,,,,,,,,,,,,,,,,,,,,,,,,,
1577472861.343725,56.000000,0.000000,4595.897461,4368.205078,4449.743652,4720.000000,4540.000000,0.000000,3.000000,,,,0.000000,4.000000,2.000000,4.000000,4.000000,4.000000,,,,,,,,,,,,,,,,,,,,,,,,,
1577472861.351631,57.000000,0.000000,4592.820313,4370.769043,4450.256348,4657.436035,4542.051270,0.000000,3.000000,,,,0.000000,4.000000,2.000000,4.000000,4.000000,4.000000,,,,,,,,,,,,,,,,,,,,,,,,,
1577472861.359438,58.000000,0.000000,4618.974121,4345.128418,4482.051270,4582.563965,4530.256348,0.000000,3.000000,,,,0.000000,4.000000,2.000000,4.000000,4.000000,4.000000,,,,,,,,,,,,,,,,,,,,,,,,,
1577472861.367344,59.000000,0.000000,4664.102539,4340.000000,4529.743652,4658.461426,4567.692383,0.000000,3.000000,,,,0.000000,4.000000,2.000000,4.000000,4.000000,4.000000,,,,,,,,,,,,,,,,,,,,,,,,,
1577472861.375251,60.000000,0.000000,4663.077148,4353.846191,4537.436035,4744.615234,4580.000000,0.000000,3.000000,,,,0.000000,4.000000,2.000000,4.000000,4.000000,4.000000,,,,,,,,,,,,,,,,,,,,,,,,,
1577472861.383059,61.000000,0.000000,4579.487305,4312.307617,4469.743652,4665.128418,4507.179688,0.000000,3.000000,,,,0.000000,4.000000,2.000000,4.000000,4.000000,4.000000,,,,,,,,,,,,,,,,,,,,,,,,,
1577472861.390866,62.000000,0.000000,4560.512695,4289.230957,4440.000000,4620.512695,4469.230957,0.000000,3.000000,,,,0.000000,4.000000,2.000000,4.000000,4.000000,4.000000,,,,,,,,,,,,,,,,,,,,,,,,,
1577472861.398772,63.000000,0.000000,4595.384766,4293.333496,4455.897461,4652.820313,4482.051270,0.000000,3.000000,,,,0.000000,4.000000,2.000000,4.000000,4.000000,4.000000,,,,,,,,,,,,,,,,,,,,,,,,,
1577472861.406679,64.000000,0.000000,4603.589844,4280.512695,4475.897461,4657.948730,4526.666504,450.000000,3.000000,,,,0.000000,4.000000,2.000000,4.000000,4.000000,4.000000,,,,,,,,,,,,,,,,,,,,,,,,,
1577472861.414486,65.000000,0.000000,4568.717773,4258.974121,4452.307617,4623.077148,4508.717773,450.000000,3.000000,,,,0.000000,4.000000,2.000000,4.000000,4.000000,4.000000,,,,,,,,,,,,,,,,,,,,,,,,,
1577472861.422394,66.000000,0.000000,4512.820313,4250.769043,4398.974121,4598.461426,4417.948730,16075.000000,3.000000,,,,0.000000,4.000000,2.000000,4.000000,4.000000,4.000000,,,,,,,,,,,,,,,,,,,,,,,,,
1577472861.430201,67.000000,0.000000,4558.974121,4297.948730,4436.922852,4668.717773,4446.153809,450.000000,3.000000,,,,0.000000,4.000000,2.000000,4.000000,4.000000,4.000000,,,,,,,,,,,,,,,,,,,,,,,,,
1577472861.438108,68.000000,0.000000,4605.128418,4290.769043,4459.487305,4712.307617,4510.256348,16094.000000,3.000000,,,,0.000000,4.000000,4.000000,4.000000,4.000000,4.000000,,,,,,,,,,,,,,,,,,,,,,,,,
1577472861.445915,69.000000,0.000000,4550.769043,4226.153809,4408.205078,4666.666504,4500.000000,450.000000,3.000000,,,,0.000000,4.000000,4.000000,4.000000,4.000000,4.000000,,,,,,,,,,,,,,,,,,,,,,,,,
1577472861.453822,70.000000,0.000000,4524.102539,4224.615234,4406.153809,4619.487305,4491.282227,317.000000,3.000000,,,,0.000000,4.000000,4.000000,2.000000,4.000000,4.000000,121.845261,60.308811,54.297009,18.412373,154.833206,120.015923,50.279697,36.723946,12.270027,55.609093,65.720108,41.811378,36.641273,20.225224,145.517120,10154.834961,1469.174072,371.853088,64.655418,215.945496,102.088898,46.685070,43.298698,36.406349,185.028229
1577472861.461629,71.000000,0.000000,4555.897461,4233.333496,4443.589844,4631.282227,4499.487305,450.000000,3.000000,,,,0.000000,4.000000,4.000000,2.000000,4.000000,4.000000,,,,,,,,,,,,,,,,,,,,,,,,,
1577472861.469536,72.000000,0.000000,4600.000000,4242.563965,4479.487305,4683.589844,4524.615234,450.000000,3.000000,,,,0.000000,4.000000,4.000000,2.000000,4.000000,4.000000,,,,,,,,,,,,,,,,,,,,,,,,,
1577472861.477343,73.000000,0.000000,4558.461426,4209.230957,4435.384766,4697.436035,4483.589844,300.000000,3.000000,,,,0.000000,4.000000,4.000000,2.000000,4.000000,4.000000,,,,,,,,,,,,,,,,,,,,,,,,,
1577472861.485150,74.000000,0.000000,4461.538574,4144.102539,4349.743652,4624.102539,4425.641113,450.000000,3.000000,,,,0.000000,4.000000,4.000000,2.000000,4.000000,4.000000,,,,,,,,,,,,,,,,,,,,,,,,,
1577472861.492855,75.000000,0.000000,4457.436035,4161.025879,4359.487305,4555.897461,4437.436035,16117.000000,3.000000,,,,0.000000,4.000000,4.000000,2.000000,4.000000,4.000000,,,,,,,,,,,,,,,,,,,,,,,,,
1577472861.500661,76.000000,0.000000,4516.922852,4181.538574,4413.846191,4618.461426,4456.410156,450.000000,3.000000,,,,0.000000,4.000000,4.000000,2.000000,4.000000,4.000000,,,,,,,,,,,,,,,,,,,,,,,,,
1577472861.508366,77.000000,0.000000,4593.333496,4184.102539,4462.051270,4731.794922,4512.820313,450.000000,3.000000,,,,0.000000,4.000000,4.000000,2.000000,4.000000,4.000000,,,,,,,,,,,,,,,,,,,,,,,,,
1577472861.516273,78.000000,0.000000,4575.897461,4181.538574,4429.743652,4705.128418,4495.384766,450.000000,3.000000,,,,0.000000,4.000000,4.000000,2.000000,4.000000,4.000000,,,,,,,,,,,,,,,,,,,,,,,,,
1577472861.524079,79.000000,0.000000,4464.102539,4141.025879,4331.794922,4612.307617,4405.641113,16117.000000,3.000000,,,,0.000000,4.000000,4.000000,2.000000,4.000000,4.000000,,,,,,,,,,,,,,,,,,,,,,,,,
1577472861.531986,80.000000,0.000000,4462.563965,4128.205078,4333.846191,4591.282227,4427.179688,450.000000,3.000000,,,,0.000000,4.000000,4.000000,2.000000,4.000000,4.000000,,,,,,,,,,,,,,,,,,,,,,,,,
1577472861.539893,81.000000,0.000000,4552.307617,4174.871582,4410.256348,4608.717773,4505.641113,450.000000,3.000000,,,,0.000000,4.000000,4.000000,2.000000,4.000000,4.000000,,,,,,,,,,,,,,,,,,,,,,,,,
1577472861.547701,82.000000,0.000000,4625.128418,4228.205078,4484.615234,4729.230957,4602.563965,450.000000,3.000000,,,,0.000000,4.000000,4.000000,2.000000,4.000000,4.000000,,,,,,,,,,,,,,,,,,,,,,,,,
1577472861.555509,83.000000,0.000000,4581.538574,4184.615234,4458.461426,4814.358887,4567.179688,16117.000000,3.000000,,,,0.000000,4.000000,4.000000,2.000000,4.000000,4.000000,,,,,,,,,,,,,,,,,,,,,,,,,
1577472861.563415,84.000000,0.000000,4461.538574,4110.256348,4350.256348,4677.948730,4424.102539,450.000000,3.000000,,,,0.000000,4.000000,4.000000,2.000000,4.000000,4.000000,,,,,,,,,,,,,,,,,,,,,,,,,
1577472861.571221,85.000000,0.000000,4507.179688,4097.948730,4414.871582,4539.487305,4524.615234,450.000000,3.000000,,,,0.000000,4.000000,4.000000,2.000000,4.000000,4.000000,,,,,,,,,,,,,,,,,,,,,,,,,
1577472861.579127,86.000000,0.000000,4263.589844,3870.256348,4130.769043,4388.717773,4170.769043,450.000000,3.000000,,,,0.000000,4.000000,4.000000,2.000000,4.000000,4.000000,183.999863,80.518219,69.561676,24.252131,155.574997,142.017578,53.153732,39.282009,13.537064,61.525036,138.939957,68.604027,57.245071,27.026363,141.685028,9261.733398,1341.441895,361.857025,64.663879,212.494888,191.045807,82.298996,68.868507,45.936962,180.068207
1577472861.586933,87.000000,0.000000,3140.512939,3106.666748,3015.384521,3810.256348,3085.128174,16117.000000,3.000000,,,,0.000000,4.000000,4.000000,2.000000,4.000000,4.000000,,,,,,,,,,,,,,,,,,,,,,,,,
1577472861.594839,88.000000,0.000000,2595.384521,2504.615479,2542.051270,3052.820557,2713.333252,450.000000,3.000000,,,,0.000000,4.000000,4.000000,2.000000,4.000000,4.000000,,,,,,,,,,,,,,,,,,,,,,,,,
1577472861.602645,89.000000,0.000000,2665.641113,2491.794922,2572.307617,2808.205078,2562.051270,450.000000,3.000000,,,,0.000000,4.000000,4.000000,2.000000,4.000000,4.000000,,,,,,,,,,,,,,,,,,,,,,,,,
1577472861.610551,90.000000,0.000000,2187.179443,2431.794922,2084.615479,2975.897461,2011.282104,450.000000,3.000000,,,,0.000000,4.000000,4.000000,2.000000,4.000000,4.000000,,,,,,,,,,,,,,,,,,,,,,,,,
1577472861.618357,91.000000,0.000000,2006.666626,2254.871826,1968.205078,3023.076904,1996.410278,16117.000000,3.000000,,,,0.000000,4.000000,4.000000,2.000000,4.000000,4.000000,,,,,,,,,,,,,,,,,,,,,,,,,
1577472861.626263,92.000000,0.000000,2246.153809,2318.974365,2225.641113,3022.564209,2201.538574,450.000000,3.000000,,,,0.000000,4.000000,4.000000,2.000000,4.000000,4.000000,,,,,,,,,,,,,,,,,,,,,,,,,
1577472861.634069,93.000000,0.000000,2278.461426,2485.128174,2257.948730,3150.769287,2242.051270,450.000000,3.000000,,,,0.000000,4.000000,4.000000,2.000000,4.000000,4.000000,,,,,,,,,,,,,,,,,,,,,,,,,
1577472861.641974,94.000000,0.000000,2308.718018,2548.205078,2274.358887,3276.923096,2327.179443,450.000000,3.000000,,,,0.000000,4.000000,4.000000,2.000000,4.000000,4.000000,,,,,,,,,,,,,,,,,,,,,,,,,
1577472861.649780,95.000000,0.000000,2340.000000,2538.461426,2309.230713,3330.769287,2346.153809,16117.000000,3.000000,,,,0.000000,4.000000,4.000000,2.000000,4.000000,4.000000,,,,,,,,,,,,,,,,,,,,,,,,,
1577472861.657486,96.000000,0.000000,2342.564209,2485.641113,2309.230713,3273.333252,2301.538574,450.000000,3.000000,,,,0.000000,4.000000,4.000000,2.000000,4.000000,4.000000,,,,,,,,,,,,,,,,,,,,,,,,,
1577472861.665291,97.000000,0.000000,2393.333252,2439.487061,2352.307617,3249.743652,2377.948730,450.000000,3.000000,,,,0.000000,4.000000,4.000000,2.000000,4.000000,4.000000,,,,,,,,,,,,,,,,,,,,,,,,,
1577472861.672997,98.000000,0.000000,2419.487061,2516.410156,2373.333252,3385.641113,2416.410156,450.000000,3.000000,,,,0.000000,4.000000,4.000000,2.000000,4.000000,4.000000,,,,,,,,,,,,,,,,,,,,,,,,,
1577472861.680904,99.000000,0.000000,2382.051270,2582.564209,2358.974365,3401.538574,2376.410156,16117.000000,3.000000,,,,0.000000,4.000000,4.000000,2.000000,4.000000,4.000000,,,,,,,,,,,,,,,,,,,,,,,,,
1577472861.688710,100.000000,0.000000,2439.487061,2583.589844,2432.820557,3346.153809,2454.871826,450.000000,3.000000,,,,0.000000,4.000000,4.000000,2.000000,4.000000,4.000000,,,,,,,,,,,,,,,,,,,,,,,,,
1577472861.696617,101.000000,0.000000,2471.281982,2531.281982,2441.538574,3428.718018,2480.000000,450.000000,3.000000,,,,0.000000,4.000000,4.000000,2.000000,4.000000,4.000000,,,,,,,,,,,,,,,,,,,,,,,,,
1577472861.704423,102.000000,0.000000,2525.128174,2538.461426,2468.718018,3482.051270,2491.794922,450.000000,3.000000,,,,0.000000,4.000000,4.000000,2.000000,4.000000,4.000000,318.604218,140.643021,99.561119,33.909420,154.760056,181.304062,73.386429,52.052288,18.317364,64.330849,274.524811,130.011124,91.345634,37.139107,138.615158,7254.550293,1080.502930,315.995239,62.234436,206.686996,362.012543,160.705368,110.651817,59.215862,174.443649
1577472861.712330,103.000000,0.000000,2553.333252,2617.435791,2507.692383,3440.512939,2522.051270,16117.000000,3.000000,,,,0.000000,4.000000,4.000000,2.000000,4.000000,4.000000,,,,,,,,,,,,,,,,,,,,,,,,,
1577472861.720136,104.000000,0.000000,2483.589844,2620.000000,2485.641113,3421.538574,2533.846191,450.000000,3.000000,,,,0.000000,4.000000,4.000000,2.000000,4.000000,4.000000,,,,,,,,,,,,,,,,,,,,,,,,,
1577472861.728043,105.000000,0.000000,2562.051270,2616.923096,2557.948730,3455.384521,2635.897461,450.000000,3.000000,,,,0.000000,4.000000,4.000000,2.000000,4.000000,4.000000,,,,,,,,,,,,,,,,,,,,,,,,,
1577472861.735849,106.000000,0.000000,2616.410156,2649.743652,2578.974365,3494.358887,2624.102539,450.000000,3.000000,,,,0.000000,4.000000,4.000000,2.000000,4.000000,4.000000,,,,,,,,,,,,,,,,,,,,,,,,,
1577472861.743755,107.000000,0.000000,2609.743652,2677.435791,2578.974365,3532.820557,2595.897461,16117.000000,3.000000,,,,0.000000,4.000000,4.000000,2.000000,4.000000,4.000000,,,,,,,,,,,,,,,,,,,,,,,,,
1577472861.751561,108.000000,0.000000,2663.076904,2689.743652,2624.615479,3587.692383,2662.051270,450.000000,3.000000,,,,0.000000,4.000000,4.000000,2.000000,4.000000,4.000000,,,,,,,,,,,,,,,,,,,,,,,,,
1577472861.759467,109.000000,0.000000,2652.820557,2644.102539,2604.102539,3537.435791,2695.384521,450.000000,3.000000,,,,0.000000,4.000000,4.000000,2.000000,4.000000,4.000000,,,,,,,,,,,,,,,,,,,,,,,,,
1577472861.767273,110.000000,0.000000,2682.564209,2633.846191,2668.205078,3508.205078,2773.333252,450.000000,3.000000,,,,0.000000,4.000000,4.000000,2.000000,4.000000,4.000000,,,,,,,,,,,,,,,,,,,,,,,,,
1577472861.775179,111.000000,0.000000,2712.820557,2720.000000,2692.307617,3590.256348,2744.615479,16117.000000,3.000000,,,,0.000000,4.000000,4.000000,2.000000,4.000000,4.000000,,,,,,,,,,,,,,,,,,,,,,,,,
1577472861.782985,112.000000,0.000000,2736.923096,2783.076904,2660.512939,3618.974365,2653.333252,450.000000,3.000000,,,,0.000000,4.000000,4.000000,2.000000,4.000000,4.000000,,,,,,,,,,,,,,,,,,,,,,,,,
1577472861.790891,113.000000,0.000000,2820.512939,2779.487061,2748.205078,3624.615479,2727.692383,450.000000,3.000000,,,,0.000000,4.000000,4.000000,2.000000,4.000000,4.000000,,,,,,,,,,,,,,,,,,,,,,,,,
1577472861.798799,114.000000,0.000000,2773.333252,2736.410156,2766.666748,3605.641113,2823.076904,450.000000,3.000000,,,,0.000000,4.000000,4.000000,2.000000,4.000000,4.000000,,,,,,,,,,,,,,,,,,,,,,,,,
1577472861.806606,115.000000,0.000000,2760.512939,2742.051270,2795.897461,3587.179443,2885.641113,16117.000000,3.000000,,,,0.000000,4.000000,4.000000,2.000000,4.000000,4.000000,,,,,,,,,,,,,,,,,,,,,,,,,
1577472861.814413,116.000000,0.000000,2817.435791,2801.538574,2823.589844,3599.487061,2848.718018,450.000000,3.000000,,,,0.000000,4.000000,4.000000,2.000000,4.000000,4.000000,,,,,,,,,,,,,,,,,,,,,,,,,
1577472861.822119,117.000000,0.000000,2793.333252,2815.384521,2746.153809,3665.128174,2771.281982,450.000000,3.000000,,,,0.000000,4.000000,4.000000,2.000000,4.000000,4.000000,,,,,,,,,,,,,,,,,,,,,,,,,
1577472861.830026,118.000000,0.000000,2822.564209,2836.923096,2760.512939,3753.846191,2813.333252,450.000000,3.000000,,,,0.000000,4.000000,4.000000,2.000000,4.000000,4.000000,605.019531,249.710938,142.633545,46.359619,147.061630,332.790802,122.539597,76.172012,25.803707,63.083607,548.390930,236.636093,137.162888,49.564339,130.734451,4805.524414,804.385803,256.617218,60.293461,191.466171,697.641418,294.559387,165.947205,73.821877,162.487686
1577472861.837833,119.000000,0.000000,2860.512939,2840.000000,2821.538574,3724.615479,2846.153809,16117.000000,3.000000,,,,0.000000,4.000000,4.000000,2.000000,4.000000,4.000000,,,,,,,,,,,,,,,,,,,,,,,,,
1577472861.845740,120.000000,0.000000,2890.769287,2797.948730,2904.102539,3663.076904,2914.871826,450.000000,3.000000,,,,0.000000,4.000000,4.000000,2.000000,4.000000,4.000000,,,,,,,,,,,,,,,,,,,,,,,,,
1577472861.853546,121.000000,0.000000,2926.666748,2834.358887,2936.410156,3733.846191,2943.076904,450.000000,3.000000,,,,0.000000,4.000000,4.000000,2.000000,4.000000,4.000000,,,,,,,,,,,,,,,,,,,,,,,,,
1577472861.861453,122.000000,0.000000,2880.000000,2873.333252,2822.564209,3798.461426,2837.435791,450.000000,3.000000,,,,0.000000,4.000000,4.000000,2.000000,4.000000,4.000000,,,,,,,,,,,,,,,,,,,,,,,,,
1577472861.869260,123.000000,0.000000,2875.384521,2822.564209,2802.564209,3757.948730,2829.743652,16117.000000,3.000000,,,,0.000000,4.000000,4.000000,2.000000,4.000000,4.000000,,,,,,,,,,,,,,,,,,,,,,,,,
1577472861.877166,124.000000,0.000000,2869.230713,2792.820557,2849.230713,3742.564209,2886.666748,450.000000,3.000000,,,,0.000000,4.000000,4.000000,2.000000,4.000000,4.000000,,,,,,,,,,,,,,,,,,,,,,,,,
1577472861.884973,125.000000,0.000000,2913.333252,2862.051270,2930.256348,3751.281982,2973.333252,450.000000,3.000000,,,,0.000000,4.000000,4.000000,2.000000,4.000000,4.000000,,,,,,,,,,,,,,,,,,,,,,,,,
1577472861.892779,126.000000,0.000000,3019.487061,2938.974365,3000.512939,3770.256348,3017.948730,450.000000,3.000000,,,,0.000000,4.000000,4.000000,2.000000,4.000000,4.000000,,,,,,,,,,,,,,,,,,,,,,,,,
1577472861.900485,127.000000,0.000000,2964.615479,2909.743652,2889.230713,3825.128174,2924.102539,232.000000,3.000000,,,,0.000000,4.000000,4.000000,2.000000,4.000000,4.000000,,,,,,,,,,,,,,,,,,,,,,,,,
