Timestamp,EEG.Counter,EEG.Interpolated,EEG.AF3,EEG.T7,EEG.Pz,EEG.T8,EEG.AF4,EEG.RawCq,EEG.Battery,MarkerIndex,MarkerType,MarkerValueInt,EEG.MarkerHardware,CQ.AF3,CQ.T7,CQ.Pz,CQ.T8,CQ.AF4,MOT.CounterMems,MOT.InterpolatedMems,MOT.Q0,MOT.Q1,MOT.Q2,MOT.Q3,MOT.AccX,MOT.AccY,MOT.AccZ,MOT.MagX,MOT.MagY,MOT.MagZ,POW.AF3.Theta,POW.AF3.Alpha,POW.AF3.BetaL,POW.AF3.BetaH,POW.AF3.Gamma,POW.T7.Theta,POW.T7.Alpha,POW.T7.BetaL,POW.T7.BetaH,POW.T7.Gamma,POW.Pz.Theta,POW.Pz.Alpha,POW.Pz.BetaL,POW.Pz.BetaH,POW.Pz.Gamma,POW.T8.Theta,POW.T8.Alpha,POW.T8.BetaL,POW.T8.BetaH,POW.T8.Gamma,POW.AF4.Theta,POW.AF4.Alpha,POW.AF4.BetaL,POW.AF4.BetaH,POW.AF4.Gamma
1577348127,115,0,4378.461426,4413.846191,4086.153809,4175.384766,4263.589844,16112,4,,,,0,2,4,1,0,4,,,,,,,,,,,,,,,,,,,,,,,,,,,,,,,,,,,,,
1577348127,116,0,4357.94873,4387.179688,4080.512939,4165.128418,4229.743652,450,4,,,,0,2,4,1,0,4,58,0,0.56003,0.130615,0.69873,0.425537,0.709484,-0.660166,0.049317,-5.745578,-57.074429,51.89949,,,,,,,,,,,,,,,,,,,,,,,,,
1577348127,117,1,4356.866211,4384.330566,4079.088379,4160.797852,4231.509766,450,4,,,,0,2,4,1,0,4,,,,,,,,,,,,,,,,,,,,,,,,,,,,,,,,,,,,,
1577348127,118,1,4355.783691,4381.481445,4077.663818,4156.467285,4233.276367,450,4,,,,0,2,4,1,0,4,59,1,0,0.130469,0.69873,0.425732,0.712999,-0.666807,0,0,0,0,,,,,,,,,,,,,,,,,,,,,,,,,
1577348127,119,1,4354.700684,4378.632324,4076.239258,4152.136719,4235.042969,450,4,,,,0,2,4,1,0,4,,,,,,,,,,,,,,,,,,,,,,,,,,,,,,,,,,,,,
1577348127,120,1,4353.618164,4375.783691,4074.814697,4147.806152,4236.809082,450,4,,,,0,2,4,1,0,4,60,1,0,0.130322,0.69873,0.425928,0.716515,-0.673448,0,0,0,0,,,,,,,,,,,,,,,,,,,,,,,,,
1577348127,121,1,4352.535645,4372.93457,4073.390381,4143.475586,4238.575684,450,4,,,,0,2,4,1,0,4,,,,,,,,,,,,,,,,,,,,,,,,,,,,,,,,,,,,,
1577348127,122,1,4351.453125,4370.085449,4071.96582,4139.145508,4240.341797,450,4,,,,0,2,4,1,0,4,61,1,0,0.130176,0.69873,0.426123,0.720031,-0.680089,0,0,0,0,,,,,,,,,,,,,,,,,,,,,,,,,
1577348127,123,1,4350.370605,4367.236328,4070.54126,4134.814941,4242.108398,450,4,,,,0,2,4,1,0,4,,,,,,,,,,,,,,,,,,,,,,,,,,,,,,,,,,,,,
1577348127,124,1,4349.287598,4364.387695,4069.116699,4130.484375,4243.874512,450,4,,,,0,2,4,1,0,4,62,1,0,0.130029,0.69873,0.426318,0.723546,-0.686729,0,0,0,0,,,,,,,,,,,,,,,,,,,,,,,,,
1577348127,125,0,4348.205078,4361.538574,4067.692383,4126.153809,4245.641113,450,4,,,,0,2,4,1,0,4,,,,,,,,,,,,,,,,,,,,,,,,,,,,,,,,,,,,,
1577348127,126,0,4261.538574,4299.487305,4186.153809,4199.487305,4222.05127,450,4,,,,0,2,4,1,0,4,63,0,0.559457,0.129883,0.69873,0.426514,0.727062,-0.69337,0.037598,-5.769174,-57.228893,51.973293,,,,,,,,,,,,,,,,,,,,,,,,,
1577348127,127,0,4255.897461,4366.153809,4135.384766,4265.641113,4235.897461,234,4,,,,0,2,4,1,0,4,,,,,,,,,,,,,,,,,,,,,,,,,,,,,,,,,,,,,
1577348127,0,0,4302.563965,4409.230957,3968.718018,4192.820313,4262.563965,450,4,,,,0,2,4,1,0,4,0,0,0.559762,0.129883,0.698486,0.426514,0.730968,-0.701183,0.036622,-5.910041,-57.308094,52.039715,,,,,,,,,,,,,,,,,,,,,,,,,
1577348127,1,0,4321.025879,4394.871582,3988.205078,4138.461426,4303.589844,450,4,,,,0,4,4,1,0,4,,,,,,,,,,,,,15.273059,11.217033,3.064581,16.983845,5.671146,7.973482,3.715491,0.528946,7.178609,3.744769,18.644121,12.417264,10.931882,73.249313,16.27853,1.618682,1.745883,1.358847,8.843121,15.630738,11.958028,6.338702,2.583457,10.625427,1.735781
1577348127,2,0,4331.282227,4379.487305,4065.641113,4138.974121,4319.487305,16101,4,,,,0,4,4,1,0,4,1,0,0.559762,0.129883,0.698486,0.426514,0.713878,-0.711925,0.033204,-5.91719,-57.319557,52.03968,,,,,,,,,,,,,,,,,,,,,,,,,
1577348127,3,0,4308.717773,4364.102539,4054.358887,4230.256348,4294.871582,450,4,,,,0,4,4,1,0,4,,,,,,,,,,,,,,,,,,,,,,,,,,,,,,,,,,,,,
1577348127,4,0,4323.589844,4377.94873,4091.281982,4266.153809,4293.846191,16181,4,,,,0,4,4,1,0,4,2,0,0.559948,0.129883,0.698486,0.42627,0.729503,-0.700206,0.044434,-5.923625,-57.32988,52.099464,,,,,,,,,,,,,,,,,,,,,,,,,
1577348127,5,0,4317.94873,4356.410156,4119.487305,4173.846191,4287.692383,450,4,,,,0,4,4,1,0,4,,,,,,,,,,,,,,,,,,,,,,,,,,,,,,,,,,,,,
1577348127,6,0,4259.487305,4347.692383,4131.282227,4156.922852,4293.846191,127,4,,,,0,4,4,1,0,4,3,0,0.560015,0.129883,0.69873,0.425781,0.72462,-0.701183,0.039551,-5.869601,-57.159718,51.973824,,,,,,,,,,,,,,,,,,,,,,,,,
1577348127,7,0,4276.410156,4379.487305,4058.974365,4156.922852,4300.512695,450,4,,,,0,4,4,1,0,4,,,,,,,,,,,,,,,,,,,,,,,,,,,,,,,,,,,,,
1577348127,8,0,4314.358887,4372.307617,3968.205078,4184.615234,4292.307617,450,4,,,,0,4,4,1,1,4,4,0,0.5602,0.129883,0.69873,0.425537,0.740246,-0.683116,0.02295,-5.701348,-57.186024,52.10001,,,,,,,,,,,,,,,,,,,,,,,,,
1577348127,9,0,4316.922852,4376.410156,4038.974365,4212.820313,4329.743652,52,4,,,,0,4,4,1,1,4,,,,,,,,,,,,,,,,,,,,,,,,,,,,,,,,,,,,,
1577348127,10,0,4294.871582,4364.102539,4117.436035,4137.94873,4301.538574,450,4,,,,0,4,4,1,1,4,5,0,0.56069,0.129883,0.698486,0.425293,0.714855,-0.660655,0.037598,-5.549921,-57.209694,52.213577,,,,,,,,,,,,,,,,,,,,,,,,,
1577348127,11,0,4270.256348,4337.436035,4150.769043,4152.307617,4269.230957,16061,4,,,,0,4,4,1,1,4,,,,,,,,,,,,,,,,,,,,,,,,,,,,,,,,,,,,,
1577348127,12,0,4296.410156,4361.025879,4081.538574,4200,4316.410156,450,4,,,,0,4,4,1,1,4,6,0,0.560875,0.129883,0.698486,0.425049,0.71632,-0.657237,0.048829,-5.473452,-57.231003,52.196156,,,,,,,,,,,,,,,,,,,,,,,,,
1577348127,13,0,4322.05127,4391.794922,3947.692383,4195.384766,4328.205078,450,4,,,,0,4,4,1,1,4,,,,,,,,,,,,,,,,,,,,,,,,,,,,,,,,,,,,,
1577348127,14,0,4338.974121,4401.538574,3982.564209,4173.846191,4346.666504,450,4,,,,0,4,4,1,1,4,7,0,0.561179,0.129883,0.698242,0.425049,0.706065,-0.661631,0.041505,-5.52426,-57.250175,52.240292,,,,,,,,,,,,,,,,,,,,,,,,,
1577348127,15,0,4323.077148,4374.871582,4057.94873,4109.230957,4304.615234,16061,4,,,,0,4,4,1,1,4,,,,,,,,,,,,,,,,,,,,,,,,,,,,,,,,,,,,,
1577348127,16,0,4263.077148,4336.922852,4111.794922,4173.333496,4240.512695,0,4,,,,0,4,4,1,1,4,8,0,0.561298,0.129883,0.697998,0.425293,0.731456,-0.664561,0.03125,-5.450357,-57.207619,52.160385,,,,,,,,,,,,,,,,,,,,,,,,,
1577348127,17,0,4258.974121,4337.94873,4123.077148,4249.230957,4285.641113,0,4,,,,0,4,4,1,1,4,,,,,,,,,,,,,11.348514,11.793217,3.297247,17.632345,5.67116,6.447207,3.292595,0.5109,7.52915,4.115506,14.814823,11.378268,10.397801,75.611198,17.599808,1.422224,1.22748,1.297043,9.640356,15.719213,11.130438,7.143787,3.492988,11.397275,1.643387
1577348127,18,0,4321.025879,4374.358887,4034.358887,4177.94873,4322.563965,0,4,,,,0,4,4,1,1,4,9,0,0.561231,0.129883,0.697754,0.425781,0.733898,-0.669444,0.023926,-5.623106,-57.169315,52.088467,,,,,,,,,,,,,,,,,,,,,,,,,
1577348127,19,0,4402.563965,4426.153809,4002.05127,4122.563965,4358.461426,0,4,,,,0,4,4,1,1,4,,,,,,,,,,,,,,,,,,,,,,,,,,,,,,,,,,,,,
1577348127,20,0,4392.307617,4413.846191,4002.05127,4127.179688,4331.282227,0,4,,,,0,4,4,1,1,4,10,0,0.561046,0.129883,0.697754,0.426025,0.728038,-0.695811,0.024414,-5.718764,-57.254475,52.143372,,,,,,,,,,,,,,,,,,,,,,,,,
1577348127,21,0,4324.615234,4374.358887,4057.435791,4204.102539,4258.461426,0,4,,,,0,4,4,1,1,4,,,,,,,,,,,,,,,,,,,,,,,,,,,,,,,,,,,,,
1577348127,22,0,4340,4390.769043,4092.820557,4249.230957,4271.282227,0,4,,,,0,4,4,1,1,4,11,0,0.561107,0.130127,0.69751,0.42627,0.72462,-0.690929,0.024903,-5.565596,-57.271301,52.192787,,,,,,,,,,,,,,,,,,,,,,,,,
1577348127,23,0,4341.025879,4397.94873,4030.769287,4196.410156,4257.436035,0,4,,,,0,4,4,1,1,4,,,,,,,,,,,,,,,,,,,,,,,,,,,,,,,,,,,,,
1577348127,24,0,4348.205078,4391.282227,4043.589844,4168.205078,4276.922852,0,4,,,,0,4,4,1,1,4,12,0,0.560922,0.130127,0.69751,0.426514,0.726574,-0.685069,0.026856,-5.60719,-57.107002,52.057816,,,,,,,,,,,,,,,,,,,,,,,,,
1577348127,25,0,4360,4386.666504,4043.076904,4141.025879,4303.077148,0,4,,,,0,4,4,1,1,4,,,,,,,,,,,,,,,,,,,,,,,,,,,,,,,,,,,,,
1577348127,26,0,4326.666504,4412.820313,3988.718018,4181.538574,4250.256348,0,4,,,,0,4,4,1,1,4,13,0,0.560679,0.130371,0.69751,0.426758,0.729992,-0.6963,0.041505,-5.644624,-57.018944,51.996155,,,,,,,,,,,,,,,,,,,,,,,,,
1577348127,27,0,4352.307617,4458.461426,4048.718018,4231.282227,4264.102539,0,4,,,,0,4,4,1,1,4,,,,,,,,,,,,,,,,,,,,,,,,,,,,,,,,,,,,,
1577348127,28,0,4338.974121,4395.384766,4096.922852,4158.974121,4243.077148,0,4,,,,0,4,4,1,1,4,14,0,0.560865,0.130371,0.69751,0.426514,0.717784,-0.691905,0.029297,-5.498869,-57.059326,52.000477,,,,,,,,,,,,,,,,,,,,,,,,,
1577348127,29,0,4318.974121,4363.589844,4116.922852,4157.436035,4198.974121,0,4,,,,0,4,4,1,1,4,,,,,,,,,,,,,,,,,,,,,,,,,,,,,,,,,,,,,
1577348127,30,0,4353.846191,4433.333496,4057.435791,4206.666504,4241.538574,0,4,,,,0,4,4,1,1,4,15,0,0.561107,0.130127,0.69751,0.42627,0.742687,-0.691905,0.031739,-5.427505,-57.035854,52.004364,,,,,,,,,,,,,,,,,,,,,,,,,
1577348127,31,0,4347.692383,4438.461426,3966.153809,4235.384766,4237.94873,0,4,,,,0,4,4,1,1,4,,,,,,,,,,,,,,,,,,,,,,,,,,,,,,,,,,,,,
1577348127,32,0,4390.769043,4420.512695,4011.281982,4224.102539,4242.05127,0,4,,,,0,4,4,1,1,4,16,0,0.561349,0.129883,0.69751,0.426025,0.721202,-0.689952,0.039551,-5.423093,-57.014729,51.948051,,,,,,,,,,,,,,,,,,,,,,,,,
1577348127,33,0,4360.512695,4376.922852,4057.435791,4122.563965,4238.461426,0,4,,,,0,4,4,1,1,4,,,,,,,,,,,,,8.44733,11.845898,3.87149,17.510147,5.513747,4.814119,2.822997,0.708418,7.697909,4.303392,12.666155,9.562561,10.445029,74.390732,18.185951,1.566365,1.082458,1.322872,10.687181,15.158412,9.374087,7.902579,4.720951,11.5945,1.507179
1577348127,34,0,4262.05127,4356.922852,4107.179688,4171.794922,4171.794922,0,4,,,,0,4,4,1,1,4,17,0,0.561838,0.129883,0.697266,0.425781,0.693858,-0.677745,0.045899,-5.359307,-56.995716,52.016998,,,,,,,,,,,,,,,,,,,,,,,,,
1577348127,35,0,4300,4412.307617,4113.333496,4260,4192.307617,0,4,,,,0,4,4,1,1,4,,,,,,,,,,,,,,,,,,,,,,,,,,,,,,,,,,,,,
1577348127,36,0,4323.589844,4409.230957,3984.615479,4210.256348,4230.769043,0,4,,,,0,4,4,1,1,4,18,0,0.561899,0.130127,0.697021,0.426025,0.697276,-0.661143,0.034668,-5.361714,-56.978603,51.899605,,,,,,,,,,,,,,,,,,,,,,,,,
1577348127,37,0,4321.538574,4414.358887,3973.333252,4171.282227,4218.461426,0,4,,,,0,4,4,1,1,4,,,,,,,,,,,,,,,,,,,,,,,,,,,,,,,,,,,,,
1577348127,38,0,4305.128418,4394.358887,4063.076904,4128.717773,4204.102539,0,4,,,,0,4,4,1,1,4,19,0,0.562202,0.130127,0.696777,0.426025,0.718273,-0.663584,0.026856,-5.423697,-56.963203,51.973396,,,,,,,,,,,,,,,,,,,,,,,,,
1577348127,39,0,4234.358887,4343.589844,4148.205078,4188.205078,4186.153809,0,4,,,,0,4,4,1,1,4,,,,,,,,,,,,,,,,,,,,,,,,,,,,,,,,,,,,,
1577348127,40,0,4267.179688,4392.820313,4113.333496,4273.333496,4215.897461,0,4,,,,0,4,4,1,1,4,20,0,0.562319,0.130127,0.696533,0.42627,0.732921,-0.660166,0.026368,-5.419665,-57.009159,51.860363,,,,,,,,,,,,,,,,,,,,,,,,,
1577348127,41,0,4305.641113,4400,3991.794922,4216.410156,4255.384766,0,4,,,,0,4,4,1,1,4,,,,,,,,,,,,,,,,,,,,,,,,,,,,,,,,,,,,,
1577348127,42,0,4284.615234,4378.974121,4018.461426,4165.128418,4273.846191,0,4,,,,0,4,4,1,1,4,21,0,0.562251,0.130127,0.696289,0.426758,0.745129,-0.675792,0.021485,-5.475852,-56.9907,51.93808,,,,,,,,,,,,,,,,,,,,,,,,,
1577348127,43,0,4283.589844,4403.589844,4048.718018,4140,4280.512695,0,4,,,,0,4,4,1,1,4,,,,,,,,,,,,,,,,,,,,,,,,,,,,,,,,,,,,,
1577348127,44,0,4260,4387.692383,4008.205078,4188.205078,4248.205078,0,4,,,,0,4,4,1,1,4,22,0,0.562251,0.130127,0.696289,0.426758,0.752453,-0.672374,0.011231,-5.466605,-56.974091,52.008022,,,,,,,,,,,,,,,,,,,,,,,,,
1577348127,45,0,4267.179688,4374.358887,4058.974365,4237.94873,4222.563965,0,4,,,,0,4,4,1,1,4,,,,,,,,,,,,,,,,,,,,,,,,,,,,,,,,,,,,,
1577348127,46,0,4271.794922,4349.230957,4101.538574,4170.769043,4218.974121,0,4,,,,0,4,4,1,1,4,23,0,0.562066,0.130127,0.696289,0.427002,0.72462,-0.695811,0.018555,-5.637729,-56.839512,51.951344,,,,,,,,,,,,,,,,,,,,,,,,,
1577348127,47,0,4223.589844,4329.743652,4129.230957,4155.384766,4233.333496,0,4,,,,0,4,4,1,1,4,,,,,,,,,,,,,,,,,,,,,,,,,,,,,,,,,,,,,
1577348127,48,0,4223.589844,4357.94873,4072.307617,4171.794922,4248.717773,0,4,,,,0,4,4,1,1,4,24,0,0.562251,0.130127,0.696289,0.426758,0.745129,-0.675792,0.021485,-5.67211,-56.83802,52.019958,,,,,,,,,,,,,,,,,,,,,,,,,
1577348127,49,0,4273.333496,4387.179688,3970.769287,4182.05127,4267.692383,0,4,,,,0,4,4,1,1,4,,,,,,,,,,,,,6.583728,11.431109,4.955734,16.650597,5.244936,3.394133,2.472633,1.122251,7.687545,4.302493,12.036052,7.353408,11.13351,70.60804,18.109503,2.116749,1.372583,1.409763,11.66228,14.193887,7.240862,8.356798,6.064921,11.216002,1.364336
1577348127,50,0,4316.410156,4402.05127,4021.538574,4184.615234,4301.538574,0,4,,,,0,4,4,1,1,4,25,0,0.562066,0.130127,0.696289,0.427002,0.72462,-0.695811,0.018555,-5.822683,-56.717045,51.962086,,,,,,,,,,,,,,,,,,,,,,,,,
1577348127,51,0,4290.256348,4358.461426,4114.871582,4144.102539,4259.487305,0,4,,,,0,4,4,1,1,4,,,,,,,,,,,,,,,,,,,,,,,,,,,,,,,,,,,,,
1577348127,52,0,4226.153809,4313.333496,4186.153809,4184.102539,4240.512695,0,4,,,,0,4,4,1,1,4,26,0,0.562066,0.130127,0.696289,0.427002,0.71046,-0.695811,0.013672,-5.838569,-56.787617,51.850182,,,,,,,,,,,,,,,,,,,,,,,,,
1577348127,53,0,4253.333496,4356.410156,4105.128418,4213.333496,4302.05127,0,4,,,,0,4,4,1,1,4,,,,,,,,,,,,,,,,,,,,,,,,,,,,,,,,,,,,,
1577348127,54,0,4317.94873,4397.436035,3926.666748,4186.666504,4326.666504,0,4,,,,0,4,4,1,1,4,27,0,0.561949,0.130127,0.696533,0.426758,0.729992,-0.702647,0.028809,-5.912681,-56.731499,51.869102,,,,,,,,,,,,,,,,,,,,,,,,,
1577348127,55,0,4352.820313,4397.94873,3966.666748,4162.563965,4362.563965,0,4,,,,0,4,4,1,1,4,,,,,,,,,,,,,,,,,,,,,,,,,,,,,,,,,,,,,
1577348127,56,0,4336.410156,4381.538574,4060,4113.333496,4329.230957,0,4,,,,0,4,4,1,1,4,28,0,0.562129,0.129639,0.696777,0.42627,0.73341,-0.688487,0.019043,-5.799936,-56.680996,51.886127,,,,,,,,,,,,,,,,,,,,,,,,,
1577348127,57,0,4269.230957,4356.410156,4105.641113,4188.205078,4243.589844,0,4,,,,0,4,4,1,1,4,,,,,,,,,,,,,,,,,,,,,,,,,,,,,,,,,,,,,
1577348127,58,0,4262.05127,4358.974121,4122.563965,4253.333496,4262.563965,0,4,,,,0,4,4,1,1,4,29,0,0.561765,0.129395,0.697266,0.426025,0.737316,-0.684092,0.030762,-5.877911,-56.695354,51.901451,,,,,,,,,,,,,,,,,,,,,,,,,
1577348127,59,0,4291.794922,4378.974121,4032.820557,4173.846191,4287.179688,0,4,,,,0,4,4,1,1,4,,,,,,,,,,,,,,,,,,,,,,,,,,,,,,,,,,,,,
1577348127,60,1,4298.689453,4386.267578,4028.319092,4176.922852,4285.128418,1794.444458,4,,,,0,4,4,1,1,4,30,1,0,0.129346,0.697021,0.426318,0.737511,-0.683116,0,0,0,0,,,,,,,,,,,,,,,,,,,,,,,,,
1577348127,61,1,4305.583984,4393.561035,4023.817627,4180,4283.077148,3588.888916,4,,,,0,4,4,1,1,4,,,,,,,,,,,,,,,,,,,,,,,,,,,,,,,,,,,,,
1577348127,62,1,4312.478516,4400.854492,4019.316162,4183.077148,4281.025879,5383.333496,4,,,,0,4,4,1,1,4,31,1,0,0.129297,0.696777,0.426611,0.737707,-0.682139,0,0,0,0,,,,,,,,,,,,,,,,,,,,,,,,,
1577348127,63,1,4319.373047,4408.147949,4014.814697,4186.153809,4278.974121,7177.777832,4,,,,0,4,4,1,1,4,,,,,,,,,,,,,,,,,,,,,,,,,,,,,,,,,,,,,
1577348127,64,1,4326.267578,4415.441406,4010.313477,4189.230957,4276.922852,450,4,,,,0,4,4,1,1,4,32,1,0,0.129248,0.696533,0.426904,0.737902,-0.681163,0,0,0,0,,,,,,,,,,,,,,,,,,,,,,,,,
1577348127,65,1,4333.162598,4422.734863,4005.812012,4192.307617,4274.871582,450,4,,,,0,4,4,1,1,4,,,,,,,,,,,,,5.475405,10.632036,6.519499,15.271805,4.923622,2.508427,2.288117,1.706241,7.553454,4.167735,12.120757,5.271199,12.338265,65.790634,17.562723,3.185251,2.054653,1.561053,12.322646,13.259884,5.368769,8.278943,7.217192,10.477275,1.26078
1577348127,66,1,4340.057129,4430.02832,4001.310547,4195.384766,4272.820313,16101,4,,,,0,4,4,1,1,4,33,1,0,0.129199,0.696289,0.427197,0.738097,-0.680186,0,0,0,0,,,,,,,,,,,,,,,,,,,,,,,,,
1577348127,67,1,4346.95166,4437.321777,3996.809082,4198.461426,4270.769043,450,4,,,,0,4,4,1,1,4,,,,,,,,,,,,,,,,,,,,,,,,,,,,,,,,,,,,,
1577348127,68,0,4353.846191,4444.615234,3992.307617,4201.538574,4268.717773,16150,4,,,,0,4,4,1,1,4,34,0,0.562222,0.12915,0.696045,0.42749,0.738293,-0.67921,0.018555,-5.888274,-56.768093,51.97506,,,,,,,,,,,,,,,,,,,,,,,,,
1577348128,69,0,4330.256348,4394.871582,4089.230713,4152.820313,4218.974121,450,4,,,,0,4,4,1,1,4,,,,,,,,,,,,,,,,,,,,,,,,,,,,,,,,,,,,,
1577348128,70,0,4271.794922,4370.256348,4154.358887,4181.025879,4180,126,4,,,,0,4,4,1,1,4,35,0,0.56198,0.129395,0.696045,0.427734,0.746593,-0.697276,0.019532,-5.957416,-56.95319,52.041306,,,,,,,,,,,,,,,,,,,,,,,,,
1577348128,71,0,4272.820313,4396.922852,4077.94873,4217.436035,4245.641113,450,4,,,,0,4,4,1,1,4,,,,,,,,,,,,,,,,,,,,,,,,,,,,,,,,,,,,,
1577348128,72,0,4300.512695,4403.589844,3940,4185.128418,4246.153809,450,4,,,,0,4,4,1,1,4,36,0,0.561738,0.129639,0.696045,0.427979,0.734874,-0.712902,0.010742,-5.900012,-56.940331,51.981297,,,,,,,,,,,,,,,,,,,,,,,,,
1577348128,73,0,4380.512695,4425.641113,3980.512939,4165.641113,4244.615234,80,4,,,,0,4,4,1,1,4,,,,,,,,,,,,,,,,,,,,,,,,,,,,,,,,,,,,,
1577348128,74,0,4362.563965,4394.871582,4062.564209,4134.871582,4241.538574,450,4,,,,0,4,4,1,1,4,37,0,0.561625,0.130127,0.696045,0.427979,0.726574,-0.719738,0.026368,-5.788534,-56.868942,51.867474,,,,,,,,,,,,,,,,,,,,,,,,,
1577348128,75,0,4283.077148,4378.461426,4107.692383,4184.615234,4182.563965,16095,4,,,,0,4,4,1,1,4,,,,,,,,,,,,,,,,,,,,,,,,,,,,,,,,,,,,,
1577348128,76,0,4317.436035,4424.102539,4112.307617,4242.563965,4198.461426,450,4,,,,0,4,4,1,1,4,38,0,0.561452,0.130371,0.696289,0.427734,0.746105,-0.719738,0.028321,-5.748019,-56.86451,51.824848,,,,,,,,,,,,,,,,,,,,,,,,,
1577348128,77,0,4329.743652,4400,4012.307617,4223.077148,4235.384766,450,4,,,,0,4,4,1,1,4,,,,,,,,,,,,,,,,,,,,,,,,,,,,,,,,,,,,,
1577348128,78,0,4350.256348,4387.179688,3988.205078,4197.94873,4251.282227,450,4,,,,0,4,4,1,1,4,39,0,0.561206,0.130127,0.696533,0.427734,0.732921,-0.703624,0.030762,-5.831186,-57.039963,51.846298,,,,,,,,,,,,,,,,,,,,,,,,,
1577348128,79,0,4327.179688,4384.615234,4063.076904,4133.846191,4234.871582,16095,4,,,,0,4,4,1,1,4,,,,,,,,,,,,,,,,,,,,,,,,,,,,,,,,,,,,,
1577348128,80,0,4223.077148,4358.974121,4131.794922,4193.846191,4177.436035,450,4,,,,0,4,4,1,1,4,40,0,0.561258,0.129395,0.696777,0.42749,0.743664,-0.685069,0.035645,-5.846221,-57.018425,51.745975,,,,,,,,,,,,,,,,,,,,,,,,,
1577348128,81,0,4254.358887,4404.615234,4108.205078,4278.974121,4192.307617,450,4,,,,0,4,4,1,1,4,,,,,,,,,,,,,4.975995,9.539041,8.264161,13.736318,4.626882,2.311144,2.228981,2.34167,7.400696,3.988893,12.120153,3.677883,13.627822,61.508812,16.79529,4.647502,2.954413,1.739716,12.490576,12.7933,4.180138,7.621268,7.86245,9.736409,1.228964
1577348128,82,0,4283.589844,4396.410156,4031.281982,4189.230957,4210.256348,450,4,,,,0,4,4,1,1,4,41,0,0.561426,0.128662,0.696777,0.42749,0.713878,-0.667491,0.041505,-5.799937,-56.879414,51.655685,,,,,,,,,,,,,,,,,,,,,,,,,
1577348128,83,0,4246.153809,4366.153809,4081.538574,4151.794922,4197.94873,16095,4,,,,0,4,4,1,1,4,,,,,,,,,,,,,,,,,,,,,,,,,,,,,,,,,,,,,
1577348128,84,0,4262.563965,4396.922852,4055.384521,4162.563965,4232.820313,450,4,,,,0,4,4,1,1,4,42,0,0.561408,0.12793,0.696777,0.427734,0.692393,-0.667002,0.037598,-5.758282,-56.873932,51.634235,,,,,,,,,,,,,,,,,,,,,,,,,
1577348128,85,0,4262.563965,4400,3955.897461,4191.282227,4250.769043,450,4,,,,0,4,4,1,1,4,,,,,,,,,,,,,,,,,,,,,,,,,,,,,,,,,,,,,
1577348128,86,0,4291.794922,4412.820313,4032.820557,4224.615234,4241.025879,450,4,,,,0,4,4,1,1,4,43,0,0.561574,0.127197,0.696777,0.427734,0.703136,-0.674327,0.043458,-5.780607,-56.868999,51.555119,,,,,,,,,,,,,,,,,,,,,,,,,
1577348128,87,0,4289.230957,4391.282227,4102.05127,4165.641113,4222.05127,16095,4,,,,0,4,4,1,1,4,,,,,,,,,,,,,,,,,,,,,,,,,,,,,,,,,,,,,
1577348128,88,0,4220.512695,4357.436035,4135.384766,4177.94873,4218.974121,450,4,,,,0,4,4,1,1,4,44,0,0.561801,0.126709,0.696533,0.427979,0.714855,-0.675303,0.014649,-5.681069,-56.804741,51.663361,,,,,,,,,,,,,,,,,,,,,,,,,
1577348128,89,0,4240.512695,4372.307617,4090.256348,4203.589844,4254.871582,450,4,,,,0,4,4,1,1,4,,,,,,,,,,,,,,,,,,,,,,,,,,,,,,,,,,,,,
1577348128,90,0,4276.410156,4358.461426,3956.410156,4186.666504,4270.256348,450,4,,,,0,4,4,1,1,4,45,0,0.561554,0.126465,0.696777,0.427979,0.724132,-0.664073,0.024903,-5.770932,-57.04599,51.581329,,,,,,,,,,,,,,,,,,,,,,,,,
1577348128,91,0,4280,4367.692383,3980.512939,4178.974121,4264.615234,16095,4,,,,0,4,4,1,1,4,,,,,,,,,,,,,,,,,,,,,,,,,,,,,,,,,,,,,
1577348128,92,0,4261.538574,4377.94873,4098.461426,4136.410156,4233.333496,450,4,,,,0,4,4,1,1,4,46,0,0.561422,0.126221,0.696777,0.428223,0.730968,-0.65919,0.026368,-5.791992,-57.263111,51.627132,,,,,,,,,,,,,,,,,,,,,,,,,
1577348128,93,0,4188.205078,4335.384766,4183.077148,4183.589844,4224.615234,450,4,,,,0,4,4,1,1,4,,,,,,,,,,,,,,,,,,,,,,,,,,,,,,,,,,,,,
1577348128,94,0,4176.410156,4325.641113,4107.179688,4230.769043,4265.128418,450,4,,,,0,4,4,1,1,4,47,0,0.561064,0.126465,0.697021,0.428223,0.731456,-0.668956,0.033692,-5.751131,-57.33889,51.847805,,,,,,,,,,,,,,,,,,,,,,,,,
1577348128,95,0,4250.769043,4370.769043,3950.769287,4183.077148,4297.436035,16095,4,,,,0,4,4,1,1,4,,,,,,,,,,,,,,,,,,,,,,,,,,,,,,,,,,,,,
1577348128,96,0,4313.846191,4408.717773,3986.666748,4140,4331.794922,450,4,,,,0,4,4,1,1,4,48,0,0.560574,0.126465,0.697266,0.428467,0.73341,-0.684092,0.032715,-5.774172,-57.28746,51.866959,,,,,,,,,,,,,,,,,,,,,,,,,
1577348128,97,0,4301.538574,4366.153809,4054.871826,4115.897461,4301.025879,450,4,,,,0,4,4,1,1,4,,,,,,,,,,,,,4.84832,8.295354,9.690948,12.477039,4.460284,2.639921,2.209063,2.85905,7.35913,3.850721,11.559474,2.738341,14.580422,59.138783,16.142023,6.11263,3.786743,1.882537,12.150518,13.029758,3.727884,6.610822,7.851741,9.392418,1.297505
1577348128,98,0,4244.102539,4312.820313,4067.179443,4193.846191,4246.153809,450,4,,,,0,4,4,1,1,4,49,0,0.560388,0.126465,0.697266,0.428711,0.718761,-0.67628,0.041993,-5.675277,-57.300991,51.884201,,,,,,,,,,,,,,,,,,,,,,,,,
1577348128,99,0,4234.358887,4342.563965,4096.410156,4246.153809,4254.871582,16095,4,,,,0,4,4,1,1,4,,,,,,,,,,,,,,,,,,,,,,,,,,,,,,,,,,,,,
1577348128,100,0,4250.256348,4374.871582,4074.871826,4175.384766,4258.461426,450,4,,,,0,4,4,1,1,4,50,0,0.560084,0.126465,0.69751,0.428711,0.734386,-0.683604,0.035645,-5.705904,-57.193535,51.839901,,,,,,,,,,,,,,,,,,,,,,,,,
1577348128,101,0,4271.282227,4381.025879,4078.974365,4144.102539,4307.692383,450,4,,,,0,4,4,1,1,4,,,,,,,,,,,,,,,,,,,,,,,,,,,,,,,,,,,,,
1577348128,102,0,4282.563965,4372.307617,4028.718018,4140.512695,4324.615234,450,4,,,,0,4,4,1,1,4,51,0,0.559835,0.126221,0.697754,0.428711,0.730968,-0.691417,0.040528,-5.613836,-57.156643,51.740219,,,,,,,,,,,,,,,,,,,,,,,,,
1577348128,103,0,4272.820313,4363.077148,3944.102539,4188.205078,4275.384766,16095,4,,,,0,4,4,1,1,4,,,,,,,,,,,,,,,,,,,,,,,,,,,,,,,,,,,,,
1577348128,104,0,4308.205078,4387.179688,4021.025635,4218.974121,4304.102539,450,4,,,,0,4,4,1,1,4,52,0,0.560388,0.126465,0.697266,0.428711,0.718761,-0.67628,0.041993,-5.530975,-57.183254,51.770134,,,,,,,,,,,,,,,,,,,,,,,,,
1577348128,105,0,4311.794922,4361.025879,4118.461426,4149.743652,4292.307617,450,4,,,,0,4,4,1,1,4,,,,,,,,,,,,,,,,,,,,,,,,,,,,,,,,,,,,,
1577348128,106,0,4292.820313,4340.512695,4142.05127,4162.563965,4287.692383,450,4,,,,0,4,4,1,1,4,53,0,0.559835,0.126221,0.697754,0.428711,0.730968,-0.691417,0.040528,-5.456401,-57.147388,51.677425,,,,,,,,,,,,,,,,,,,,,,,,,
1577348128,107,0,4334.358887,4404.615234,4052.307617,4203.589844,4354.358887,16095,4,,,,0,4,4,1,1,4,,,,,,,,,,,,,,,,,,,,,,,,,,,,,,,,,,,,,
1577348128,108,0,4355.897461,4442.05127,3952.307617,4204.615234,4345.128418,450,4,,,,0,4,4,1,1,4,54,0,0.559772,0.125977,0.697998,0.428467,0.72462,-0.684092,0.047364,-5.508914,-57.174923,51.653805,,,,,,,,,,,,,,,,,,,,,,,,,
1577348128,109,0,4392.307617,4418.461426,3995.897461,4183.077148,4341.025879,450,4,,,,0,4,4,1,1,4,,,,,,,,,,,,,,,,,,,,,,,,,,,,,,,,,,,,,
1577348128,110,0,4368.205078,4367.179688,4036.923096,4122.05127,4287.692383,450,4,,,,0,4,4,1,1,4,55,0,0.559827,0.125732,0.697998,0.428467,0.693858,-0.685557,0.029786,-5.615992,-57.199707,51.632545,,,,,,,,,,,,,,,,,,,,,,,,,
1577348128,111,0,4271.794922,4351.282227,4088.205078,4191.282227,4222.563965,16095,4,,,,0,4,4,1,1,4,,,,,,,,,,,,,,,,,,,,,,,,,,,,,,,,,,,,,
1577348128,112,0,4267.179688,4382.563965,4113.846191,4243.589844,4275.897461,450,4,,,,0,4,4,1,1,4,56,0,0.559882,0.125488,0.697998,0.428467,0.704601,-0.670909,0.044923,-5.712362,-57.281826,51.733044,,,,,,,,,,,,,,,,,,,,,,,,,
1577348128,113,0,4311.794922,4414.871582,4026.153809,4178.461426,4283.589844,450,4,,,,0,4,4,1,1,4,,,,,,,,,,,,,4.658828,7.197697,10.366221,11.797164,4.522738,3.159271,2.171666,3.138272,7.472133,3.788752,10.244771,2.446673,14.942047,59.19392,15.803024,7.104342,4.281997,1.944958,11.427929,13.879322,3.59937,5.622628,7.233715,9.685303,1.47241
1577348128,114,0,4372.307617,4448.205078,4000.512939,4155.897461,4284.102539,450,4,,,,0,4,4,1,1,4,57,0,0.559999,0.125488,0.697754,0.428711,0.706065,-0.669932,0.035157,-5.619648,-57.295918,51.703861,,,,,,,,,,,,,,,,,,,,,,,,,
1577348128,115,0,4361.025879,4413.333496,4034.358887,4138.974121,4272.307617,16095,4,,,,0,4,4,1,1,4,,,,,,,,,,,,,,,,,,,,,,,,,,,,,,,,,,,,,
1577348128,116,0,4287.179688,4371.282227,4109.230957,4210.256348,4214.358887,450,4,,,,0,4,4,1,1,4,58,0,0.559867,0.125244,0.697754,0.428955,0.738293,-0.661143,0.026856,-5.536207,-57.129154,51.797226,,,,,,,,,,,,,,,,,,,,,,,,,
1577348128,117,0,4301.025879,4409.230957,4123.077148,4270.256348,4246.666504,450,4,,,,0,4,4,1,1,4,,,,,,,,,,,,,,,,,,,,,,,,,,,,,,,,,,,,,
1577348128,118,0,4329.743652,4430.769043,4049.743652,4181.538574,4265.641113,450,4,,,,0,4,4,1,1,4,59,0,0.55943,0.125,0.697998,0.429199,0.744152,-0.664073,0.02295,-5.640555,-57.158516,51.941071,,,,,,,,,,,,,,,,,,,,,,,,,
1577348128,119,0,4378.461426,4448.717773,4052.307617,4133.333496,4261.025879,16095,4,,,,0,4,4,1,1,4,,,,,,,,,,,,,,,,,,,,,,,,,,,,,,,,,,,,,
1577348128,120,0,4370.769043,4416.410156,4002.564209,4146.153809,4271.282227,450,4,,,,0,4,4,1,1,4,60,0,0.559109,0.124756,0.697998,0.429688,0.731945,-0.682628,0.025879,-5.734468,-57.125122,52.010715,,,,,,,,,,,,,,,,,,,,,,,,,
1577348128,121,0,4289.230957,4372.307617,3970.769287,4222.563965,4236.410156,450,4,,,,0,4,4,1,1,4,,,,,,,,,,,,,,,,,,,,,,,,,,,,,,,,,,,,,
1577348128,122,0,4295.897461,4410.256348,4079.487061,4261.025879,4210.256348,450,4,,,,0,4,4,1,1,4,61,0,0.558734,0.124756,0.697998,0.430176,0.743664,-0.687022,0.029297,-5.639544,-56.975441,52.073399,,,,,,,,,,,,,,,,,,,,,,,,,
1577348128,123,0,4273.333496,4381.538574,4095.897461,4174.871582,4192.820313,16095,4,,,,0,4,4,1,1,4,,,,,,,,,,,,,,,,,,,,,,,,,,,,,,,,,,,,,
1577348128,124,0,4260.512695,4362.05127,4088.718018,4165.641113,4212.820313,450,4,,,,0,4,4,1,1,4,62,0,0.558546,0.124756,0.697998,0.43042,0.712902,-0.701183,0.042969,-5.613928,-56.900539,52.069996,,,,,,,,,,,,,,,,,,,,,,,,,
1577348128,125,0,4321.025879,4418.461426,4053.846191,4191.282227,4267.692383,450,4,,,,0,4,4,1,1,4,,,,,,,,,,,,,,,,,,,,,,,,,,,,,,,,,,,,,
1577348128,126,0,4320.512695,4423.589844,3972.820557,4210.769043,4255.897461,450,4,,,,0,4,4,1,1,4,63,0,0.558295,0.124512,0.698242,0.43042,0.735851,-0.700206,0.025879,-5.590874,-57.012577,52.007114,,,,,,,,,,,,,,,,,,,,,,,,,
1577348128,127,0,4329.743652,4423.077148,4014.871826,4216.922852,4242.563965,234,4,,,,0,4,4,1,1,4,,,,,,,,,,,,,,,,,,,,,,,,,,,,,,,,,,,,,
1577348128,0,0,4305.128418,4390.769043,4087.692383,4144.615234,4244.615234,450,4,,,,0,4,4,1,1,4,0,0,0.558044,0.124268,0.698486,0.43042,0.719738,-0.700694,0.027832,-5.62994,-57.173225,51.950527,,,,,,,,,,,,,,,,,,,,,,,,,
1577348128,1,0,4236.922852,4346.153809,4142.05127,4183.077148,4221.538574,450,4,,,,0,4,4,1,1,4,,,,,,,,,,,,,4.220845,6.585146,10.208633,11.777175,4.869243,3.573144,2.116932,3.167474,7.677802,3.79417,8.440841,2.650589,14.670462,61.579819,16.001001,7.272847,4.26918,1.915904,10.503324,14.966523,3.411518,5.02705,6.294064,10.617445,1.731111
1577348128,2,0,4270.256348,4362.05127,4106.153809,4234.358887,4233.846191,16120,4,,,,0,4,4,1,1,4,1,0,0.558169,0.124023,0.69873,0.429932,0.73048,-0.690929,0.041505,-5.724915,-57.198177,51.839779,,,,,,,,,,,,,,,,,,,,,,,,,
1577348128,3,0,4293.846191,4381.025879,3955.897461,4201.025879,4266.153809,450,4,,,,0,4,4,1,1,4,,,,,,,,,,,,,,,,,,,,,,,,,,,,,,,,,,,,,
1577348128,4,0,4298.461426,4418.461426,3957.94873,4181.538574,4294.871582,16228,4,,,,0,4,4,1,1,4,2,0,0.558051,0.124023,0.698975,0.429688,0.708019,-0.686534,0.042969,-5.750577,-57.16082,51.740108,,,,,,,,,,,,,,,,,,,,,,,,,
1577348128,5,0,4307.179688,4386.153809,4082.05127,4121.538574,4277.94873,450,4,,,,0,4,4,1,1,4,,,,,,,,,,,,,,,,,,,,,,,,,,,,,,,,,,,,,
1577348128,6,0,4229.230957,4304.615234,4181.025879,4166.153809,4225.641113,115,4,,,,0,4,4,1,1,4,3,0,0.558239,0.124023,0.698975,0.429443,0.703136,-0.663584,0.053223,-5.773673,-57.187012,51.710217,,,,,,,,,,,,,,,,,,,,,,,,,
1577348128,7,0,4202.563965,4356.922852,4109.743652,4248.717773,4244.615234,450,4,,,,0,4,4,1,1,4,,,,,,,,,,,,,,,,,,,,,,,,,,,,,,,,,,,,,
1577348128,8,0,4254.358887,4409.743652,3956.410156,4209.743652,4285.128418,450,4,,,,0,4,4,1,1,4,4,0,0.558239,0.124023,0.698975,0.429443,0.704601,-0.671885,0.046876,-5.91409,-57.090958,51.683319,,,,,,,,,,,,,,,,,,,,,,,,,
1577348128,9,0,4301.025879,4402.563965,4006.153809,4157.436035,4318.461426,63,4,,,,0,4,4,1,1,4,,,,,,,,,,,,,,,,,,,,,,,,,,,,,,,,,,,,,
1577348128,10,0,4311.794922,4385.128418,4076.923096,4114.358887,4318.461426,450,4,,,,0,4,4,1,1,4,5,0,0.558545,0.124023,0.69873,0.429443,0.717296,-0.666026,0.043458,-6.040466,-56.944691,51.718922,,,,,,,,,,,,,,,,,,,,,,,,,
1577348128,11,0,4267.179688,4354.358887,4037.435791,4172.307617,4281.538574,16082,4,,,,0,4,4,1,1,4,,,,,,,,,,,,,,,,,,,,,,,,,,,,,,,,,,,,,
1577348128,12,0,4275.384766,4369.743652,4069.743652,4243.589844,4287.179688,450,4,,,,0,4,4,1,1,4,6,0,0.558357,0.124023,0.69873,0.429688,0.738293,-0.675792,0.033204,-6.034573,-56.992496,51.810783,,,,,,,,,,,,,,,,,,,,,,,,,
1577348128,13,0,4297.436035,4359.487305,4116.410156,4190.256348,4287.179688,450,4,,,,0,4,4,1,1,4,,,,,,,,,,,,,,,,,,,,,,,,,,,,,,,,,,,,,
1577348128,14,0,4267.692383,4321.538574,4141.538574,4154.358887,4308.717773,450,4,,,,0,4,4,1,1,4,7,0,0.558169,0.124023,0.69873,0.429932,0.740246,-0.680186,0.026856,-5.969454,-56.975704,51.714012,,,,,,,,,,,,,,,,,,,,,,,,,
1577348128,15,0,4272.820313,4342.05127,4058.974365,4145.128418,4324.102539,16082,4,,,,0,4,4,1,1,4,,,,,,,,,,,,,,,,,,,,,,,,,,,,,,,,,,,,,
1577348128,16,0,4302.563965,4389.230957,3951.281982,4180.512695,4305.641113,0,4,,,,0,4,4,1,1,4,8,0,0.558098,0.124023,0.698486,0.43042,0.729015,-0.685557,0.037598,-5.910847,-57.080227,51.626915,,,,,,,,,,,,,,,,,,,,,,,,,
1577348128,17,0,4317.94873,4398.974121,4022.564209,4203.589844,4332.820313,0,4,,,,0,4,4,1,1,4,,,,,,,,,,,,,3.673855,6.745388,9.530501,12.295241,5.450305,3.797942,2.11012,3.04898,7.893424,3.834646,6.774546,3.235079,13.911582,65.578568,16.760849,6.565427,3.752992,1.808549,9.59306,15.861224,3.133744,5.060992,5.387303,11.967553,2.016625
1577348128,18,0,4288.205078,4353.846191,4114.871582,4133.846191,4305.641113,0,4,,,,0,4,4,1,1,4,9,0,0.557964,0.123779,0.698486,0.430664,0.729015,-0.675792,0.036622,-5.8581,-57.054665,51.727978,,,,,,,,,,,,,,,,,,,,,,,,,
1577348128,19,0,4265.128418,4333.846191,4146.153809,4144.102539,4281.538574,0,4,,,,0,4,4,1,1,4,,,,,,,,,,,,,,,,,,,,,,,,,,,,,,,,,,,,,
1577348128,20,0,4313.846191,4374.871582,4072.307617,4198.461426,4318.974121,0,4,,,,0,4,4,1,1,4,10,0,0.55747,0.123779,0.69873,0.430908,0.736828,-0.698253,0.029786,-5.631183,-57.270916,51.699299,,,,,,,,,,,,,,,,,,,,,,,,,
1577348128,21,1,4313.504395,4373.219238,4074.814697,4196.01123,4310.598145,0,4,,,,0,4,4,1,1,4,,,,,,,,,,,,,,,,,,,,,,,,,,,,,,,,,,,,,
1577348128,22,1,4313.162598,4371.566895,4077.322021,4193.561035,4302.222168,0,4,,,,0,4,4,1,1,4,11,1,0,0.123584,0.698828,0.430957,0.72716,-0.692589,0,0,0,0,,,,,,,,,,,,,,,,,,,,,,,,,
1577348128,23,1,4312.820313,4369.914551,4079.829102,4191.111328,4293.846191,0,4,,,,0,4,4,1,1,4,,,,,,,,,,,,,,,,,,,,,,,,,,,,,,,,,,,,,
1577348128,24,1,4312.478516,4368.262207,4082.336182,4188.661133,4285.470215,0,4,,,,0,4,4,1,1,4,12,1,0,0.123389,0.698926,0.431006,0.717491,-0.686925,0,0,0,0,,,,,,,,,,,,,,,,,,,,,,,,,
1577348128,25,1,4312.136719,4366.609863,4084.843262,4186.210938,4277.094238,0,4,,,,0,4,4,1,1,4,,,,,,,,,,,,,,,,,,,,,,,,,,,,,,,,,,,,,
1577348128,26,1,4311.794922,4364.957031,4087.350342,4183.760742,4268.717773,0,4,,,,0,4,4,1,1,4,13,1,0,0.123193,0.699023,0.431055,0.707823,-0.68126,0,0,0,0,,,,,,,,,,,,,,,,,,,,,,,,,
1577348128,27,1,4311.453125,4363.304688,4089.857666,4181.310547,4260.341797,0,4,,,,0,4,4,1,1,4,,,,,,,,,,,,,,,,,,,,,,,,,,,,,,,,,,,,,
1577348128,28,1,4311.111328,4361.652344,4092.364746,4178.860352,4251.96582,0,4,,,,0,4,4,1,1,4,14,1,0,0.122998,0.699121,0.431104,0.698155,-0.675596,0,0,0,0,,,,,,,,,,,,,,,,,,,,,,,,,
1577348128,29,0,4310.769043,4360,4094.871826,4176.410156,4243.589844,0,4,,,,0,4,4,1,1,4,,,,,,,,,,,,,,,,,,,,,,,,,,,,,,,,,,,,,
1577348128,30,0,4339.487305,4405.641113,4107.179688,4252.820313,4285.641113,0,4,,,,0,4,4,1,1,4,15,0,0.556884,0.122803,0.699219,0.431152,0.688487,-0.669932,0.045411,-5.606402,-57.286102,51.793121,,,,,,,,,,,,,,,,,,,,,,,,,
1577348128,31,0,4370.769043,4456.410156,4042.564209,4196.922852,4303.077148,0,4,,,,0,4,4,1,1,4,,,,,,,,,,,,,,,,,,,,,,,,,,,,,,,,,,,,,
1577348128,32,0,4393.846191,4452.820313,4067.692383,4171.282227,4283.589844,0,4,,,,0,4,4,1,1,4,16,0,0.556524,0.123047,0.699463,0.431152,0.708019,-0.681651,0.042481,-5.524285,-57.239952,51.877563,,,,,,,,,,,,,,,,,,,,,,,,,
1577348128,33,0,4396.922852,4427.179688,4036.923096,4163.589844,4304.102539,0,4,,,,0,4,4,1,1,4,,,,,,,,,,,,,3.178691,7.70722,8.917321,13.204333,6.131521,3.868823,2.170587,2.951015,8.077163,3.897961,5.630462,4.016419,12.882403,70.234772,17.891336,5.222417,2.915482,1.652312,8.805738,16.301727,2.927275,5.667877,4.801036,13.433836,2.252353
1577348128,34,0,4348.205078,4405.128418,3971.794922,4189.230957,4264.615234,0,4,,,,0,4,4,1,1,4,17,0,0.556884,0.122803,0.699219,0.431152,0.688487,-0.669932,0.045411,-5.510195,-57.258232,51.95356,,,,,,,,,,,,,,,,,,,,,,,,,
1577348128,35,0,4382.563965,4431.794922,4050.256348,4224.615234,4256.410156,0,4,,,,0,4,4,1,1,4,,,,,,,,,,,,,,,,,,,,,,,,,,,,,,,,,,,,,
1577348128,36,0,4359.487305,4391.282227,4091.281982,4170.256348,4244.102539,0,4,,,,0,4,4,1,1,4,18,0,0.557137,0.123047,0.698975,0.431152,0.695323,-0.683116,0.049805,-5.497514,-57.095238,52.141586,,,,,,,,,,,,,,,,,,,,,,,,,
1577348128,37,0,4281.025879,4356.410156,4119.487305,4189.230957,4204.102539,0,4,,,,0,4,4,1,1,4,,,,,,,,,,,,,,,,,,,,,,,,,,,,,,,,,,,,,
1577348128,38,0,4286.153809,4406.153809,4080,4208.205078,4237.94873,0,4,,,,0,4,4,1,1,4,19,0,0.557389,0.123291,0.69873,0.431152,0.73341,-0.685557,0.023926,-5.605731,-57.127987,52.250996,,,,,,,,,,,,,,,,,,,,,,,,,
1577348128,39,0,4311.794922,4431.794922,3954.871826,4178.461426,4265.641113,0,4,,,,0,4,4,1,1,4,,,,,,,,,,,,,,,,,,,,,,,,,,,,,,,,,,,,,
1577348128,40,0,4375.384766,4425.641113,3980,4185.641113,4277.436035,0,4,,,,0,4,4,1,1,4,20,0,0.557506,0.123291,0.698486,0.431396,0.750988,-0.666514,0.025391,-5.703127,-57.037834,52.289646,,,,,,,,,,,,,,,,,,,,,,,,,
1577348128,41,0,4349.230957,4371.282227,4072.307617,4162.563965,4275.897461,0,4,,,,0,4,4,1,1,4,,,,,,,,,,,,,,,,,,,,,,,,,,,,,,,,,,,,,
1577348128,42,0,4271.794922,4369.230957,4138.461426,4213.333496,4243.077148,0,4,,,,0,4,4,1,1,4,21,0,0.557452,0.123535,0.698486,0.431396,0.746593,-0.680674,0.023926,-5.730968,-57.076324,52.204803,,,,,,,,,,,,,,,,,,,,,,,,,
1577348128,43,0,4309.743652,4423.589844,4117.94873,4252.820313,4247.692383,0,4,,,,0,4,4,1,1,4,,,,,,,,,,,,,,,,,,,,,,,,,,,,,,,,,,,,,
1577348128,44,0,4314.358887,4402.563965,3975.384521,4193.333496,4264.615234,0,4,,,,0,4,4,1,1,4,22,0,0.556903,0.123779,0.69873,0.431641,0.741711,-0.695323,0.029786,-5.69621,-57.11097,52.188259,,,,,,,,,,,,,,,,,,,,,,,,,
1577348128,45,0,4309.743652,4406.153809,3954.871826,4154.358887,4255.384766,0,4,,,,0,4,4,1,1,4,,,,,,,,,,,,,,,,,,,,,,,,,,,,,,,,,,,,,
1577348128,46,0,4304.102539,4393.846191,4072.820557,4132.820313,4214.871582,0,4,,,,0,4,4,1,1,4,23,0,0.556957,0.123535,0.69873,0.431641,0.731945,-0.690929,0.025879,-5.605112,-57.142147,52.352818,,,,,,,,,,,,,,,,,,,,,,,,,
1577348128,47,0,4216.922852,4324.615234,4172.307617,4221.538574,4179.487305,0,4,,,,0,4,4,1,1,4,,,,,,,,,,,,,,,,,,,,,,,,,,,,,,,,,,,,,
1577348128,48,0,4213.333496,4330.256348,4126.666504,4274.871582,4208.717773,0,4,,,,0,4,4,1,1,4,24,0,0.556957,0.123535,0.69873,0.431641,0.721202,-0.715831,0.031739,-5.642754,-57.230022,52.381287,,,,,,,,,,,,,,,,,,,,,,,,,
1577348128,49,0,4257.436035,4340.512695,4015.897461,4173.333496,4245.128418,0,4,,,,0,4,4,1,1,4,,,,,,,,,,,,,2.825622,9.080382,8.884674,14.417109,6.723094,3.842012,2.28873,3.044538,8.267742,3.994397,5.011307,4.75874,11.827047,74.680138,19.095888,3.660533,2.031027,1.485817,8.185008,16.353495,2.861457,6.452384,4.6489,14.729624,2.36913
1577348128,50,0,4255.897461,4358.461426,4055.384521,4133.846191,4271.282227,0,4,,,,0,4,4,1,1,4,25,0,0.557137,0.123047,0.698975,0.431152,0.732921,-0.692882,0.03711,-5.616817,-57.249294,52.287281,,,,,,,,,,,,,,,,,,,,,,,,,
1577348128,51,0,4278.974121,4404.102539,4043.589844,4146.666504,4295.384766,0,4,,,,0,4,4,1,1,4,,,,,,,,,,,,,,,,,,,,,,,,,,,,,,,,,,,,,
1577348128,52,0,4290.256348,4395.384766,3967.692383,4207.179688,4288.205078,0,4,,,,0,4,4,1,1,4,26,0,0.557073,0.122803,0.699219,0.430908,0.73341,-0.694835,0.034668,-5.653289,-57.027378,52.262489,,,,,,,,,,,,,,,,,,,,,,,,,
1577348128,53,0,4295.384766,4383.077148,4060,4238.974121,4277.94873,0,4,,,,0,4,4,1,1,4,,,,,,,,,,,,,,,,,,,,,,,,,,,,,,,,,,,,,
1577348128,54,0,4276.410156,4346.153809,4135.897461,4158.461426,4258.974121,0,4,,,,0,4,4,1,1,4,27,0,0.557316,0.122559,0.699219,0.430664,0.709972,-0.669932,0.030762,-5.745929,-57.066917,52.120548,,,,,,,,,,,,,,,,,,,,,,,,,
1577348128,55,0,4218.974121,4313.846191,4146.666504,4152.307617,4273.333496,0,4,,,,0,4,4,1,1,4,,,,,,,,,,,,,,,,,,,,,,,,,,,,,,,,,,,,,
1577348128,56,0,4223.589844,4354.871582,4077.435791,4170.256348,4298.461426,0,4,,,,0,4,4,1,1,4,28,0,0.557558,0.122314,0.699219,0.43042,0.703624,-0.675303,0.031739,-5.76949,-57.042686,52.052612,,,,,,,,,,,,,,,,,,,,,,,,,
1577348128,57,0,4275.384766,4367.179688,3963.589844,4180.512695,4286.666504,0,4,,,,0,4,4,1,1,4,,,,,,,,,,,,,,,,,,,,,,,,,,,,,,,,,,,,,
1577348128,58,0,4315.897461,4345.128418,4000.512939,4187.179688,4309.230957,0,4,,,,0,4,4,1,1,4,29,0,0.557558,0.122314,0.699219,0.43042,0.717296,-0.666026,0.039063,-5.790695,-56.841431,52.051289,,,,,,,,,,,,,,,,,,,,,,,,,
1577348128,59,0,4285.128418,4340.512695,4102.563965,4120.512695,4283.077148,0,4,,,,0,4,4,1,1,4,,,,,,,,,,,,,,,,,,,,,,,,,,,,,,,,,,,,,
1577348128,60,0,4215.897461,4352.820313,4189.230957,4145.128418,4246.153809,0,4,,,,0,4,4,1,1,4,30,0,0.557612,0.12207,0.699219,0.43042,0.739757,-0.65919,0.024414,-5.749963,-56.899563,51.930466,,,,,,,,,,,,,,,,,,,,,,,,,
1577348128,61,0,4241.538574,4355.384766,4107.692383,4199.487305,4284.102539,0,4,,,,0,4,4,1,1,4,,,,,,,,,,,,,,,,,,,,,,,,,,,,,,,,,,,,,
1577348128,62,0,4307.692383,4360.512695,3917.435791,4174.871582,4320,0,4,,,,0,4,4,1,1,4,31,0,0.557729,0.12207,0.698975,0.430664,0.746593,-0.663584,0.023926,-5.65349,-56.832249,51.881542,,,,,,,,,,,,,,,,,,,,,,,,,
1577348128,63,0,4357.94873,4411.794922,3942.564209,4139.487305,4373.846191,0,4,,,,0,4,4,1,1,4,,,,,,,,,,,,,,,,,,,,,,,,,,,,,,,,,,,,,
1577348128,64,0,4367.692383,4412.307617,4028.718018,4114.358887,4344.615234,450,4,,,,0,4,4,1,1,4,32,0,0.557288,0.121826,0.699219,0.430908,0.745617,-0.664561,0.026368,-5.686295,-56.8913,51.777695,,,,,,,,,,,,,,,,,,,,,,,,,
1577348128,65,0,4322.563965,4348.717773,4083.589844,4201.538574,4274.358887,450,4,,,,0,4,4,1,1,4,,,,,,,,,,,,,2.688569,10.344773,9.583395,15.783695,7.061806,3.750167,2.507268,3.423665,8.539308,4.156897,4.685481,5.2163,10.890715,78.210327,20.073572,2.306745,1.33356,1.339151,7.711814,16.221064,2.933884,6.978955,4.904006,15.610574,2.338783
1577348128,66,0,4302.05127,4351.282227,4120,4263.077148,4301.025879,16135,4,,,,0,4,4,1,1,4,33,0,0.557016,0.121338,0.699219,0.431396,0.73341,-0.677256,0.025391,-5.656003,-56.944447,51.684231,,,,,,,,,,,,,,,,,,,,,,,,,
1577348128,67,0,4318.461426,4402.05127,4050.769287,4179.487305,4311.794922,450,4,,,,0,4,4,1,1,4,,,,,,,,,,,,,,,,,,,,,,,,,,,,,,,,,,,,,
1577348128,68,0,4359.487305,4429.743652,4017.435791,4122.563965,4338.974121,16185,4,,,,0,4,4,1,1,4,34,0,0.556384,0.121094,0.699463,0.431885,0.736339,-0.676768,0.013672,-5.628741,-56.932461,51.719742,,,,,,,,,,,,,,,,,,,,,,,,,
1577348128,69,0,4341.025879,4390.256348,4011.281982,4128.717773,4327.692383,450,4,,,,0,4,4,1,1,4,,,,,,,,,,,,,,,,,,,,,,,,,,,,,,,,,,,,,
1577348129,70,0,4284.615234,4355.897461,4041.025635,4207.692383,4267.692383,125,4,,,,0,4,4,1,1,4,35,0,0.556183,0.120605,0.699707,0.431885,0.732433,-0.693858,0.035157,-5.604206,-56.981491,51.691891,,,,,,,,,,,,,,,,,,,,,,,,,
1577348129,71,0,4321.538574,4402.05127,4074.871826,4244.102539,4303.077148,450,4,,,,0,4,4,1,1,4,,,,,,,,,,,,,,,,,,,,,,,,,,,,,,,,,,,,,
1577348129,72,0,4332.307617,4408.205078,4037.435791,4171.282227,4288.717773,450,4,,,,0,4,4,1,1,4,36,0,0.555432,0.120361,0.700195,0.432129,0.740734,-0.695811,0.039551,-5.641939,-57.08543,51.786453,,,,,,,,,,,,,,,,,,,,,,,,,
1577348129,73,0,4313.333496,4375.384766,4062.564209,4170.256348,4281.538574,75,4,,,,0,4,4,1,1,4,,,,,,,,,,,,,,,,,,,,,,,,,,,,,,,,,,,,,
1577348129,74,0,4332.820313,4378.974121,4065.128174,4178.974121,4329.743652,450,4,,,,0,4,4,1,1,4,37,0,0.555367,0.120117,0.700439,0.431885,0.735851,-0.687999,0.035645,-5.735714,-57.119164,51.871559,,,,,,,,,,,,,,,,,,,,,,,,,
1577348129,75,0,4350.769043,4421.538574,4005.641113,4191.282227,4293.333496,16089,4,,,,0,4,4,1,1,4,,,,,,,,,,,,,,,,,,,,,,,,,,,,,,,,,,,,,
1577348129,76,0,4404.102539,4474.871582,4028.205078,4215.897461,4297.436035,450,4,,,,0,4,4,1,1,4,38,0,0.555111,0.119873,0.700684,0.431885,0.70753,-0.671885,0.048341,-5.700481,-57.149521,51.768711,,,,,,,,,,,,,,,,,,,,,,,,,
1577348129,77,0,4370.256348,4418.974121,4045.641113,4161.025879,4283.077148,450,4,,,,0,4,4,1,1,4,,,,,,,,,,,,,,,,,,,,,,,,,,,,,,,,,,,,,
1577348129,78,0,4303.077148,4356.922852,4099.487305,4192.307617,4227.179688,450,4,,,,0,4,4,1,1,4,39,0,0.554856,0.119629,0.700928,0.431885,0.71632,-0.676768,0.047852,-5.728586,-57.176846,51.855591,,,,,,,,,,,,,,,,,,,,,,,,,
1577348129,79,0,4334.871582,4395.384766,4103.077148,4230.769043,4261.025879,16089,4,,,,0,4,4,1,1,4,,,,,,,,,,,,,,,,,,,,,,,,,,,,,,,,,,,,,
1577348129,80,0,4346.666504,4430.769043,3984.102539,4195.897461,4260.512695,450,4,,,,0,4,4,1,1,4,40,0,0.554908,0.119385,0.700928,0.431885,0.717784,-0.671885,0.041993,-5.813697,-57.26125,51.87397,,,,,,,,,,,,,,,,,,,,,,,,,
1577348129,81,0,4382.563965,4446.666504,3984.102539,4180,4252.307617,450,4,,,,0,4,4,1,1,4,,,,,,,,,,,,,2.903204,11.058927,10.879141,17.001896,7.065711,3.643472,2.904714,4.090555,8.936749,4.389227,4.453735,5.210114,10.141637,80.290649,20.636486,1.398107,0.921381,1.238757,7.354659,16.098541,3.133517,7.044689,5.544793,15.891656,2.183974
1577348129,82,0,4353.846191,4389.743652,4063.076904,4128.205078,4247.692383,450,4,,,,0,4,4,1,1,4,41,0,0.555216,0.119385,0.700684,0.431885,0.717784,-0.670909,0.045899,-5.71085,-57.277401,51.830692,,,,,,,,,,,,,,,,,,,,,,,,,
1577348129,83,0,4253.846191,4354.358887,4122.563965,4178.974121,4183.077148,16089,4,,,,0,4,4,1,1,4,,,,,,,,,,,,,,,,,,,,,,,,,,,,,,,,,,,,,
1577348129,84,0,4278.461426,4420,4110.769043,4249.230957,4193.846191,450,4,,,,0,4,4,1,1,4,42,0,0.555079,0.119141,0.700684,0.432129,0.728527,-0.657725,0.051759,-5.678103,-57.291935,51.851563,,,,,,,,,,,,,,,,,,,,,,,,,
1577348129,85,0,4313.333496,4397.436035,4011.281982,4193.846191,4247.179688,450,4,,,,0,4,4,1,1,4,,,,,,,,,,,,,,,,,,,,,,,,,,,,,,,,,,,,,
1577348129,86,0,4338.974121,4368.717773,4001.025635,4156.410156,4269.743652,450,4,,,,0,4,4,1,1,4,43,0,0.554751,0.118896,0.700684,0.432617,0.724132,-0.669444,0.04004,-5.708447,-57.305016,51.870342,,,,,,,,,,,,,,,,,,,,,,,,,
1577348129,87,0,4333.333496,4395.897461,4040,4133.333496,4270.769043,16089,4,,,,0,4,4,1,1,4,,,,,,,,,,,,,,,,,,,,,,,,,,,,,,,,,,,,,
1577348129,88,0,4272.307617,4388.205078,4060.512939,4203.589844,4244.615234,450,4,,,,0,4,4,1,1,4,44,0,0.554422,0.118652,0.700684,0.433105,0.740734,-0.685069,0.045899,-5.67594,-57.197159,51.827431,,,,,,,,,,,,,,,,,,,,,,,,,
1577348129,89,0,4303.589844,4398.974121,4086.666748,4265.128418,4238.461426,450,4,,,,0,4,4,1,1,4,,,,,,,,,,,,,,,,,,,,,,,,,,,,,,,,,,,,,
1577348129,90,0,4314.358887,4386.153809,4068.718018,4170.769043,4247.692383,450,4,,,,0,4,4,1,1,4,45,0,0.555079,0.119141,0.700684,0.432129,0.728527,-0.657725,0.051759,-5.7065,-57.159904,51.90844,,,,,,,,,,,,,,,,,,,,,,,,,
1577348129,91,0,4283.589844,4380,4095.384521,4138.974121,4268.205078,16089,4,,,,0,4,4,1,1,4,,,,,,,,,,,,,,,,,,,,,,,,,,,,,,,,,,,,,
1577348129,92,0,4302.563965,4397.436035,4047.692383,4165.641113,4279.487305,450,4,,,,0,4,4,1,1,4,46,0,0.554422,0.118652,0.700684,0.433105,0.740734,-0.685069,0.045899,-5.674188,-57.066559,51.861717,,,,,,,,,,,,,,,,,,,,,,,,,
1577348129,93,0,4280.512695,4377.436035,3958.461426,4208.205078,4259.487305,450,4,,,,0,4,4,1,1,4,,,,,,,,,,,,,,,,,,,,,,,,,,,,,,,,,,,,,
1577348129,94,0,4273.333496,4366.153809,4027.692383,4227.692383,4260.512695,450,4,,,,0,4,4,1,1,4,47,0,0.553975,0.118408,0.700928,0.43335,0.73341,-0.683604,0.037598,-5.645108,-57.161991,51.75985,,,,,,,,,,,,,,,,,,,,,,,,,
1577348129,95,0,4272.820313,4345.641113,4100,4152.820313,4265.641113,16089,4,,,,0,4,4,1,1,4,,,,,,,,,,,,,,,,,,,,,,,,,,,,,,,,,,,,,
1577348129,96,0,4216.922852,4340,4131.282227,4155.384766,4265.128418,450,4,,,,0,4,4,1,1,4,48,0,0.553836,0.118164,0.700928,0.433594,0.718761,-0.689464,0.043946,-5.738566,-57.068439,51.907433,,,,,,,,,,,,,,,,,,,,,,,,,
1577348129,97,0,4228.205078,4358.974121,4080,4191.282227,4276.410156,450,4,,,,0,4,4,1,1,4,,,,,,,,,,,,,3.561801,11.218852,12.414595,17.7798,6.792047,3.534217,3.554877,4.956168,9.449927,4.659533,4.345881,4.763387,9.599072,81.024315,20.806202,0.932471,0.737229,1.196173,7.135914,16.071844,3.483764,6.843786,6.548422,15.52452,1.970412
1577348129,98,0,4296.922852,4367.179688,3962.564209,4196.410156,4291.794922,450,4,,,,0,4,4,1,1,4,49,0,0.553579,0.11792,0.701172,0.433594,0.721202,-0.692393,0.049317,-5.703048,-57.10387,51.920628,,,,,,,,,,,,,,,,,,,,,,,,,
1577348129,99,0,4340.512695,4410.256348,4001.025635,4182.05127,4324.102539,16089,4,,,,0,4,4,1,1,4,,,,,,,,,,,,,,,,,,,,,,,,,,,,,,,,,,,,,
1577348129,100,0,4314.871582,4387.179688,4100.512695,4121.025879,4301.538574,450,4,,,,0,4,4,1,1,4,50,0,0.55377,0.11792,0.701172,0.43335,0.712413,-0.687999,0.048829,-5.671081,-57.195572,51.81287,,,,,,,,,,,,,,,,,,,,,,,,,
1577348129,101,0,4242.563965,4310.256348,4192.307617,4165.641113,4284.102539,450,4,,,,0,4,4,1,1,4,,,,,,,,,,,,,,,,,,,,,,,,,,,,,,,,,,,,,
1577348129,102,0,4254.358887,4341.025879,4122.05127,4232.820313,4334.358887,450,4,,,,0,4,4,1,1,4,51,0,0.553652,0.11792,0.701416,0.433105,0.721202,-0.692882,0.046387,-5.582496,-57.038845,51.835522,,,,,,,,,,,,,,,,,,,,,,,,,
1577348129,103,0,4313.846191,4396.922852,3924.615479,4207.692383,4338.461426,16089,4,,,,0,4,4,1,1,4,,,,,,,,,,,,,,,,,,,,,,,,,,,,,,,,,,,,,
1577348129,104,0,4352.307617,4396.410156,3958.974365,4153.333496,4359.487305,450,4,,,,0,4,4,1,1,4,52,0,0.553894,0.117676,0.701416,0.432861,0.720226,-0.680674,0.038087,-5.502769,-57.017418,51.915722,,,,,,,,,,,,,,,,,,,,,,,,,
1577348129,105,0,4340,4353.333496,4071.794922,4091.281982,4351.282227,450,4,,,,0,4,4,1,1,4,,,,,,,,,,,,,,,,,,,,,,,,,,,,,,,,,,,,,
1577348129,106,0,4274.871582,4306.666504,4109.230957,4174.871582,4273.846191,450,4,,,,0,4,4,1,1,4,53,0,0.554085,0.117676,0.701416,0.432617,0.721202,-0.668467,0.039551,-5.431015,-57.057953,51.9879,,,,,,,,,,,,,,,,,,,,,,,,,
1577348129,107,0,4281.025879,4338.974121,4102.05127,4253.333496,4269.230957,16089,4,,,,0,4,4,1,1,4,,,,,,,,,,,,,,,,,,,,,,,,,,,,,,,,,,,,,
1577348129,108,0,4316.410156,4376.922852,4020.512939,4165.128418,4287.179688,450,4,,,,0,4,4,1,1,4,54,0,0.554137,0.117432,0.701416,0.432617,0.725109,-0.658213,0.041505,-5.426252,-57.094433,51.873417,,,,,,,,,,,,,,,,,,,,,,,,,
1577348129,109,1,4331.225098,4385.925781,4020.056885,4168.147949,4293.732422,450,4,,,,0,4,4,1,1,4,,,,,,,,,,,,,,,,,,,,,,,,,,,,,,,,,,,,,
1577348129,110,1,4346.040039,4394.928711,4019.601074,4171.167969,4300.284668,450,4,,,,0,4,4,1,1,4,55,1,0,0.117334,0.701416,0.432764,0.725402,-0.663291,0,0,0,0,,,,,,,,,,,,,,,,,,,,,,,,,
1577348129,111,1,4360.854492,4403.931641,4019.145264,4174.187988,4306.837402,450,4,,,,0,4,4,1,1,4,,,,,,,,,,,,,,,,,,,,,,,,,,,,,,,,,,,,,
1577348129,112,1,4375.669434,4412.93457,4018.689453,4177.208008,4313.390137,450,4,,,,0,4,4,1,1,4,56,1,0,0.117236,0.701416,0.43291,0.725695,-0.66837,0,0,0,0,,,,,,,,,,,,,,,,,,,,,,,,,
1577348129,113,1,4390.484375,4421.9375,4018.233643,4180.228027,4319.942871,450,4,,,,0,4,4,1,1,4,,,,,,,,,,,,,4.530282,11.068999,13.593958,17.9461,6.404479,3.410591,4.41431,5.806298,9.973342,4.933372,4.433236,4.062697,9.205269,80.948364,20.764429,0.784142,0.671161,1.19749,7.060976,16.116737,4.042366,6.668479,7.702918,14.633401,1.783102
1577348129,114,1,4405.299316,4430.939941,4017.777832,4183.248047,4326.495605,450,4,,,,0,4,4,1,1,4,57,1,0,0.117139,0.701416,0.433057,0.725988,-0.673448,0,0,0,0,,,,,,,,,,,,,,,,,,,,,,,,,
1577348129,115,1,4420.11377,4439.942871,4017.322021,4186.267578,4333.04834,450,4,,,,0,4,4,1,1,4,,,,,,,,,,,,,,,,,,,,,,,,,,,,,,,,,,,,,
1577348129,116,1,4434.928711,4448.945801,4016.866211,4189.287598,4339.601074,450,4,,,,0,4,4,1,1,4,58,1,0,0.117041,0.701416,0.433203,0.726281,-0.678526,0,0,0,0,,,,,,,,,,,,,,,,,,,,,,,,,
1577348129,117,0,4449.743652,4457.94873,4016.410156,4192.307617,4346.153809,450,4,,,,0,4,4,1,1,4,,,,,,,,,,,,,,,,,,,,,,,,,,,,,,,,,,,,,
1577348129,118,0,4401.025879,4383.589844,4046.153809,4148.205078,4304.102539,450,4,,,,0,4,4,1,1,4,59,0,0.553668,0.116943,0.701416,0.43335,0.726574,-0.683604,0.033692,-5.421965,-57.18708,51.949825,,,,,,,,,,,,,,,,,,,,,,,,,
1577348129,119,0,4309.230957,4351.282227,4082.05127,4213.846191,4246.153809,16089,4,,,,0,4,4,1,1,4,,,,,,,,,,,,,,,,,,,,,,,,,,,,,,,,,,,,,
1577348129,120,0,4322.563965,4410.256348,4116.410156,4252.307617,4283.589844,450,4,,,,0,4,4,1,1,4,60,0,0.553307,0.117188,0.70166,0.43335,0.737804,-0.681651,0.035157,-5.597553,-57.150833,51.898964,,,,,,,,,,,,,,,,,,,,,,,,,
1577348129,121,0,4343.589844,4427.692383,4043.076904,4188.205078,4279.487305,450,4,,,,0,4,4,1,1,4,,,,,,,,,,,,,,,,,,,,,,,,,,,,,,,,,,,,,
1577348129,122,0,4391.282227,4446.153809,4009.230713,4157.94873,4277.436035,450,4,,,,0,4,4,1,1,4,61,0,0.553115,0.117188,0.70166,0.433594,0.71339,-0.699718,0.039063,-5.576136,-57.11821,51.97282,,,,,,,,,,,,,,,,,,,,,,,,,
1577348129,123,0,4378.974121,4418.974121,4029.743652,4127.179688,4263.077148,16089,4,,,,0,4,4,1,1,4,,,,,,,,,,,,,,,,,,,,,,,,,,,,,,,,,,,,,
1577348129,124,0,4294.358887,4368.205078,4104.615234,4194.871582,4201.025879,450,4,,,,0,4,4,1,1,4,62,0,0.553167,0.116943,0.70166,0.433594,0.720226,-0.691905,0.0542,-5.497046,-57.088848,51.919662,,,,,,,,,,,,,,,,,,,,,,,,,
1577348129,125,0,4321.538574,4388.717773,4118.461426,4268.717773,4232.820313,450,4,,,,0,4,4,1,1,4,,,,,,,,,,,,,,,,,,,,,,,,,,,,,,,,,,,,,
1577348129,126,0,4365.641113,4382.05127,4046.153809,4203.589844,4264.102539,450,4,,,,0,4,4,1,1,4,63,0,0.553528,0.116699,0.701416,0.433594,0.730968,-0.672374,0.047852,-5.60531,-57.122238,51.812,,,,,,,,,,,,,,,,,,,,,,,,,
1577348129,127,0,4400.512695,4409.743652,4059.487061,4167.179688,4264.102539,234,4,,,,0,4,4,1,1,4,,,,,,,,,,,,,,,,,,,,,,,,,,,,,,,,,,,,,
1577348129,0,0,4390.769043,4439.487305,4000,4143.077148,4282.05127,450,4,,,,0,4,4,1,1,4,0,0,0.55358,0.116455,0.701416,0.433594,0.724132,-0.692882,0.041505,-5.642932,-57.092472,51.655293,,,,,,,,,,,,,,,,,,,,,,,,,
1577348129,1,0,4318.974121,4406.153809,3949.230713,4186.666504,4252.307617,450,4,,,,0,4,4,1,1,4,,,,,,,,,,,,,5.441781,11.030749,13.957232,17.507254,6.09046,3.27483,5.356191,6.396425,10.327844,5.188944,4.636523,3.393898,8.995691,80.52607,20.669176,0.811007,0.652257,1.212902,7.145238,16.173042,4.798738,6.768693,8.683257,13.450085,1.676082
1577348129,2,0,4357.94873,4437.94873,4080,4252.307617,4242.05127,16093,4,,,,0,4,4,1,1,4,1,0,0.553564,0.115967,0.70166,0.43335,0.719738,-0.664561,0.050782,-5.616978,-57.065685,51.693699,,,,,,,,,,,,,,,,,,,,,,,,,
1577348129,3,0,4360,4430.256348,4109.230957,4188.717773,4240,450,4,,,,0,4,4,1,1,4,,,,,,,,,,,,,,,,,,,,,,,,,,,,,,,,,,,,,
1577348129,4,0,4308.205078,4369.743652,4091.281982,4171.794922,4234.358887,16210,4,,,,0,4,4,1,1,4,2,0,0.553975,0.115479,0.701416,0.43335,0.722667,-0.67042,0.029297,-5.653433,-57.101391,51.668449,,,,,,,,,,,,,,,,,,,,,,,,,
1577348129,5,0,4332.820313,4370.769043,4054.871826,4177.94873,4277.436035,450,4,,,,0,4,4,1,1,4,,,,,,,,,,,,,,,,,,,,,,,,,,,,,,,,,,,,,
1577348129,6,0,4326.153809,4381.538574,3971.794922,4186.153809,4293.333496,108,4,,,,0,4,4,1,1,4,3,0,0.553615,0.115723,0.70166,0.43335,0.711925,-0.665049,0.02295,-5.566613,-57.013897,51.585911,,,,,,,,,,,,,,,,,,,,,,,,,
1577348129,7,0,4340,4410.256348,4009.743652,4204.615234,4289.230957,450,4,,,,0,4,4,1,1,4,,,,,,,,,,,,,,,,,,,,,,,,,,,,,,,,,,,,,
1577348129,8,0,4336.410156,4387.179688,4090.256348,4145.641113,4266.666504,450,4,,,,0,4,4,1,1,4,4,0,0.553873,0.115967,0.701416,0.43335,0.717296,-0.665049,0.034668,-5.54829,-56.994968,51.571442,,,,,,,,,,,,,,,,,,,,,,,,,
1577348129,9,0,4254.871582,4334.871582,4151.794922,4180.512695,4227.179688,49,4,,,,0,4,4,1,1,4,,,,,,,,,,,,,,,,,,,,,,,,,,,,,,,,,,,,,
1577348129,10,0,4249.230957,4355.897461,4111.282227,4221.025879,4237.436035,450,4,,,,0,4,4,1,1,4,5,0,0.553631,0.116211,0.701416,0.433594,0.729015,-0.666514,0.048341,-5.591615,-57.097561,51.678051,,,,,,,,,,,,,,,,,,,,,,,,,
1577348129,11,0,4275.897461,4382.563965,3956.410156,4182.05127,4272.307617,16153,4,,,,0,4,4,1,1,4,,,,,,,,,,,,,,,,,,,,,,,,,,,,,,,,,,,,,
1577348129,12,0,4280.512695,4386.666504,3960.512939,4157.436035,4283.589844,450,4,,,,0,4,4,1,1,4,6,0,0.55358,0.116455,0.701416,0.433594,0.725109,-0.667491,0.050294,-5.690422,-57.010448,51.654366,,,,,,,,,,,,,,,,,,,,,,,,,
1577348129,13,0,4274.871582,4336.410156,4096.922852,4114.871582,4250.256348,450,4,,,,0,4,4,1,1,4,,,,,,,,,,,,,,,,,,,,,,,,,,,,,,,,,,,,,
1577348129,14,0,4227.692383,4300.512695,4195.897461,4174.871582,4232.820313,450,4,,,,0,4,4,1,1,4,7,0,0.553337,0.116699,0.701416,0.433838,0.732921,-0.682139,0.043946,-5.779349,-57.051682,51.633053,,,,,,,,,,,,,,,,,,,,,,,,,
1577348129,15,0,4218.974121,4363.077148,4112.820313,4242.563965,4251.282227,16153,4,,,,0,4,4,1,1,4,,,,,,,,,,,,,,,,,,,,,,,,,,,,,,,,,,,,,
1577348129,16,0,4255.384766,4397.94873,3962.564209,4185.641113,4255.897461,0,4,,,,0,4,4,1,1,4,8,0,0.553212,0.116943,0.701172,0.434326,0.729503,-0.701671,0.035157,-5.739752,-57.028973,51.613869,,,,,,,,,,,,,,,,,,,,,,,,,
1577348129,17,0,4282.563965,4374.358887,4013.333252,4134.358887,4303.589844,0,4,,,,0,4,4,1,1,4,,,,,,,,,,,,,6.024711,11.470399,13.360901,16.704981,5.990658,3.170335,6.194785,6.54912,10.397385,5.427134,4.848341,2.952598,8.887682,80.053139,20.63195,0.929162,0.671502,1.2021,7.41469,16.21892,5.559311,7.350722,9.213484,12.247635,1.666894
1577348129,18,0,4285.128418,4349.743652,4079.487061,4114.871582,4318.461426,0,4,,,,0,4,4,1,1,4,9,0,0.55358,0.116455,0.701416,0.433594,0.725109,-0.667491,0.050294,-5.704115,-57.128166,51.536785,,,,,,,,,,,,,,,,,,,,,,,,,
1577348129,19,0,4262.05127,4343.077148,4043.589844,4185.128418,4272.307617,0,4,,,,0,4,4,1,1,4,,,,,,,,,,,,,,,,,,,,,,,,,,,,,,,,,,,,,
1577348129,20,0,4267.179688,4360.512695,4092.307617,4236.922852,4268.205078,0,4,,,,0,4,4,1,1,4,10,0,0.553212,0.116943,0.701172,0.434326,0.729503,-0.701671,0.035157,-5.672042,-57.097809,51.527229,,,,,,,,,,,,,,,,,,,,,,,,,
1577348129,21,0,4270.256348,4350.769043,4127.692383,4161.538574,4261.025879,0,4,,,,0,4,4,1,1,4,,,,,,,,,,,,,,,,,,,,,,,,,,,,,,,,,,,,,
1577348129,22,0,4272.307617,4342.563965,4124.102539,4122.563965,4302.563965,0,4,,,,0,4,4,1,1,4,11,0,0.553212,0.116943,0.701172,0.434326,0.734386,-0.709484,0.033692,-5.643176,-57.190117,51.458813,,,,,,,,,,,,,,,,,,,,,,,,,
1577348129,23,0,4303.589844,4376.922852,4023.589844,4142.05127,4343.077148,0,4,,,,0,4,4,1,1,4,,,,,,,,,,,,,,,,,,,,,,,,,,,,,,,,,,,,,
1577348129,24,0,4313.333496,4406.153809,3955.897461,4207.692383,4307.179688,0,4,,,,0,4,4,1,1,4,12,0,0.553263,0.116699,0.701172,0.434326,0.723156,-0.701183,0.025391,-5.617197,-57.153564,51.576683,,,,,,,,,,,,,,,,,,,,,,,,,
1577348129,25,0,4342.05127,4412.820313,4036.923096,4223.077148,4334.358887,0,4,,,,0,4,4,1,1,4,,,,,,,,,,,,,,,,,,,,,,,,,,,,,,,,,,,,,
1577348129,26,0,4340.512695,4369.230957,4069.743652,4138.974121,4313.846191,0,4,,,,0,4,4,1,1,4,13,0,0.553315,0.116455,0.701172,0.434326,0.732921,-0.711925,0.029786,-5.593815,-57.12067,51.563137,,,,,,,,,,,,,,,,,,,,,,,,,
1577348129,27,0,4293.846191,4335.384766,4116.410156,4172.307617,4270.256348,0,4,,,,0,4,4,1,1,4,,,,,,,,,,,,,,,,,,,,,,,,,,,,,,,,,,,,,
1577348129,28,0,4303.589844,4370.769043,4091.281982,4220.512695,4312.307617,0,4,,,,0,4,4,1,1,4,14,0,0.5538,0.115967,0.701172,0.433838,0.722667,-0.687999,0.033204,-5.692403,-57.150879,51.491131,,,,,,,,,,,,,,,,,,,,,,,,,
1577348129,29,0,4340,4405.641113,3947.179443,4190.256348,4323.589844,0,4,,,,0,4,4,1,1,4,,,,,,,,,,,,,,,,,,,,,,,,,,,,,,,,,,,,,
1577348129,30,0,4397.94873,4422.563965,3970.256348,4165.641113,4355.897461,0,4,,,,0,4,4,1,1,4,15,0,0.554093,0.115479,0.701172,0.433594,0.72755,-0.687022,0.037598,-5.54187,-57.178066,51.60577,,,,,,,,,,,,,,,,,,,,,,,,,
1577348129,31,0,4384.102539,4394.358887,4058.461426,4123.589844,4322.05127,0,4,,,,0,4,4,1,1,4,,,,,,,,,,,,,,,,,,,,,,,,,,,,,,,,,,,,,
1577348129,32,0,4301.538574,4372.307617,4104.615234,4191.794922,4239.487305,0,4,,,,0,4,4,1,1,4,16,0,0.554144,0.115234,0.701172,0.433594,0.708507,-0.664073,0.032715,-5.406391,-57.202534,51.768761,,,,,,,,,,,,,,,,,,,,,,,,,
1577348129,33,0,4304.615234,4392.820313,4114.871582,4256.410156,4279.487305,0,4,,,,0,4,4,1,1,4,,,,,,,,,,,,,6.290459,12.455742,11.909261,15.928612,6.142141,3.193048,6.763063,6.197593,10.223247,5.653865,5.089493,2.795483,8.734911,79.614182,20.628912,1.071802,0.710872,1.140671,7.85748,16.293327,6.073009,8.414472,9.092851,11.285335,1.731339
1577348129,34,0,4341.538574,4393.333496,4061.025635,4185.128418,4309.230957,0,4,,,,0,4,4,1,1,4,17,0,0.554262,0.115234,0.700928,0.433838,0.720714,-0.65919,0.033204,-5.583536,-57.224556,51.676189,,,,,,,,,,,,,,,,,,,,,,,,,
1577348129,35,0,4386.153809,4432.307617,4022.564209,4136.410156,4314.871582,0,4,,,,0,4,4,1,1,4,,,,,,,,,,,,,,,,,,,,,,,,,,,,,,,,,,,,,
1577348129,36,0,4353.846191,4424.615234,4017.94873,4123.589844,4272.820313,0,4,,,,0,4,4,1,1,4,18,0,0.554312,0.11499,0.700928,0.433838,0.720714,-0.675303,0.026368,-5.623336,-57.184559,51.652691,,,,,,,,,,,,,,,,,,,,,,,,,
1577348129,37,0,4272.820313,4362.05127,4075.897461,4198.974121,4203.077148,0,4,,,,0,4,4,1,1,4,,,,,,,,,,,,,,,,,,,,,,,,,,,,,,,,,,,,,
1577348129,38,0,4306.153809,4383.589844,4105.641113,4262.563965,4242.05127,0,4,,,,0,4,4,1,1,4,19,0,0.55443,0.11499,0.700684,0.434082,0.746593,-0.683116,0.039551,-5.539526,-57.268192,51.69136,,,,,,,,,,,,,,,,,,,,,,,,,
1577348129,39,0,4333.846191,4405.128418,4047.179443,4192.307617,4251.794922,0,4,,,,0,4,4,1,1,4,,,,,,,,,,,,,,,,,,,,,,,,,,,,,,,,,,,,,
1577348129,40,0,4346.666504,4415.897461,4071.794922,4158.461426,4234.871582,0,4,,,,0,4,4,1,1,4,20,0,0.554239,0.11499,0.700684,0.434326,0.743664,-0.695811,0.027344,-5.464096,-57.164021,51.606529,,,,,,,,,,,,,,,,,,,,,,,,,
1577348129,41,0,4352.820313,4422.563965,4033.846191,4150.769043,4257.94873,0,4,,,,0,4,4,1,1,4,,,,,,,,,,,,,,,,,,,,,,,,,,,,,,,,,,,,,
1577348129,42,0,4320.512695,4413.846191,3959.487061,4188.717773,4236.922852,0,4,,,,0,4,4,1,1,4,21,0,0.553981,0.114746,0.700928,0.434326,0.754406,-0.684581,0.025391,-5.276578,-57.249706,51.709629,,,,,,,,,,,,,,,,,,,,,,,,,
1577348129,43,0,4360,4449.743652,4050.769287,4243.077148,4241.025879,0,4,,,,0,4,4,1,1,4,,,,,,,,,,,,,,,,,,,,,,,,,,,,,,,,,,,,,
1577348129,44,0,4338.461426,4420.512695,4090.256348,4185.128418,4237.94873,0,4,,,,0,4,4,1,1,4,22,0,0.553913,0.114502,0.701172,0.434082,0.756359,-0.685557,0.029786,-5.466705,-57.207195,51.622971,,,,,,,,,,,,,,,,,,,,,,,,,
1577348129,45,0,4295.897461,4377.436035,4089.230713,4173.333496,4214.358887,0,4,,,,0,4,4,1,1,4,,,,,,,,,,,,,,,,,,,,,,,,,,,,,,,,,,,,,
1577348129,46,0,4331.282227,4406.666504,4060,4202.05127,4249.743652,0,4,,,,0,4,4,1,1,4,23,0,0.553964,0.114258,0.701172,0.434082,0.728038,-0.677256,0.034668,-5.578003,-57.168938,51.664612,,,,,,,,,,,,,,,,,,,,,,,,,
1577348129,47,0,4321.538574,4422.563965,3969.743652,4225.641113,4265.641113,0,4,,,,0,4,4,1,1,4,,,,,,,,,,,,,,,,,,,,,,,,,,,,,,,,,,,,,
1577348129,48,0,4350.769043,4434.871582,3993.846191,4220,4263.589844,0,4,,,,0,4,4,1,1,4,24,0,0.554205,0.114014,0.701172,0.433838,0.741222,-0.67335,0.030762,-5.618357,-57.134502,51.702087,,,,,,,,,,,,,,,,,,,,,,,,,
1577348129,49,0,4340.512695,4395.897461,4072.820557,4124.102539,4245.128418,0,4,,,,0,4,4,1,1,4,,,,,,,,,,,,,6.584455,13.803468,9.898368,15.49181,6.464585,3.395769,6.985037,5.422926,9.991336,5.869322,5.326436,2.875728,8.460352,79.217896,20.62216,1.155912,0.732064,1.027116,8.409464,16.432281,6.237289,9.757774,8.317836,10.735348,1.824367
1577348129,50,0,4241.025879,4342.05127,4146.666504,4176.410156,4207.179688,0,4,,,,0,4,4,1,1,4,25,0,0.554238,0.113281,0.701416,0.433594,0.742687,-0.680674,0.033692,-5.59486,-57.163326,51.855446,,,,,,,,,,,,,,,,,,,,,,,,,
1577348129,51,0,4257.436035,4373.846191,4124.102539,4264.102539,4242.05127,0,4,,,,0,4,4,1,1,4,,,,,,,,,,,,,,,,,,,,,,,,,,,,,,,,,,,,,
1577348129,52,0,4299.487305,4388.717773,3976.923096,4210.769043,4285.641113,0,4,,,,0,4,4,1,1,4,26,0,0.554337,0.112793,0.701416,0.433594,0.754406,-0.658213,0.031739,-5.633527,-57.069637,51.933655,,,,,,,,,,,,,,,,,,,,,,,,,
1577348129,53,0,4310.256348,4391.282227,3961.538574,4161.025879,4284.615234,0,4,,,,0,4,4,1,1,4,,,,,,,,,,,,,,,,,,,,,,,,,,,,,,,,,,,,,
1577348129,54,0,4305.128418,4369.743652,4057.435791,4119.487305,4262.05127,0,4,,,,0,4,4,1,1,4,27,0,0.554177,0.112061,0.70166,0.433594,0.743175,-0.646494,0.020996,-5.608513,-57.045135,51.884411,,,,,,,,,,,,,,,,,,,,,,,,,
1577348129,55,0,4236.410156,4327.179688,4141.025879,4183.077148,4234.871582,0,4,,,,0,4,4,1,1,4,,,,,,,,,,,,,,,,,,,,,,,,,,,,,,,,,,,,,
1577348129,56,0,4240,4346.666504,4121.025879,4251.282227,4238.974121,0,4,,,,0,4,4,1,1,4,28,0,0.554084,0.111572,0.70166,0.433838,0.728038,-0.640635,0.03125,-5.765446,-57.082897,51.780273,,,,,,,,,,,,,,,,,,,,,,,,,
1577348129,57,0,4284.102539,4348.205078,4021.025635,4185.128418,4262.05127,0,4,,,,0,4,4,1,1,4,,,,,,,,,,,,,,,,,,,,,,,,,,,,,,,,,,,,,
1577348129,58,0,4285.128418,4355.384766,4045.128174,4141.025879,4308.717773,0,4,,,,0,4,4,1,1,4,29,0,0.553682,0.111084,0.701904,0.434082,0.722667,-0.644053,0.044923,-5.72724,-57.057068,51.925816,,,,,,,,,,,,,,,,,,,,,,,,,
1577348129,59,0,4321.538574,4394.871582,4049.230713,4125.128418,4337.94873,0,4,,,,0,4,4,1,1,4,,,,,,,,,,,,,,,,,,,,,,,,,,,,,,,,,,,,,
1577348129,60,0,4372.307617,4392.307617,3985.128174,4171.282227,4331.794922,0,4,,,,0,4,4,1,1,4,30,0,0.55323,0.11084,0.702148,0.434326,0.732921,-0.650401,0.044923,-5.812485,-57.033821,51.817539,,,,,,,,,,,,,,,,,,,,,,,,,
1577348129,61,0,4423.589844,4382.563965,4053.333252,4220.512695,4357.94873,0,4,,,,0,4,4,1,1,4,,,,,,,,,,,,,,,,,,,,,,,,,,,,,,,,,,,,,
1577348129,62,0,4442.05127,4349.743652,4122.563965,4161.538574,4380,0,4,,,,0,4,4,1,1,4,31,0,0.552466,0.110596,0.702637,0.43457,0.740734,-0.654795,0.040528,-5.769575,-57.192345,51.779907,,,,,,,,,,,,,,,,,,,,,,,,,
1577348129,63,0,4432.820313,4337.94873,4141.538574,4137.94873,4423.589844,0,4,,,,0,4,4,1,1,4,,,,,,,,,,,,,,,,,,,,,,,,,,,,,,,,,,,,,
1577348129,64,0,4482.563965,4389.230957,4076.410156,4173.846191,4458.974121,450,4,,,,0,4,4,1,1,4,32,0,0.552061,0.110107,0.702881,0.434814,0.726574,-0.662608,0.039551,-5.850586,-57.155567,51.865669,,,,,,,,,,,,,,,,,,,,,,,,,
1577348129,65,0,4539.487305,4413.846191,3988.205078,4226.666504,4444.102539,450,4,,,,0,4,4,1,1,4,,,,,,,,,,,,,7.439741,15.099774,7.701667,15.439076,6.811195,3.763428,6.886043,4.432958,9.883965,6.048292,5.546518,3.118129,8.021437,78.86277,20.595758,1.128018,0.708457,0.884068,9.034948,16.647594,6.277718,11.014323,7.040781,10.631353,1.909508
1577348129,66,0,4574.358887,4392.820313,4029.743652,4210.769043,4476.922852,16133,4,,,,0,4,4,1,1,4,33,0,0.551365,0.110107,0.703125,0.435303,0.740734,-0.663096,0.048829,-5.863681,-57.182289,52.00267,,,,,,,,,,,,,,,,,,,,,,,,,
1577348129,67,0,4554.358887,4350.256348,4090.256348,4130.256348,4452.307617,450,4,,,,0,4,4,1,1,4,,,,,,,,,,,,,,,,,,,,,,,,,,,,,,,,,,,,,
1577348129,68,0,4485.128418,4329.230957,4156.922852,4184.615234,4405.128418,16233,4,,,,0,4,4,1,1,4,34,0,0.551076,0.109619,0.703125,0.435791,0.73048,-0.66212,0.046387,-5.815651,-57.266148,51.946526,,,,,,,,,,,,,,,,,,,,,,,,,
1577348129,69,0,4484.615234,4354.871582,4111.282227,4232.820313,4432.307617,450,4,,,,0,4,4,1,1,4,,,,,,,,,,,,,,,,,,,,,,,,,,,,,,,,,,,,,
1577348129,70,0,4534.871582,4384.615234,3953.846191,4197.436035,4437.94873,80,4,,,,0,4,4,1,1,4,35,0,0.550378,0.109619,0.703369,0.436279,0.730968,-0.67628,0.048829,-5.772424,-57.341625,51.955807,,,,,,,,,,,,,,,,,,,,,,,,,
1577348130,71,0,4593.333496,4414.358887,3972.307617,4172.307617,4485.128418,450,4,,,,0,4,4,1,1,4,,,,,,,,,,,,,,,,,,,,,,,,,,,,,,,,,,,,,
1577348130,72,0,4573.846191,4399.487305,4042.564209,4122.05127,4469.230957,450,4,,,,0,4,4,1,1,4,36,0,0.550233,0.109375,0.703369,0.436523,0.732433,-0.699718,0.045411,-5.793335,-57.349739,51.90435,,,,,,,,,,,,,,,,,,,,,,,,,
1577348130,73,0,4479.487305,4359.487305,4094.871826,4200.512695,4387.179688,56,4,,,,0,4,4,1,1,4,,,,,,,,,,,,,,,,,,,,,,,,,,,,,,,,,,,,,
1577348130,74,0,4482.05127,4380.512695,4130.769043,4273.846191,4423.589844,450,4,,,,0,4,4,1,1,4,37,0,0.551076,0.109619,0.703125,0.435791,0.73048,-0.66212,0.046387,-5.829094,-57.483242,51.816353,,,,,,,,,,,,,,,,,,,,,,,,,
1577348130,75,0,4537.94873,4397.94873,4065.128174,4166.666504,4449.230957,16128,4,,,,0,4,4,1,1,4,,,,,,,,,,,,,,,,,,,,,,,,,,,,,,,,,,,,,
1577348130,76,0,4585.641113,4404.102539,4028.205078,4114.358887,4475.897461,450,4,,,,0,4,4,1,1,4,38,0,0.550233,0.109375,0.703369,0.436523,0.732433,-0.699718,0.045411,-5.844338,-57.477192,51.778839,,,,,,,,,,,,,,,,,,,,,,,,,
1577348130,77,0,4570.769043,4401.025879,4004.102539,4125.128418,4473.846191,450,4,,,,0,4,4,1,1,4,,,,,,,,,,,,,,,,,,,,,,,,,,,,,,,,,,,,,
1577348130,78,0,4495.897461,4394.871582,4030.769287,4186.666504,4388.717773,450,4,,,,0,4,4,1,1,4,39,0,0.550088,0.109131,0.703369,0.436768,0.737804,-0.687022,0.059083,-5.798243,-57.531563,51.804893,,,,,,,,,,,,,,,,,,,,,,,,,
1577348130,79,0,4504.615234,4430.256348,4089.230713,4237.436035,4390.769043,16128,4,,,,0,4,4,1,1,4,,,,,,,,,,,,,,,,,,,,,,,,,,,,,,,,,,,,,
1577348130,80,0,4505.641113,4412.820313,4051.794922,4173.846191,4374.871582,450,4,,,,0,4,4,1,1,4,40,0,0.550088,0.109131,0.703369,0.436768,0.708019,-0.685069,0.050294,-5.816572,-57.460865,51.947971,,,,,,,,,,,,,,,,,,,,,,,,,
1577348130,81,0,4484.102539,4394.871582,4070.769287,4168.205078,4347.179688,450,4,,,,0,4,4,1,1,4,,,,,,,,,,,,,9.198963,16.009621,5.658431,15.563087,7.047923,4.236372,6.55643,3.482027,9.972311,6.132827,5.77188,3.419351,7.379205,78.647217,20.552818,1.004966,0.63496,0.752704,9.610375,16.900101,6.54964,11.796589,5.569937,10.871027,1.980707
1577348130,82,0,4473.846191,4423.077148,4065.128174,4186.153809,4376.410156,450,4,,,,0,4,4,1,1,4,41,0,0.549727,0.109375,0.703613,0.436768,0.71046,-0.675792,0.053223,-5.833068,-57.457054,52.016926,,,,,,,,,,,,,,,,,,,,,,,,,
1577348130,83,0,4460,4436.410156,3981.538574,4191.282227,4351.282227,16128,4,,,,0,4,4,1,1,4,,,,,,,,,,,,,,,,,,,,,,,,,,,,,,,,,,,,,
1577348130,84,0,4504.102539,4442.563965,4017.94873,4209.230957,4341.025879,450,4,,,,0,4,4,1,1,4,42,0,0.549484,0.109619,0.703613,0.437012,0.719249,-0.669932,0.043946,-5.7881,-57.39381,51.779907,,,,,,,,,,,,,,,,,,,,,,,,,
1577348130,85,0,4458.461426,4380.512695,4076.923096,4176.922852,4316.922852,450,4,,,,0,4,4,1,1,4,,,,,,,,,,,,,,,,,,,,,,,,,,,,,,,,,,,,,
1577348130,86,0,4375.897461,4360.512695,4117.94873,4202.05127,4271.282227,450,4,,,,0,4,4,1,1,4,43,0,0.549435,0.109863,0.703613,0.437012,0.708995,-0.678721,0.048341,-5.747628,-57.396702,51.925484,,,,,,,,,,,,,,,,,,,,,,,,,
1577348130,87,0,4383.077148,4418.461426,4096.922852,4222.563965,4292.307617,16128,4,,,,0,4,4,1,1,4,,,,,,,,,,,,,,,,,,,,,,,,,,,,,,,,,,,,,
1577348130,88,0,4389.743652,4418.461426,3983.589844,4205.128418,4296.922852,450,4,,,,0,4,4,1,1,4,44,0,0.549192,0.110107,0.703613,0.437256,0.718273,-0.671397,0.056153,-5.711204,-57.459122,51.87706,,,,,,,,,,,,,,,,,,,,,,,,,
1577348130,89,0,4434.871582,4408.205078,3976.923096,4194.871582,4280,450,4,,,,0,4,4,1,1,4,,,,,,,,,,,,,,,,,,,,,,,,,,,,,,,,,,,,,
1577348130,90,0,4391.794922,4380,4060.512939,4141.538574,4253.846191,450,4,,,,0,4,4,1,1,4,45,0,0.549261,0.110352,0.703369,0.4375,0.693858,-0.683604,0.065431,-5.857868,-57.634933,51.953106,,,,,,,,,,,,,,,,,,,,,,,,,
1577348130,91,0,4270.256348,4366.666504,4145.641113,4202.563965,4210.256348,16128,4,,,,0,4,4,1,1,4,,,,,,,,,,,,,,,,,,,,,,,,,,,,,,,,,,,,,
1577348130,92,0,4287.692383,4391.282227,4124.615234,4261.025879,4220,450,4,,,,0,4,4,1,1,4,46,0,0.54933,0.110596,0.703125,0.437744,0.728527,-0.692882,0.051759,-5.750604,-57.673531,51.961731,,,,,,,,,,,,,,,,,,,,,,,,,
1577348130,93,0,4311.282227,4358.461426,4002.564209,4183.589844,4251.794922,450,4,,,,0,4,4,1,1,4,,,,,,,,,,,,,,,,,,,,,,,,,,,,,,,,,,,,,
1577348130,94,0,4311.794922,4377.436035,4003.589844,4148.205078,4268.717773,450,4,,,,0,4,4,1,1,4,47,0,0.549204,0.11084,0.702881,0.438232,0.729503,-0.689952,0.05713,-5.713882,-57.588638,51.969494,,,,,,,,,,,,,,,,,,,,,,,,,
1577348130,95,0,4314.358887,4417.436035,4046.666748,4130.256348,4260,16128,4,,,,0,4,4,1,1,4,,,,,,,,,,,,,,,,,,,,,,,,,,,,,,,,,,,,,
1577348130,96,0,4258.461426,4366.666504,4058.461426,4193.333496,4224.615234,450,4,,,,0,4,4,1,1,4,48,0,0.549223,0.111328,0.702637,0.438477,0.711925,-0.708507,0.050294,-5.680832,-57.631863,51.916668,,,,,,,,,,,,,,,,,,,,,,,,,
1577348130,97,0,4258.974121,4347.692383,4098.461426,4260.512695,4224.615234,450,4,,,,0,4,4,1,1,4,,,,,,,,,,,,,12.592703,16.237072,4.019683,15.604589,7.121799,4.711801,6.066527,2.76603,10.200668,6.056723,5.952227,3.705812,6.601399,78.605446,20.451941,0.872508,0.531933,0.65609,10.053692,17.201403,7.534588,11.843628,4.223597,11.298768,2.055263
1577348130,98,0,4264.615234,4352.307617,4083.589844,4174.358887,4238.974121,450,4,,,,0,4,4,1,1,4,49,0,0.549486,0.111572,0.702393,0.438477,0.728527,-0.721202,0.044434,-5.710902,-57.61095,51.928936,,,,,,,,,,,,,,,,,,,,,,,,,
1577348130,99,0,4245.641113,4382.05127,4093.333252,4134.871582,4262.563965,16128,4,,,,0,4,4,1,1,4,,,,,,,,,,,,,,,,,,,,,,,,,,,,,,,,,,,,,
1577348130,100,0,4293.333496,4424.102539,4049.230713,4157.436035,4300.512695,450,4,,,,0,4,4,1,1,4,50,0,0.549992,0.111572,0.702148,0.438232,0.724132,-0.704112,0.045411,-5.67815,-57.4725,52.059612,,,,,,,,,,,,,,,,,,,,,,,,,
1577348130,101,0,4307.179688,4385.641113,3974.358887,4209.743652,4296.410156,450,4,,,,0,4,4,1,1,4,,,,,,,,,,,,,,,,,,,,,,,,,,,,,,,,,,,,,
1577348130,102,0,4291.282227,4365.128418,4048.205078,4227.179688,4296.922852,450,4,,,,0,4,4,1,1,4,51,0,0.550187,0.111572,0.702148,0.437988,0.734386,-0.694835,0.032227,-5.648674,-57.347897,51.878139,,,,,,,,,,,,,,,,,,,,,,,,,
1577348130,103,0,4269.743652,4354.871582,4126.666504,4147.692383,4283.589844,16128,4,,,,0,4,4,1,1,4,,,,,,,,,,,,,,,,,,,,,,,,,,,,,,,,,,,,,
1577348130,104,0,4206.666504,4330.256348,4156.922852,4157.94873,4263.077148,450,4,,,,0,4,4,1,1,4,52,0,0.550331,0.111816,0.702148,0.437744,0.723644,-0.697765,0.025391,-5.622145,-57.235752,51.954079,,,,,,,,,,,,,,,,,,,,,,,,,
1577348130,105,0,4213.333496,4355.897461,4090.256348,4185.641113,4277.436035,450,4,,,,0,4,4,1,1,4,,,,,,,,,,,,,,,,,,,,,,,,,,,,,,,,,,,,,
1577348130,106,0,4274.871582,4374.871582,3960,4174.871582,4290.256348,450,4,,,,0,4,4,1,1,4,53,0,0.550787,0.112061,0.701904,0.4375,0.704112,-0.659678,0.037598,-5.538453,-57.194633,51.842976,,,,,,,,,,,,,,,,,,,,,,,,,
1577348130,107,0,4303.589844,4379.487305,3998.461426,4165.641113,4320.512695,16128,4,,,,0,4,4,1,1,4,,,,,,,,,,,,,,,,,,,,,,,,,,,,,,,,,,,,,
1577348130,108,0,4272.820313,4353.846191,4098.974121,4111.282227,4293.333496,450,4,,,,0,4,4,1,1,4,54,0,0.551048,0.112305,0.70166,0.4375,0.716808,-0.686046,0.04004,-5.522946,-57.097816,51.68317,,,,,,,,,,,,,,,,,,,,,,,,,
1577348130,109,0,4216.410156,4315.897461,4182.05127,4159.487305,4247.692383,450,4,,,,0,4,4,1,1,4,,,,,,,,,,,,,,,,,,,,,,,,,,,,,,,,,,,,,
1577348130,110,0,4226.666504,4322.05127,4123.589844,4231.282227,4272.820313,450,4,,,,0,4,4,1,1,4,55,0,0.551359,0.112305,0.701416,0.4375,0.734874,-0.690929,0.028321,-5.568805,-57.070496,51.778606,,,,,,,,,,,,,,,,,,,,,,,,,
1577348130,111,0,4284.615234,4356.922852,3949.743652,4184.102539,4305.641113,16128,4,,,,0,4,4,1,1,4,,,,,,,,,,,,,,,,,,,,,,,,,,,,,,,,,,,,,
1577348130,112,0,4336.410156,4405.641113,3959.487061,4121.025879,4356.922852,450,4,,,,0,4,4,1,1,4,56,0,0.551359,0.112305,0.701416,0.4375,0.745617,-0.693858,0.010254,-5.550263,-57.045906,51.864498,,,,,,,,,,,,,,,,,,,,,,,,,
1577348130,113,0,4327.179688,4399.487305,4035.897461,4108.205078,4328.717773,450,4,,,,0,4,4,1,1,4,,,,,,,,,,,,,17.823793,15.752439,2.869704,15.460679,7.096202,5.059639,5.444366,2.373147,10.468805,5.793732,5.958165,3.951209,5.761403,79.068169,20.256897,0.849924,0.4364,0.606916,10.269175,17.610088,9.065797,11.223896,3.184625,11.780509,2.148087
1577348130,114,0,4269.230957,4348.717773,4083.076904,4199.487305,4257.436035,450,4,,,,0,4,4,1,1,4,57,0,0.551602,0.112061,0.701416,0.437256,0.743664,-0.691905,0.029297,-5.533575,-57.023773,51.82217,,,,,,,,,,,,,,,,,,,,,,,,,
1577348130,115,0,4261.025879,4359.487305,4106.153809,4247.692383,4276.922852,16128,4,,,,0,4,4,1,1,4,,,,,,,,,,,,,,,,,,,,,,,,,,,,,,,,,,,,,
1577348130,116,0,4280.512695,4388.717773,4044.102539,4172.820313,4277.94873,450,4,,,,0,4,4,1,1,4,58,0,0.551341,0.111816,0.70166,0.437256,0.73048,-0.686534,0.015625,-5.518556,-57.183304,51.843887,,,,,,,,,,,,,,,,,,,,,,,,,
1577348130,117,0,4317.94873,4383.589844,4048.718018,4137.436035,4308.717773,450,4,,,,0,4,4,1,1,4,,,,,,,,,,,,,,,,,,,,,,,,,,,,,,,,,,,,,
1577348130,118,0,4330.256348,4377.94873,4032.307617,4138.974121,4328.717773,450,4,,,,0,4,4,1,1,4,59,0,0.551895,0.111572,0.701416,0.437012,0.726574,-0.679698,0.038575,-5.505038,-57.326878,52.042881,,,,,,,,,,,,,,,,,,,,,,,,,
1577348130,119,1,4335.320313,4382.179688,4035.256348,4138.974121,4319.294922,450,4,,,,0,4,4,1,1,4,,,,,,,,,,,,,,,,,,,,,,,,,,,,,,,,,,,,,
1577348130,120,1,4340.384766,4386.410156,4038.205078,4138.974121,4309.871582,450,4,,,,0,4,4,1,1,4,60,1,0,0.111023,0.701355,0.436951,0.730236,-0.67335,0,0,0,0,,,,,,,,,,,,,,,,,,,,,,,,,
1577348130,121,1,4345.44873,4390.641113,4041.153809,4138.974121,4300.44873,450,4,,,,0,4,4,1,1,4,,,,,,,,,,,,,,,,,,,,,,,,,,,,,,,,,,,,,
1577348130,122,1,4350.512695,4394.871582,4044.102539,4138.974121,4291.025879,450,4,,,,0,4,4,1,1,4,61,1,0,0.110474,0.701294,0.43689,0.733898,-0.667002,0,0,0,0,,,,,,,,,,,,,,,,,,,,,,,,,
1577348130,123,1,4355.577148,4399.102539,4047.05127,4138.974121,4281.602539,450,4,,,,0,4,4,1,1,4,,,,,,,,,,,,,,,,,,,,,,,,,,,,,,,,,,,,,
1577348130,124,1,4360.641113,4403.333496,4050,4138.974121,4272.179688,450,4,,,,0,4,4,1,1,4,62,1,0,0.109924,0.701233,0.436829,0.73756,-0.660655,0,0,0,0,,,,,,,,,,,,,,,,,,,,,,,,,
1577348130,125,1,4365.705078,4407.563965,4052.94873,4138.974121,4262.756348,450,4,,,,0,4,4,1,1,4,,,,,,,,,,,,,,,,,,,,,,,,,,,,,,,,,,,,,
1577348130,126,0,4370.769043,4411.794922,4055.897461,4138.974121,4253.333496,450,4,,,,0,4,4,1,1,4,63,0,0.552837,0.109375,0.701172,0.436768,0.741222,-0.654307,0.013184,-5.552688,-57.336464,51.982716,,,,,,,,,,,,,,,,,,,,,,,,,
1577348130,127,0,4275.897461,4343.589844,4101.538574,4194.358887,4203.589844,234,4,,,,0,4,4,1,1,4,,,,,,,,,,,,,,,,,,,,,,,,,,,,,,,,,,,,,
1577348130,0,0,4282.05127,4373.333496,4128.205078,4241.025879,4268.205078,450,4,,,,0,4,4,1,1,4,0,0,0.552769,0.109131,0.701416,0.436523,0.734874,-0.65333,0.017578,-5.715204,-57.345093,52.048195,,,,,,,,,,,,,,,,,,,,,,,,,
1577348130,1,0,4327.179688,4417.436035,4042.05127,4183.589844,4290.769043,450,4,,,,0,4,4,1,1,4,,,,,,,,,,,,,24.755583,14.696875,2.144866,15.312449,7.098376,5.193099,4.688691,2.255829,10.707183,5.369618,5.634058,4.126756,4.930366,79.942451,19.77198,1.035289,0.382746,0.597792,10.213819,18.188423,10.897937,10.215902,2.50098,12.268666,2.256534
1577348130,2,0,4389.230957,4430.256348,4002.564209,4153.333496,4270.256348,16091,4,,,,0,4,4,1,1,4,1,0,0.552314,0.108887,0.70166,0.436768,0.73048,-0.667979,0.012696,-5.741837,-57.412674,51.987499,,,,,,,,,,,,,,,,,,,,,,,,,
1577348130,3,0,4368.717773,4394.358887,4028.718018,4128.205078,4244.615234,450,4,,,,0,4,4,1,1,4,,,,,,,,,,,,,,,,,,,,,,,,,,,,,,,,,,,,,
1577348130,4,0,4269.230957,4380.512695,4094.871826,4200,4184.102539,16213,4,,,,0,4,4,1,1,4,2,0,0.552837,0.109375,0.701172,0.436768,0.741222,-0.654307,0.013184,-5.705992,-57.413681,51.932869,,,,,,,,,,,,,,,,,,,,,,,,,
1577348130,5,0,4275.384766,4434.358887,4115.384766,4269.230957,4201.538574,450,4,,,,0,4,4,1,1,4,,,,,,,,,,,,,,,,,,,,,,,,,,,,,,,,,,,,,
1577348130,6,0,4303.077148,4414.871582,4048.718018,4192.307617,4233.333496,82,4,,,,0,4,4,1,1,4,3,0,0.552314,0.108887,0.70166,0.436768,0.73048,-0.667979,0.012696,-5.733546,-57.474403,51.883705,,,,,,,,,,,,,,,,,,,,,,,,,
1577348130,7,0,4338.974121,4401.025879,4048.718018,4147.179688,4230.256348,450,4,,,,0,4,4,1,1,4,,,,,,,,,,,,,,,,,,,,,,,,,,,,,,,,,,,,,
1577348130,8,0,4331.282227,4411.282227,3997.435791,4149.230957,4233.846191,450,4,,,,0,4,4,1,1,4,4,0,0.5521,0.108398,0.701904,0.436768,0.757824,-0.685557,0.023926,-5.758345,-57.289795,51.839455,,,,,,,,,,,,,,,,,,,,,,,,,
1577348130,9,0,4260,4388.717773,3958.974365,4207.179688,4227.179688,41,4,,,,0,4,4,1,1,4,,,,,,,,,,,,,,,,,,,,,,,,,,,,,,,,,,,,,
1577348130,10,0,4290.769043,4395.384766,4066.666748,4248.205078,4224.102539,450,4,,,,0,4,4,1,1,4,5,0,0.551574,0.10791,0.702393,0.436768,0.747082,-0.665049,0.019532,-5.780664,-57.18346,51.739815,,,,,,,,,,,,,,,,,,,,,,,,,
1577348130,11,0,4278.974121,4373.333496,4100,4185.128418,4203.589844,16106,4,,,,0,4,4,1,1,4,,,,,,,,,,,,,,,,,,,,,,,,,,,,,,,,,,,,,
1577348130,12,0,4208.717773,4362.05127,4106.666504,4183.077148,4190.769043,450,4,,,,0,4,4,1,1,4,6,0,0.551165,0.107422,0.702637,0.437012,0.730968,-0.658701,0.034668,-5.681121,-57.147572,51.8894,,,,,,,,,,,,,,,,,,,,,,,,,
1577348130,13,0,4227.692383,4374.871582,4062.564209,4192.307617,4217.94873,450,4,,,,0,4,4,1,1,4,,,,,,,,,,,,,,,,,,,,,,,,,,,,,,,,,,,,,
1577348130,14,0,4239.487305,4368.717773,3966.153809,4196.410156,4225.128418,450,4,,,,0,4,4,1,1,4,7,0,0.550802,0.106689,0.702881,0.437256,0.738293,-0.668956,0.042481,-5.711163,-57.175091,51.784767,,,,,,,,,,,,,,,,,,,,,,,,,
1577348130,15,0,4251.794922,4401.025879,4006.153809,4204.615234,4215.897461,16106,4,,,,0,4,4,1,1,4,,,,,,,,,,,,,,,,,,,,,,,,,,,,,,,,,,,,,
1577348130,16,0,4238.974121,4374.358887,4090.256348,4147.692383,4204.615234,0,4,,,,0,4,4,1,1,4,8,0,0.550509,0.106201,0.702881,0.437744,0.726574,-0.656748,0.034668,-5.558753,-57.140041,51.810226,,,,,,,,,,,,,,,,,,,,,,,,,
1577348130,17,0,4164.102539,4307.179688,4161.025879,4189.743652,4206.666504,0,4,,,,0,4,4,1,1,4,,,,,,,,,,,,,32.255779,13.281107,1.694091,15.507321,7.215206,5.092739,3.804065,2.288893,10.905812,4.854175,4.924943,4.164164,4.236925,81.071106,18.952356,1.438146,0.436356,0.604637,9.95251,18.921558,12.576565,9.124101,2.133918,12.741422,2.356574
1577348130,18,0,4174.871582,4323.077148,4113.333496,4228.205078,4242.05127,0,4,,,,0,4,4,1,1,4,9,0,0.550143,0.105469,0.703125,0.437988,0.737804,-0.657725,0.048829,-5.421586,-57.108498,51.833141,,,,,,,,,,,,,,,,,,,,,,,,,
1577348130,19,0,4241.025879,4347.692383,3944.615479,4169.230957,4266.153809,0,4,,,,0,4,4,1,1,4,,,,,,,,,,,,,,,,,,,,,,,,,,,,,,,,,,,,,
1577348130,20,0,4299.487305,4389.230957,3952.820557,4146.666504,4296.922852,0,4,,,,0,4,4,1,1,4,10,0,0.550283,0.104736,0.703125,0.437988,0.742687,-0.678721,0.044434,-5.537396,-57.199738,51.853764,,,,,,,,,,,,,,,,,,,,,,,,,
1577348130,21,0,4328.205078,4391.794922,4089.230713,4143.589844,4291.282227,0,4,,,,0,4,4,1,1,4,,,,,,,,,,,,,,,,,,,,,,,,,,,,,,,,,,,,,
1577348130,22,0,4279.487305,4320.512695,4187.179688,4220.512695,4272.307617,0,4,,,,0,4,4,1,1,4,11,0,0.550064,0.104248,0.703369,0.437988,0.738781,-0.681651,0.028809,-5.46218,-57.222038,51.812508,,,,,,,,,,,,,,,,,,,,,,,,,
1577348130,23,0,4282.05127,4338.974121,4128.717773,4256.410156,4316.922852,0,4,,,,0,4,4,1,1,4,,,,,,,,,,,,,,,,,,,,,,,,,,,,,,,,,,,,,
1577348130,24,0,4335.384766,4388.717773,3984.615479,4174.358887,4330.256348,0,4,,,,0,4,4,1,1,4,12,0,0.549992,0.104004,0.703613,0.437744,0.749523,-0.667002,0.03711,-5.514115,-57.182293,51.775379,,,,,,,,,,,,,,,,,,,,,,,,,
1577348130,25,0,4365.641113,4394.871582,4017.435791,4131.282227,4346.153809,0,4,,,,0,4,4,1,1,4,,,,,,,,,,,,,,,,,,,,,,,,,,,,,,,,,,,,,
1577348130,26,0,4367.692383,4379.487305,4068.205078,4115.897461,4350.256348,0,4,,,,0,4,4,1,1,4,13,0,0.54992,0.10376,0.703857,0.4375,0.723156,-0.664073,0.034668,-5.560857,-57.32597,51.801781,,,,,,,,,,,,,,,,,,,,,,,,,
1577348130,27,0,4324.102539,4331.282227,4046.153809,4189.230957,4302.563965,0,4,,,,0,4,4,1,1,4,,,,,,,,,,,,,,,,,,,,,,,,,,,,,,,,,,,,,
1577348130,28,0,4319.487305,4328.205078,4068.205078,4238.974121,4298.461426,0,4,,,,0,4,4,1,1,4,14,0,0.549562,0.104004,0.704102,0.4375,0.729503,-0.648936,0.044434,-5.602925,-57.395466,51.885353,,,,,,,,,,,,,,,,,,,,,,,,,
1577348130,29,0,4331.794922,4357.94873,4064.615479,4155.897461,4303.077148,0,4,,,,0,4,4,1,1,4,,,,,,,,,,,,,,,,,,,,,,,,,,,,,,,,,,,,,
1577348130,30,0,4320,4353.846191,4101.025879,4134.358887,4348.205078,0,4,,,,0,4,4,1,1,4,15,0,0.549202,0.104248,0.704346,0.4375,0.718761,-0.647471,0.045899,-5.640787,-57.338379,51.840939,,,,,,,,,,,,,,,,,,,,,,,,,
1577348130,31,0,4333.333496,4355.897461,4053.333252,4155.897461,4377.94873,0,4,,,,0,4,4,1,1,4,,,,,,,,,,,,,,,,,,,,,,,,,,,,,,,,,,,,,
1577348130,32,0,4366.666504,4411.794922,3946.666748,4187.692383,4339.487305,0,4,,,,0,4,4,1,1,4,16,0,0.548843,0.104492,0.70459,0.4375,0.724132,-0.652354,0.044923,-5.615046,-57.52626,51.920597,,,,,,,,,,,,,,,,,,,,,,,,,
1577348130,33,0,4395.897461,4442.05127,4008.205078,4200,4350.769043,0,4,,,,0,4,4,1,1,4,,,,,,,,,,,,,38.804554,11.713554,1.384095,16.260691,7.432951,4.812578,2.87002,2.282249,11.043122,4.33089,3.984379,4.004552,3.825381,81.948402,17.890821,2.020116,0.689491,0.606389,9.619479,19.608324,13.803682,8.147823,2.06591,13.145408,2.413513
1577348130,34,0,4358.461426,4375.384766,4088.205078,4151.794922,4310.256348,0,4,,,,0,4,4,1,1,4,17,0,0.548139,0.104492,0.704834,0.437988,0.725109,-0.641611,0.045411,-5.711511,-57.575726,51.872658,,,,,,,,,,,,,,,,,,,,,,,,,
1577348130,35,0,4311.794922,4342.05127,4125.128418,4186.666504,4276.410156,0,4,,,,0,4,4,1,1,4,,,,,,,,,,,,,,,,,,,,,,,,,,,,,,,,,,,,,
1577348130,36,0,4323.589844,4377.436035,4071.281982,4212.307617,4326.153809,0,4,,,,0,4,4,1,1,4,18,0,0.547749,0.104492,0.704834,0.438477,0.735363,-0.646494,0.046876,-5.678698,-57.380981,51.889332,,,,,,,,,,,,,,,,,,,,,,,,,
1577348130,37,0,4348.717773,4400,3957.435791,4188.717773,4331.794922,0,4,,,,0,4,4,1,1,4,,,,,,,,,,,,,,,,,,,,,,,,,,,,,,,,,,,,,
1577348130,38,0,4399.487305,4416.922852,3987.179443,4176.410156,4350.256348,0,4,,,,0,4,4,1,1,4,19,0,0.547115,0.104736,0.704834,0.439209,0.725597,-0.663584,0.051759,-5.708982,-57.205711,51.724888,,,,,,,,,,,,,,,,,,,,,,,,,
1577348130,39,0,4366.666504,4394.358887,4069.743652,4119.487305,4305.128418,0,4,,,,0,4,4,1,1,4,,,,,,,,,,,,,,,,,,,,,,,,,,,,,,,,,,,,,
1577348130,40,0,4280.512695,4366.153809,4120,4173.846191,4235.384766,0,4,,,,0,4,4,1,1,4,20,0,0.547037,0.104736,0.70459,0.439697,0.737316,-0.688487,0.060548,-5.676422,-57.287231,51.636703,,,,,,,,,,,,,,,,,,,,,,,,,
1577348130,41,0,4309.230957,4387.179688,4120.512695,4243.077148,4285.641113,0,4,,,,0,4,4,1,1,4,,,,,,,,,,,,,,,,,,,,,,,,,,,,,,,,,,,,,
1577348130,42,0,4351.794922,4406.153809,4047.692383,4182.563965,4285.641113,0,4,,,,0,4,4,1,1,4,21,0,0.546644,0.104736,0.70459,0.440186,0.729015,-0.688487,0.045411,-5.587303,-57.3606,51.557343,,,,,,,,,,,,,,,,,,,,,,,,,
1577348130,43,0,4387.692383,4446.666504,4018.461426,4143.077148,4280.512695,0,4,,,,0,4,4,1,1,4,,,,,,,,,,,,,,,,,,,,,,,,,,,,,,,,,,,,,
1577348130,44,0,4369.230957,4421.538574,4025.128174,4126.153809,4282.05127,0,4,,,,0,4,4,1,1,4,22,0,0.546401,0.10498,0.70459,0.44043,0.747082,-0.688975,0.053223,-5.686541,-57.426628,51.605545,,,,,,,,,,,,,,,,,,,,,,,,,
1577348130,45,0,4289.743652,4357.94873,4081.025635,4206.666504,4220.512695,0,4,,,,0,4,4,1,1,4,,,,,,,,,,,,,,,,,,,,,,,,,,,,,,,,,,,,,
1577348130,46,0,4308.205078,4398.974121,4110.256348,4271.794922,4238.461426,0,4,,,,0,4,4,1,1,4,23,0,0.546401,0.10498,0.70459,0.44043,0.729992,-0.69044,0.041505,-5.716041,-57.30661,51.589111,,,,,,,,,,,,,,,,,,,,,,,,,
1577348130,47,0,4328.717773,4418.974121,4037.435791,4168.717773,4255.384766,0,4,,,,0,4,4,1,1,4,,,,,,,,,,,,,,,,,,,,,,,,,,,,,,,,,,,,,
1577348130,48,0,4358.461426,4412.820313,4054.871826,4128.717773,4245.128418,0,4,,,,0,4,4,1,1,4,24,0,0.545842,0.105225,0.704834,0.440674,0.706554,-0.691417,0.05127,-5.682775,-57.318226,51.634136,,,,,,,,,,,,,,,,,,,,,,,,,
1577348130,49,0,4385.128418,4415.384766,4037.435791,4158.974121,4269.743652,0,4,,,,0,4,4,1,1,4,,,,,,,,,,,,,42.785194,10.125214,1.186132,17.525805,7.672006,4.484896,2.019845,2.171039,11.077458,3.874227,3.134764,3.679313,3.758327,82.050636,16.803812,2.717899,1.213136,0.59545,9.428641,19.945299,14.407712,7.277698,2.343245,13.392176,2.40061
1577348130,50,0,4336.410156,4398.974121,3970.256348,4205.641113,4245.641113,0,4,,,,0,4,4,1,1,4,25,0,0.545795,0.105469,0.704834,0.440674,0.700694,-0.687999,0.053712,-5.59302,-57.508125,51.555027,,,,,,,,,,,,,,,,,,,,,,,,,
1577348130,51,0,4350.256348,4431.282227,4041.538574,4234.358887,4236.922852,0,4,,,,0,4,4,1,1,4,,,,,,,,,,,,,,,,,,,,,,,,,,,,,,,,,,,,,
1577348130,52,0,4326.666504,4404.102539,4088.205078,4183.589844,4232.820313,0,4,,,,0,4,4,1,1,4,26,0,0.5457,0.105957,0.704834,0.440674,0.699229,-0.698253,0.052247,-5.631872,-57.619217,51.603462,,,,,,,,,,,,,,,,,,,,,,,,,
1577348130,53,0,4277.436035,4361.025879,4110.256348,4195.384766,4207.179688,0,4,,,,0,4,4,1,1,4,,,,,,,,,,,,,,,,,,,,,,,,,,,,,,,,,,,,,
1577348130,54,0,4307.692383,4391.794922,4067.692383,4202.563965,4230.256348,0,4,,,,0,4,4,1,1,4,27,0,0.545968,0.106201,0.70459,0.440674,0.708995,-0.689952,0.051759,-5.666839,-57.7192,51.647053,,,,,,,,,,,,,,,,,,,,,,,,,
1577348130,55,0,4305.128418,4397.94873,3956.923096,4189.743652,4251.794922,0,4,,,,0,4,4,1,1,4,,,,,,,,,,,,,,,,,,,,,,,,,,,,,,,,,,,,,
1577348130,56,0,4322.563965,4405.641113,3991.281982,4195.897461,4242.563965,0,4,,,,0,4,4,1,1,4,28,0,0.545968,0.106201,0.70459,0.440674,0.736339,-0.697765,0.044923,-5.698308,-57.749371,51.626469,,,,,,,,,,,,,,,,,,,,,,,,,
1577348130,57,0,4306.666504,4377.436035,4083.589844,4130.769043,4206.666504,0,4,,,,0,4,4,1,1,4,,,,,,,,,,,,,,,,,,,,,,,,,,,,,,,,,,,,,
1577348130,58,0,4216.922852,4337.94873,4143.077148,4168.205078,4183.077148,0,4,,,,0,4,4,1,1,4,29,0,0.546283,0.106201,0.704346,0.440674,0.730968,-0.685557,0.038087,-5.786447,-57.716709,51.488312,,,,,,,,,,,,,,,,,,,,,,,,,
1577348130,59,0,4223.589844,4363.077148,4108.717773,4244.102539,4224.102539,0,4,,,,0,4,4,1,1,4,,,,,,,,,,,,,,,,,,,,,,,,,,,,,,,,,,,,,
1577348130,60,0,4263.589844,4379.487305,3974.871826,4205.641113,4262.563965,0,4,,,,0,4,4,1,1,4,30,0,0.545968,0.106201,0.70459,0.440674,0.708995,-0.689952,0.051759,-5.865771,-57.806946,51.423786,,,,,,,,,,,,,,,,,,,,,,,,,
1577348130,61,0,4283.589844,4386.666504,3967.179443,4155.384766,4270.769043,0,4,,,,0,4,4,1,1,4,,,,,,,,,,,,,,,,,,,,,,,,,,,,,,,,,,,,,
1577348130,62,0,4291.794922,4362.563965,4060,4116.922852,4255.384766,0,4,,,,0,4,4,1,1,4,31,0,0.546283,0.106201,0.704346,0.440674,0.730968,-0.685557,0.038087,-5.937163,-57.768524,51.305901,,,,,,,,,,,,,,,,,,,,,,,,,
1577348130,63,0,4234.358887,4331.282227,4136.410156,4187.179688,4221.538574,0,4,,,,0,4,4,1,1,4,,,,,,,,,,,,,,,,,,,,,,,,,,,,,,,,,,,,,
1577348130,64,0,4218.461426,4364.615234,4114.358887,4252.307617,4223.077148,450,4,,,,0,4,4,1,1,4,32,0,0.546235,0.106445,0.704346,0.440674,0.738293,-0.691417,0.027344,-5.9416,-57.674133,51.439064,,,,,,,,,,,,,,,,,,,,,,,,,
1577348130,65,0,4249.230957,4372.820313,4017.435791,4177.94873,4254.358887,450,4,,,,0,4,4,1,1,4,,,,,,,,,,,,,43.314434,8.793915,1.18334,18.988857,7.820149,4.244458,1.38977,2.073603,10.980334,3.548512,2.669227,3.282615,4.015631,81.376244,16.037992,3.441919,1.991909,0.565797,9.594332,19.699667,14.455337,6.442069,2.987561,13.453097,2.30512
1577348130,66,0,4258.974121,4370.256348,4048.205078,4129.230957,4309.743652,16136,4,,,,0,4,4,1,1,4,33,0,0.54655,0.106445,0.704102,0.440674,0.733898,-0.68751,0.032227,-5.885778,-57.58918,51.499092,,,,,,,,,,,,,,,,,,,,,,,,,
1577348130,67,0,4281.538574,4390.256348,4067.179443,4120,4328.205078,450,4,,,,0,4,4,1,1,4,,,,,,,,,,,,,,,,,,,,,,,,,,,,,,,,,,,,,
1577348130,68,0,4288.205078,4354.358887,4004.615479,4180.512695,4294.358887,16227,4,,,,0,4,4,1,1,4,34,0,0.546747,0.106445,0.704102,0.44043,0.738781,-0.680186,0.032227,-5.95517,-57.572536,51.373672,,,,,,,,,,,,,,,,,,,,,,,,,
1577348130,69,0,4303.077148,4336.922852,4049.743652,4227.692383,4297.94873,450,4,,,,0,4,4,1,1,4,,,,,,,,,,,,,,,,,,,,,,,,,,,,,,,,,,,,,
1577348130,70,0,4299.487305,4352.307617,4106.666504,4164.615234,4274.358887,58,4,,,,0,4,4,1,1,4,35,0,0.546794,0.106201,0.704102,0.44043,0.732921,-0.668467,0.03125,-5.957806,-57.557556,51.500057,,,,,,,,,,,,,,,,,,,,,,,,,
1577348130,71,0,4258.461426,4354.358887,4141.538574,4160,4272.820313,450,4,,,,0,4,4,1,1,4,,,,,,,,,,,,,,,,,,,,,,,,,,,,,,,,,,,,,
1577348131,72,0,4258.974121,4362.563965,4068.718018,4172.820313,4306.666504,450,4,,,,0,4,4,1,0,4,36,0,0.546724,0.105957,0.704346,0.440186,0.737804,-0.685557,0.018067,-5.960179,-57.544079,51.494175,,,,,,,,,,,,,,,,,,,,,,,,,
1577348131,73,0,4279.487305,4362.563965,3948.205078,4176.922852,4289.743652,9,4,,,,0,4,4,1,0,4,,,,,,,,,,,,,,,,,,,,,,,,,,,,,,,,,,,,,
1577348131,74,0,4300,4364.615234,4001.025635,4174.358887,4304.102539,450,4,,,,0,4,4,1,0,4,37,0,0.546771,0.105713,0.704346,0.440186,0.712413,-0.658701,0.039063,-5.842684,-57.591759,51.608509,,,,,,,,,,,,,,,,,,,,,,,,,
1577348131,75,0,4277.436035,4341.538574,4081.025635,4112.820313,4271.282227,16099,4,,,,0,4,4,1,0,4,,,,,,,,,,,,,,,,,,,,,,,,,,,,,,,,,,,,,
1577348131,76,0,4227.692383,4324.102539,4149.230957,4156.922852,4230.256348,450,4,,,,0,4,4,1,0,4,38,0,0.546574,0.105713,0.704346,0.44043,0.704601,-0.657237,0.046387,-5.617308,-57.455227,51.591782,,,,,,,,,,,,,,,,,,,,,,,,,
1577348131,77,0,4244.615234,4354.871582,4096.410156,4220.512695,4268.717773,450,4,,,,0,4,4,1,0,4,,,,,,,,,,,,,,,,,,,,,,,,,,,,,,,,,,,,,
1577348131,78,0,4295.897461,4376.922852,3920,4190.769043,4287.692383,450,4,,,,0,4,4,1,0,4,39,0,0.546425,0.105469,0.704346,0.440674,0.721691,-0.665049,0.049317,-5.5341,-57.212719,51.516907,,,,,,,,,,,,,,,,,,,,,,,,,
1577348131,79,0,4358.461426,4397.436035,3934.358887,4147.179688,4320.512695,16099,4,,,,0,4,4,1,0,4,,,,,,,,,,,,,,,,,,,,,,,,,,,,,,,,,,,,,
1577348131,80,0,4347.692383,4393.333496,4036.410156,4120,4285.128418,450,4,,,,0,4,4,1,0,4,40,0,0.546786,0.105225,0.704102,0.440674,0.714855,-0.669932,0.036133,-5.399398,-57.233723,51.509338,,,,,,,,,,,,,,,,,,,,,,,,,
1577348131,81,0,4270.256348,4366.666504,4097.94873,4208.205078,4216.410156,450,4,,,,0,4,4,1,0,4,,,,,,,,,,,,,40.409485,7.958964,1.4163,20.322016,7.82833,4.062511,1.047935,2.147523,10.750076,3.414544,2.718936,2.920193,4.415373,80.382263,15.805732,4.062852,2.875263,0.5294,10.175817,18.909958,13.998033,5.586516,3.84248,13.398393,2.151609
1577348131,82,0,4264.102539,4362.05127,4113.846191,4268.717773,4257.436035,450,4,,,,0,4,4,1,0,4,41,0,0.546636,0.10498,0.704102,0.440918,0.72462,-0.668467,0.031739,-5.397796,-57.19281,51.442711,,,,,,,,,,,,,,,,,,,,,,,,,
1577348131,83,0,4298.461426,4360.512695,4056.923096,4183.589844,4274.871582,16099,4,,,,0,4,4,1,0,4,,,,,,,,,,,,,,,,,,,,,,,,,,,,,,,,,,,,,
1577348131,84,0,4356.410156,4397.436035,4033.846191,4139.487305,4297.94873,450,4,,,,0,4,4,1,0,4,42,0,0.546557,0.10498,0.703857,0.441406,0.725109,-0.673838,0.03418,-5.396355,-57.27562,51.442562,,,,,,,,,,,,,,,,,,,,,,,,,
1577348131,85,0,4363.589844,4423.589844,4004.615479,4132.820313,4303.589844,450,4,,,,0,4,4,1,0,4,,,,,,,,,,,,,,,,,,,,,,,,,,,,,,,,,,,,,
1577348131,86,0,4299.487305,4407.692383,4026.153809,4184.102539,4242.563965,450,4,,,,0,4,4,1,0,4,43,0,0.54636,0.10498,0.703857,0.44165,0.739757,-0.681651,0.029786,-5.574504,-57.230518,51.502243,,,,,,,,,,,,,,,,,,,,,,,,,
1577348131,87,0,4315.897461,4408.717773,4080,4236.410156,4254.871582,16099,4,,,,0,4,4,1,0,4,,,,,,,,,,,,,,,,,,,,,,,,,,,,,,,,,,,,,
1577348131,88,0,4327.179688,4390.256348,4045.641113,4185.128418,4229.743652,450,4,,,,0,4,4,1,0,4,44,0,0.54643,0.105225,0.703613,0.441895,0.752453,-0.687022,0.039551,-5.495576,-57.249741,51.615768,,,,,,,,,,,,,,,,,,,,,,,,,
1577348131,89,0,4305.641113,4395.384766,4065.128174,4175.897461,4194.871582,450,4,,,,0,4,4,1,0,4,,,,,,,,,,,,,,,,,,,,,,,,,,,,,,,,,,,,,
1577348131,90,0,4302.05127,4404.615234,4048.205078,4179.487305,4230.769043,450,4,,,,0,4,4,1,0,4,45,0,0.546232,0.105225,0.703613,0.442139,0.746105,-0.702647,0.017578,-5.663803,-57.386673,51.538498,,,,,,,,,,,,,,,,,,,,,,,,,
1577348131,91,0,4308.717773,4388.717773,3961.025635,4196.922852,4221.025879,16099,4,,,,0,4,4,1,0,4,,,,,,,,,,,,,,,,,,,,,,,,,,,,,,,,,,,,,
1577348131,92,0,4371.794922,4420,4015.384521,4220,4232.820313,450,4,,,,0,4,4,1,0,4,46,0,0.54643,0.105225,0.703613,0.441895,0.742687,-0.701183,0.038087,-5.635761,-57.390282,51.52877,,,,,,,,,,,,,,,,,,,,,,,,,
1577348131,93,0,4324.615234,4397.94873,4082.05127,4161.025879,4214.871582,450,4,,,,0,4,4,1,0,4,,,,,,,,,,,,,,,,,,,,,,,,,,,,,,,,,,,,,
1577348131,94,0,4231.794922,4364.102539,4110.769043,4188.717773,4154.871582,450,4,,,,0,4,4,1,0,4,47,0,0.546162,0.10498,0.703857,0.441895,0.756848,-0.701671,0.036133,-5.789969,-57.453342,51.460201,,,,,,,,,,,,,,,,,,,,,,,,,
1577348131,95,0,4257.436035,4386.666504,4070.769287,4223.077148,4176.922852,16099,4,,,,0,4,4,1,0,4,,,,,,,,,,,,,,,,,,,,,,,,,,,,,,,,,,,,,
1577348131,96,0,4274.358887,4394.871582,3958.461426,4193.333496,4194.871582,450,4,,,,0,4,4,1,0,4,48,0,0.546406,0.104736,0.703857,0.44165,0.747082,-0.690929,0.037598,-5.749311,-57.270836,51.637749,,,,,,,,,,,,,,,,,,,,,,,,,
1577348131,97,0,4306.666504,4418.461426,3976.410156,4176.410156,4192.820313,450,4,,,,0,4,4,1,0,4,,,,,,,,,,,,,35.258263,7.71318,1.814441,21.226723,7.672184,3.796963,0.98476,2.451852,10.372465,3.498107,3.177263,2.652122,4.721298,79.408241,16.157795,4.431005,3.630428,0.530472,11.020977,17.851763,12.963151,4.723766,4.614906,13.345721,1.975551
1577348131,98,0,4276.410156,4369.743652,4064.615479,4119.487305,4178.461426,450,4,,,,0,4,4,1,0,4,49,0,0.546604,0.104736,0.703857,0.441406,0.714855,-0.67628,0.04004,-5.712718,-57.405659,51.67791,,,,,,,,,,,,,,,,,,,,,,,,,
1577348131,99,0,4192.820313,4317.436035,4135.897461,4182.05127,4142.563965,16099,4,,,,0,4,4,1,0,4,,,,,,,,,,,,,,,,,,,,,,,,,,,,,,,,,,,,,
1577348131,100,0,4236.922852,4375.897461,4116.922852,4263.077148,4170.256348,450,4,,,,0,4,4,1,0,4,50,0,0.546847,0.104492,0.703857,0.441162,0.717784,-0.667491,0.053223,-5.560154,-57.287739,51.65424,,,,,,,,,,,,,,,,,,,,,,,,,
1577348131,101,0,4271.794922,4391.282227,3990.769287,4188.717773,4210.769043,450,4,,,,0,4,4,1,0,4,,,,,,,,,,,,,,,,,,,,,,,,,,,,,,,,,,,,,
1577348131,102,0,4261.025879,4390.769043,3975.897461,4133.333496,4221.538574,450,4,,,,0,4,4,1,0,4,51,0,0.547137,0.104004,0.703857,0.440918,0.713878,-0.662608,0.044434,-5.542477,-57.301239,51.812382,,,,,,,,,,,,,,,,,,,,,,,,,
1577348131,103,0,4244.102539,4397.436035,4037.94873,4125.641113,4218.974121,16099,4,,,,0,4,4,1,0,4,,,,,,,,,,,,,,,,,,,,,,,,,,,,,,,,,,,,,
1577348131,104,0,4201.025879,4375.897461,4070.769287,4204.102539,4203.077148,450,4,,,,0,4,4,1,0,4,52,0,0.54738,0.10376,0.703857,0.440674,0.729015,-0.655283,0.043458,-5.526567,-57.19376,51.894897,,,,,,,,,,,,,,,,,,,,,,,,,
1577348131,105,0,4233.846191,4380.512695,4095.384521,4258.974121,4211.282227,450,4,,,,0,4,4,1,0,4,,,,,,,,,,,,,,,,,,,,,,,,,,,,,,,,,,,,,
1577348131,106,0,4255.897461,4356.922852,4077.435791,4175.384766,4223.077148,450,4,,,,0,4,4,1,0,4,53,0,0.54723,0.103516,0.703857,0.440918,0.743664,-0.654307,0.030762,-5.392618,-57.097027,51.849529,,,,,,,,,,,,,,,,,,,,,,,,,
1577348131,107,0,4220.512695,4354.358887,4100,4148.717773,4248.205078,16099,4,,,,0,4,4,1,0,4,,,,,,,,,,,,,,,,,,,,,,,,,,,,,,,,,,,,,
1577348131,108,0,4235.384766,4401.025879,4052.307617,4168.717773,4271.282227,450,4,,,,0,4,4,1,0,4,54,0,0.546916,0.103516,0.704102,0.440918,0.760266,-0.651865,0.029297,-5.331879,-57.069786,51.928329,,,,,,,,,,,,,,,,,,,,,,,,,
1577348131,109,0,4252.307617,4398.974121,3967.179443,4213.333496,4246.666504,450,4,,,,0,4,4,1,0,4,,,,,,,,,,,,,,,,,,,,,,,,,,,,,,,,,,,,,
1577348131,110,0,4255.384766,4373.333496,4035.384521,4225.128418,4225.128418,450,4,,,,0,4,4,1,0,4,55,0,0.54645,0.103271,0.704346,0.441162,0.736339,-0.654795,0.039063,-5.396845,-57.224712,51.879616,,,,,,,,,,,,,,,,,,,,,,,,,
1577348131,111,0,4224.615234,4322.563965,4109.230957,4141.025879,4206.153809,16099,4,,,,0,4,4,1,0,4,,,,,,,,,,,,,,,,,,,,,,,,,,,,,,,,,,,,,
1577348131,112,0,4160.512695,4297.436035,4142.563965,4154.358887,4207.692383,450,4,,,,0,4,4,1,0,4,56,0,0.546253,0.103271,0.704346,0.441406,0.757336,-0.665537,0.034668,-5.335683,-57.1847,51.895592,,,,,,,,,,,,,,,,,,,,,,,,,
1577348131,113,0,4167.692383,4335.897461,4075.897461,4193.846191,4229.230957,450,4,,,,0,4,4,1,0,4,,,,,,,,,,,,,29.826036,7.910387,2.252651,21.586969,7.390139,3.360808,1.106686,2.891159,9.872732,3.739569,3.768497,2.488425,4.76195,78.783493,16.951653,4.425001,4.02264,0.623918,11.835118,16.920498,11.431096,3.977731,5.013793,13.402453,1.811159
1577348131,114,0,4224.102539,4348.717773,3934.358887,4177.94873,4244.102539,450,4,,,,0,4,4,1,0,4,57,0,0.545543,0.103271,0.70459,0.441895,0.747082,-0.661631,0.036622,-5.280638,-57.148689,51.79034,,,,,,,,,,,,,,,,,,,,,,,,,
1577348131,115,0,4289.230957,4369.743652,3967.692383,4161.538574,4287.692383,16099,4,,,,0,4,4,1,0,4,,,,,,,,,,,,,,,,,,,,,,,,,,,,,,,,,,,,,
1577348131,116,0,4282.05127,4372.820313,4089.230713,4134.871582,4256.922852,450,4,,,,0,4,4,1,0,4,58,0,0.54645,0.103271,0.704346,0.441162,0.736339,-0.654795,0.039063,-5.231097,-57.056465,51.934872,,,,,,,,,,,,,,,,,,,,,,,,,
1577348131,117,0,4190.256348,4322.05127,4179.487305,4195.384766,4208.205078,450,4,,,,0,4,4,1,0,4,,,,,,,,,,,,,,,,,,,,,,,,,,,,,,,,,,,,,
1577348131,118,0,4196.922852,4325.128418,4124.102539,4230.769043,4257.94873,450,4,,,,0,4,4,1,0,4,59,0,0.545543,0.103271,0.70459,0.441895,0.747082,-0.661631,0.036622,-5.18651,-57.033279,51.825691,,,,,,,,,,,,,,,,,,,,,,,,,
1577348131,119,0,4271.794922,4367.179688,3975.384521,4177.436035,4289.743652,16099,4,,,,0,4,4,1,0,4,,,,,,,,,,,,,,,,,,,,,,,,,,,,,,,,,,,,,
1577348131,120,0,4314.358887,4407.179688,3993.846191,4140.512695,4319.487305,450,4,,,,0,4,4,1,0,4,60,0,0.545345,0.103271,0.70459,0.442139,0.723644,-0.687999,0.027344,-5.146382,-57.132042,51.906876,,,,,,,,,,,,,,,,,,,,,,,,,
1577348131,121,0,4312.307617,4407.179688,4023.076904,4111.282227,4298.461426,450,4,,,,0,4,4,1,0,4,,,,,,,,,,,,,,,,,,,,,,,,,,,,,,,,,,,,,
1577348131,122,0,4265.128418,4360,4043.076904,4188.205078,4231.282227,450,4,,,,0,4,4,1,0,4,61,0,0.544878,0.103027,0.704834,0.442383,0.732433,-0.684092,0.041505,-5.289713,-57.101295,51.920124,,,,,,,,,,,,,,,,,,,,,,,,,
1577348131,123,0,4253.333496,4349.743652,4089.743652,4255.384766,4248.717773,16099,4,,,,0,4,4,1,0,4,,,,,,,,,,,,,,,,,,,,,,,,,,,,,,,,,,,,,
1577348131,124,0,4268.205078,4380.512695,4032.820557,4172.820313,4258.974121,450,4,,,,0,4,4,1,0,4,62,0,0.54468,0.103027,0.704834,0.442627,0.705577,-0.688487,0.045411,-5.119634,-57.133442,51.932049,,,,,,,,,,,,,,,,,,,,,,,,,
1577348131,125,0,4309.743652,4404.615234,4017.435791,4126.153809,4290.256348,450,4,,,,0,4,4,1,0,4,,,,,,,,,,,,,,,,,,,,,,,,,,,,,,,,,,,,,
1577348131,126,0,4329.743652,4381.025879,4030.256348,4147.692383,4299.487305,450,4,,,,0,4,4,1,0,4,63,0,0.54468,0.103027,0.704834,0.442627,0.706065,-0.68751,0.046387,-4.966563,-57.102558,51.823151,,,,,,,,,,,,,,,,,,,,,,,,,
1577348131,127,0,4276.410156,4369.743652,3996.410156,4224.615234,4239.487305,234,4,,,,0,4,4,1,0,4,,,,,,,,,,,,,,,,,,,,,,,,,,,,,,,,,,,,,
1577348131,0,0,4272.307617,4417.436035,4039.487061,4241.538574,4256.410156,450,4,,,,0,4,4,1,0,4,0,0,0.544481,0.103027,0.704834,0.442871,0.697276,-0.682139,0.039551,-5.06806,-57.07476,51.784958,,,,,,,,,,,,,,,,,,,,,,,,,
1577348131,1,0,4267.692383,4389.230957,4107.179688,4141.025879,4232.307617,450,4,,,,0,4,4,1,0,4,,,,,,,,,,,,,25.814663,8.273812,2.594368,21.492672,7.066422,2.858274,1.278233,3.282447,9.344854,3.999202,4.22303,2.412061,4.489533,78.702095,17.928055,4.016197,3.925414,0.841219,12.332029,16.411955,9.656736,3.464081,4.904887,13.60532,1.689305
1577348131,2,0,4250.256348,4331.282227,4139.487305,4156.922852,4214.358887,16159,4,,,,0,4,4,1,0,4,1,0,0.544481,0.103027,0.704834,0.442871,0.723644,-0.687999,0.049805,-5.219223,-57.049747,51.810398,,,,,,,,,,,,,,,,,,,,,,,,,
1577348131,3,0,4273.333496,4359.487305,4046.666748,4197.94873,4277.94873,450,4,,,,0,4,4,1,0,4,,,,,,,,,,,,,,,,,,,,,,,,,,,,,,,,,,,,,
1577348131,4,0,4296.410156,4421.538574,3947.692383,4183.589844,4273.846191,16267,4,,,,0,4,4,1,0,4,2,0,0.544282,0.103027,0.704834,0.443115,0.722667,-0.685069,0.055665,-5.235639,-57.266491,51.833294,,,,,,,,,,,,,,,,,,,,,,,,,
1577348131,5,0,4346.666504,4451.794922,4006.666748,4181.538574,4273.333496,450,4,,,,0,4,4,1,0,4,,,,,,,,,,,,,,,,,,,,,,,,,,,,,,,,,,,,,
1577348131,6,0,4317.436035,4400.512695,4056.923096,4130.769043,4235.897461,59,4,,,,0,4,4,1,0,4,3,0,0.544084,0.103027,0.704834,0.443359,0.743175,-0.689952,0.041993,-5.190598,-57.341934,51.853901,,,,,,,,,,,,,,,,,,,,,,,,,
1577348131,7,0,4248.717773,4368.205078,4091.794922,4169.743652,4178.461426,450,4,,,,0,4,4,1,0,4,,,,,,,,,,,,,,,,,,,,,,,,,,,,,,,,,,,,,
1577348131,8,0,4268.717773,4404.615234,4115.384766,4240.512695,4226.153809,450,4,,,,0,4,4,1,0,4,4,0,0.544084,0.103027,0.704834,0.443359,0.731456,-0.680186,0.046387,-5.209877,-57.290199,51.932262,,,,,,,,,,,,,,,,,,,,,,,,,
1577348131,9,0,4305.128418,4409.743652,4023.076904,4209.743652,4248.205078,10,4,,,,0,4,4,1,0,4,,,,,,,,,,,,,,,,,,,,,,,,,,,,,,,,,,,,,
1577348131,10,0,4376.410156,4428.717773,3984.102539,4162.05127,4257.436035,450,4,,,,0,4,4,1,0,4,5,0,0.544247,0.102783,0.70459,0.443604,0.720226,-0.678721,0.04004,-4.987966,-57.303455,52.002789,,,,,,,,,,,,,,,,,,,,,,,,,
1577348131,11,0,4353.846191,4405.128418,4024.615479,4115.384766,4249.743652,16111,4,,,,0,4,4,1,0,4,,,,,,,,,,,,,,,,,,,,,,,,,,,,,,,,,,,,,
1577348131,12,0,4248.717773,4360,4111.794922,4192.307617,4183.077148,450,4,,,,0,4,4,1,0,4,6,0,0.544048,0.102783,0.70459,0.443848,0.734874,-0.678233,0.044923,-4.967692,-57.375198,52.006447,,,,,,,,,,,,,,,,,,,,,,,,,
1577348131,13,0,4274.358887,4404.615234,4121.538574,4270.769043,4189.230957,450,4,,,,0,4,4,1,0,4,,,,,,,,,,,,,,,,,,,,,,,,,,,,,,,,,,,,,
1577348131,14,0,4302.563965,4405.641113,4036.923096,4190.769043,4210.769043,450,4,,,,0,4,4,1,0,4,7,0,0.543931,0.102783,0.704834,0.443604,0.74757,-0.684581,0.047364,-4.949446,-57.43977,52.069553,,,,,,,,,,,,,,,,,,,,,,,,,
1577348131,15,0,4311.282227,4385.641113,4046.153809,4141.538574,4205.128418,16111,4,,,,0,4,4,1,0,4,,,,,,,,,,,,,,,,,,,,,,,,,,,,,,,,,,,,,
1577348131,16,0,4303.589844,4391.282227,4002.564209,4155.384766,4215.897461,0,4,,,,0,4,4,1,0,4,8,0,0.543614,0.102783,0.705078,0.443604,0.741711,-0.685557,0.04004,-5.052655,-57.378254,51.946907,,,,,,,,,,,,,,,,,,,,,,,,,
1577348131,17,0,4232.307617,4380,3958.461426,4234.871582,4194.871582,0,4,,,,0,4,4,1,0,4,,,,,,,,,,,,,23.81329,8.45734,2.767579,21.11095,6.813097,2.461654,1.406837,3.444521,8.93054,4.119702,4.350867,2.442643,4.013449,79.138031,18.745424,3.297662,3.39483,1.159325,12.379319,16.415884,8.248461,3.20342,4.334728,13.919985,1.616547
1577348131,18,0,4234.358887,4393.846191,4067.692383,4263.077148,4174.871582,0,4,,,,0,4,4,1,0,4,9,0,0.543568,0.103027,0.705078,0.443604,0.709972,-0.685557,0.054688,-5.145543,-57.382702,52.015968,,,,,,,,,,,,,,,,,,,,,,,,,
1577348131,19,0,4211.794922,4367.692383,4095.897461,4162.05127,4160,0,4,,,,0,4,4,1,0,4,,,,,,,,,,,,,,,,,,,,,,,,,,,,,,,,,,,,,
1577348131,20,0,4141.538574,4356.922852,4090.256348,4162.563965,4147.179688,0,4,,,,0,4,4,1,0,4,10,0,0.543991,0.103516,0.704834,0.443359,0.69044,-0.674815,0.056641,-5.169327,-57.386707,52.018307,,,,,,,,,,,,,,,,,,,,,,,,,
1577348131,21,0,4151.794922,4381.025879,4049.230713,4186.153809,4164.615234,0,4,,,,0,4,4,1,0,4,,,,,,,,,,,,,,,,,,,,,,,,,,,,,,,,,,,,,
1577348131,22,0,4161.538574,4361.538574,3960,4184.102539,4177.94873,0,4,,,,0,4,4,1,0,4,11,0,0.543944,0.10376,0.704834,0.443359,0.715831,-0.664073,0.039063,-5.130917,-57.330498,52.080227,,,,,,,,,,,,,,,,,,,,,,,,,
1577348131,23,0,4180.512695,4392.307617,4006.666748,4207.179688,4184.615234,0,4,,,,0,4,4,1,0,4,,,,,,,,,,,,,,,,,,,,,,,,,,,,,,,,,,,,,
1577348131,24,0,4175.384766,4397.94873,4098.461426,4164.102539,4153.846191,0,4,1,1,1,0,4,4,1,0,4,12,0,0.544366,0.104248,0.70459,0.443115,0.72462,-0.676768,0.048341,-5.156164,-57.279907,52.13596,,,,,,,,,,,,,,,,,,,,,,,,,
1577348131,25,0,4104.102539,4345.641113,4141.538574,4174.871582,4115.384766,0,4,,,,0,4,4,1,0,4,,,,,,,,,,,,,,,,,,,,,,,,,,,,,,,,,,,,,
1577348131,26,0,4103.589844,4355.897461,4088.718018,4211.794922,4140.512695,0,4,,,,0,4,4,1,0,4,13,0,0.544366,0.104248,0.70459,0.443115,0.732433,-0.685069,0.033692,-5.298516,-57.294189,52.066483,,,,,,,,,,,,,,,,,,,,,,,,,
1577348131,27,0,4157.436035,4377.436035,3948.718018,4207.179688,4173.333496,0,4,,,,0,4,4,1,0,4,,,,,,,,,,,,,,,,,,,,,,,,,,,,,,,,,,,,,
1577348131,28,0,4175.897461,4390.256348,3952.820557,4182.563965,4181.538574,0,4,,,,0,4,4,1,0,4,14,0,0.544635,0.104492,0.704346,0.443115,0.728038,-0.682628,0.027832,-5.366818,-57.366863,52.123589,,,,,,,,,,,,,,,,,,,,,,,,,
1577348131,29,0,4136.922852,4373.333496,4086.153809,4120.512695,4153.846191,0,4,,,,0,4,4,1,0,4,,,,,,,,,,,,,,,,,,,,,,,,,,,,,,,,,,,,,
1577348131,30,0,4061.538574,4311.282227,4191.282227,4175.384766,4116.922852,0,4,,,,0,4,4,1,0,4,15,0,0.544436,0.104492,0.704346,0.443359,0.739269,-0.665537,0.026368,-5.368475,-57.252819,52.055351,,,,,,,,,,,,,,,,,,,,,,,,,
1577348131,31,0,4055.897461,4309.743652,4106.153809,4244.615234,4126.666504,0,4,,,,0,4,4,1,0,4,,,,,,,,,,,,,,,,,,,,,,,,,,,,,,,,,,,,,
1577348131,32,0,4106.666504,4362.563965,3956.410156,4189.743652,4159.487305,0,4,,,,0,4,4,1,0,4,16,0,0.544284,0.104248,0.704346,0.443604,0.729015,-0.672862,0.03418,-5.250335,-57.150185,52.173382,,,,,,,,,,,,,,,,,,,,,,,,,
1577348131,33,0,4147.692383,4393.846191,4012.307617,4141.025879,4213.333496,0,4,,,,0,4,4,1,0,4,,,,,,,,,,,,,22.706388,8.12085,2.760655,20.650225,6.732155,2.317731,1.469499,3.267572,8.772248,4.036872,4.100587,2.607554,3.500188,80.258408,19.214769,2.457411,2.633919,1.501838,11.994851,16.843018,7.531623,3.115568,3.498302,14.30732,1.591833
1577348131,34,0,4144.102539,4358.461426,4064.615479,4118.974121,4205.641113,0,4,,,,0,4,4,1,0,4,17,0,0.544132,0.104004,0.704346,0.443848,0.743175,-0.671397,0.041016,-5.26364,-57.177441,52.040352,,,,,,,,,,,,,,,,,,,,,,,,,
1577348131,35,0,4105.641113,4318.461426,4036.923096,4185.641113,4154.871582,0,4,,,,0,4,4,1,0,4,,,,,,,,,,,,,,,,,,,,,,,,,,,,,,,,,,,,,
1577348131,36,0,4133.333496,4349.743652,4075.384521,4242.05127,4187.692383,0,4,,,,0,4,4,1,0,4,18,0,0.544026,0.103516,0.704346,0.444092,0.730968,-0.677256,0.046876,-5.275614,-56.962711,51.92062,,,,,,,,,,,,,,,,,,,,,,,,,
1577348131,37,0,4164.102539,4361.538574,4093.846191,4167.179688,4209.230957,0,4,,,,0,4,4,1,0,4,,,,,,,,,,,,,,,,,,,,,,,,,,,,,,,,,,,,,
1577348131,38,0,4141.025879,4338.461426,4110.769043,4127.179688,4209.230957,0,4,,,,0,4,4,1,0,4,19,0,0.543919,0.103027,0.704346,0.444336,0.714855,-0.682139,0.033692,-5.346206,-57.128345,51.872681,,,,,,,,,,,,,,,,,,,,,,,,,
1577348131,39,0,4151.282227,4350.256348,4060.512939,4149.743652,4224.102539,0,4,,,,0,4,4,1,0,4,,,,,,,,,,,,,,,,,,,,,,,,,,,,,,,,,,,,,
1577348131,40,0,4176.410156,4384.615234,3948.718018,4201.025879,4221.538574,0,4,,,,0,4,4,1,0,4,20,0,0.543766,0.102783,0.704346,0.44458,0.723156,-0.672862,0.041505,-5.409739,-57.038155,51.889351,,,,,,,,,,,,,,,,,,,,,,,,,
1577348131,41,0,4195.897461,4390.769043,4002.05127,4204.615234,4237.436035,0,4,,,,0,4,4,1,0,4,,,,,,,,,,,,,,,,,,,,,,,,,,,,,,,,,,,,,
1577348131,42,0,4173.333496,4334.358887,4127.179688,4134.358887,4201.025879,0,4,,,,0,4,4,1,0,4,21,0,0.543566,0.102783,0.704346,0.444824,0.708995,-0.672862,0.036622,-5.407104,-57.0168,51.90435,,,,,,,,,,,,,,,,,,,,,,,,,
1577348131,43,0,4141.538574,4308.717773,4175.384766,4164.615234,4179.487305,0,4,,,,0,4,4,1,0,4,,,,,,,,,,,,,,,,,,,,,,,,,,,,,,,,,,,,,
1577348131,44,0,4180.512695,4350.769043,4063.589844,4198.974121,4223.589844,0,4,,,,0,4,4,1,0,4,22,0,0.543636,0.103027,0.704102,0.445068,0.709972,-0.686534,0.042481,-5.285101,-56.997578,52.037483,,,,,,,,,,,,,,,,,,,,,,,,,
1577348131,45,0,4228.205078,4381.538574,3938.461426,4172.820313,4238.461426,0,4,,,,0,4,4,1,0,4,,,,,,,,,,,,,,,,,,,,,,,,,,,,,,,,,,,,,
1577348131,46,0,4272.307617,4399.487305,3996.923096,4149.743652,4273.333496,0,4,,,,0,4,4,1,0,4,23,0,0.543766,0.102783,0.704346,0.44458,0.723156,-0.672862,0.041505,-5.354744,-56.920464,52.037674,,,,,,,,,,,,,,,,,,,,,,,,,
1577348131,47,0,4251.794922,4376.922852,4056.410156,4106.666504,4245.641113,0,4,,,,0,4,4,1,0,4,,,,,,,,,,,,,,,,,,,,,,,,,,,,,,,,,,,,,
1577348131,48,0,4185.128418,4335.897461,4085.641113,4168.717773,4188.205078,0,4,,,,0,4,4,1,0,4,24,0,0.543636,0.103027,0.704102,0.445068,0.709972,-0.686534,0.042481,-5.237978,-56.910877,52.157475,,,,,,,,,,,,,,,,,,,,,,,,,
1577348131,49,0,4220.512695,4362.05127,4129.743652,4246.666504,4243.077148,0,4,,,,0,4,4,1,0,4,,,,,,,,,,,,,20.74996,7.173257,2.640507,20.320772,6.869453,2.446971,1.511335,2.787595,8.908968,3.802426,3.590165,2.90418,3.087228,81.923553,19.187252,1.704297,1.896748,1.774914,11.287021,17.543119,7.499622,3.068545,2.641203,14.738029,1.608621
1577348131,50,0,4283.077148,4398.974121,4072.820557,4195.384766,4293.846191,0,4,,,,0,4,4,1,0,4,25,0,0.54359,0.103271,0.704102,0.445068,0.708507,-0.678233,0.042969,-5.312334,-56.902252,52.265293,,,,,,,,,,,,,,,,,,,,,,,,,
1577348131,51,0,4306.153809,4408.205078,4007.692383,4123.077148,4316.922852,0,4,,,,0,4,4,1,0,4,,,,,,,,,,,,,,,,,,,,,,,,,,,,,,,,,,,,,
1577348131,52,0,4276.410156,4388.205078,3985.128174,4100.512695,4273.333496,0,4,,,,0,4,4,1,0,4,26,0,0.54359,0.103271,0.704102,0.445068,0.719738,-0.692882,0.035645,-5.439069,-56.894485,52.302517,,,,,,,,,,,,,,,,,,,,,,,,,
1577348131,53,0,4215.897461,4362.05127,4062.564209,4193.333496,4202.05127,0,4,,,,0,4,4,1,0,4,,,,,,,,,,,,,,,,,,,,,,,,,,,,,,,,,,,,,
1577348131,54,0,4213.333496,4363.589844,4104.102539,4252.307617,4220.512695,0,4,,,,0,4,4,1,0,4,27,0,0.54386,0.103516,0.703857,0.445068,0.731945,-0.710948,0.038087,-5.194239,-56.827682,52.216385,,,,,,,,,,,,,,,,,,,,,,,,,
1577348131,55,0,4228.717773,4365.128418,4029.743652,4172.820313,4216.922852,0,4,,,,0,4,4,1,0,4,,,,,,,,,,,,,,,,,,,,,,,,,,,,,,,,,,,,,
1577348131,56,0,4269.230957,4397.94873,4033.846191,4140.512695,4227.692383,0,4,,,,0,4,4,1,0,4,28,0,0.543929,0.10376,0.703613,0.445313,0.726085,-0.719249,0.03711,-5.272969,-56.827374,52.13887,,,,,,,,,,,,,,,,,,,,,,,,,
1577348131,57,0,4284.615234,4408.717773,4041.538574,4152.307617,4250.769043,0,4,,,,0,4,4,1,0,4,,,,,,,,,,,,,,,,,,,,,,,,,,,,,,,,,,,,,
1577348131,58,0,4247.179688,4389.230957,3969.230713,4193.846191,4214.871582,0,4,,,,0,4,4,1,0,4,29,0,0.544176,0.103516,0.703613,0.445068,0.748058,-0.699229,0.025391,-5.403641,-56.946724,52.188732,,,,,,,,,,,,,,,,,,,,,,,,,
1577348131,59,0,4266.153809,4406.153809,4027.179443,4222.05127,4214.358887,0,4,,,,0,4,4,1,0,4,,,,,,,,,,,,,,,,,,,,,,,,,,,,,,,,,,,,,
1577348131,60,0,4255.897461,4379.487305,4122.563965,4162.05127,4187.179688,0,4,,,,0,4,4,1,0,4,30,0,0.544491,0.103516,0.703369,0.445068,0.731945,-0.704112,0.026856,-5.461431,-56.934513,52.113983,,,,,,,,,,,,,,,,,,,,,,,,,
1577348131,61,0,4220.512695,4370.769043,4134.871582,4163.589844,4167.692383,0,4,,,,0,4,4,1,0,4,,,,,,,,,,,,,,,,,,,,,,,,,,,,,,,,,,,,,
1577348131,62,0,4245.641113,4415.897461,4029.230713,4204.615234,4215.897461,0,4,,,,0,4,4,1,0,4,31,0,0.544982,0.103027,0.703369,0.44458,0.73048,-0.705089,0.01416,-5.513441,-56.923523,52.106522,,,,,,,,,,,,,,,,,,,,,,,,,
1577348131,63,0,4281.025879,4424.615234,3939.487061,4220,4218.461426,0,4,,,,0,4,4,1,0,4,,,,,,,,,,,,,,,,,,,,,,,,,,,,,,,,,,,,,
1577348131,64,0,4325.128418,4422.563965,3997.435791,4193.846191,4223.077148,450,4,,,,0,4,4,1,0,4,32,0,0.545203,0.102295,0.703613,0.444092,0.729503,-0.687999,0.011719,-5.560251,-56.913628,52.099804,,,,,,,,,,,,,,,,,,,,,,,,,
1577348131,65,0,4274.358887,4377.94873,4052.820557,4110.256348,4197.94873,450,4,,,,0,4,4,1,0,4,,,,,,,,,,,,,17.688795,5.801296,2.511907,20.212992,7.201484,2.757277,1.588132,2.160949,9.260209,3.566647,2.998192,3.288134,2.901152,84.0243,18.800035,1.167572,1.358091,1.908096,10.412475,18.37314,7.730434,2.976117,1.948085,15.176364,1.660095
1577348131,66,0,4194.871582,4355.897461,4093.846191,4164.615234,4139.487305,16076,4,,,,0,4,4,1,0,4,33,0,0.545422,0.101563,0.703857,0.443604,0.735363,-0.673838,0.01709,-5.542564,-57.024357,51.974133,,,,,,,,,,,,,,,,,,,,,,,,,
1577348131,67,0,4228.717773,4401.025879,4112.307617,4243.589844,4175.384766,450,4,,,,0,4,4,1,0,4,,,,,,,,,,,,,,,,,,,,,,,,,,,,,,,,,,,,,
1577348131,68,0,4255.384766,4404.615234,4018.461426,4186.666504,4200,16195,4,,,,0,4,4,1,0,4,34,0,0.545712,0.101074,0.703857,0.443359,0.736339,-0.667979,0.027832,-5.586461,-56.944565,51.980656,,,,,,,,,,,,,,,,,,,,,,,,,
1577348131,69,0,4299.487305,4410.769043,3975.384521,4144.615234,4187.179688,450,4,,,,0,4,4,1,0,4,,,,,,,,,,,,,,,,,,,,,,,,,,,,,,,,,,,,,
1577348131,70,0,4298.974121,4388.717773,4011.794922,4143.589844,4181.538574,64,4,,,,0,4,4,1,0,4,35,0,0.545685,0.100586,0.704102,0.443115,0.715831,-0.648447,0.026856,-5.625969,-56.992382,51.926712,,,,,,,,,,,,,,,,,,,,,,,,,
1577348132,71,0,4223.077148,4347.692383,4093.333252,4228.717773,4161.538574,450,4,,,,0,4,4,1,0,4,,,,,,,,,,,,,,,,,,,,,,,,,,,,,,,,,,,,,
1577348132,72,0,4239.487305,4393.846191,4121.025879,4275.897461,4179.487305,450,4,,,,0,4,4,1,0,4,36,0,0.545415,0.100342,0.704346,0.443115,0.735851,-0.663096,0.043946,-5.541895,-56.975605,51.937977,,,,,,,,,,,,,,,,,,,,,,,,,
1577348132,73,0,4253.333496,4403.077148,4061.538574,4180.512695,4193.333496,24,4,,,,0,4,4,1,0,4,,,,,,,,,,,,,,,,,,,,,,,,,,,,,,,,,,,,,
1577348132,74,0,4258.461426,4383.077148,4058.974365,4138.974121,4196.410156,450,4,,,,0,4,4,1,0,4,37,0,0.544991,0.099854,0.70459,0.443359,0.740246,-0.652354,0.035157,-5.526043,-56.900688,51.888302,,,,,,,,,,,,,,,,,,,,,,,,,
1577348132,75,0,4262.563965,4398.974121,3995.384521,4145.128418,4210.256348,16172,4,,,,0,4,4,1,0,4,,,,,,,,,,,,,,,,,,,,,,,,,,,,,,,,,,,,,
1577348132,76,0,4210.769043,4401.025879,3949.230713,4201.025879,4188.205078,450,4,,,,0,4,4,1,0,4,38,0,0.544837,0.099609,0.70459,0.443604,0.750011,-0.658213,0.031739,-5.511777,-56.952896,51.963223,,,,,,,,,,,,,,,,,,,,,,,,,
1577348132,77,0,4234.358887,4383.589844,4056.410156,4240.512695,4174.358887,450,4,,,,0,4,4,1,0,4,,,,,,,,,,,,,,,,,,,,,,,,,,,,,,,,,,,,,
1577348132,78,0,4233.333496,4327.692383,4095.384521,4173.846191,4167.692383,450,4,,,,0,4,4,1,0,4,39,0,0.544366,0.099365,0.704834,0.443848,0.754406,-0.665537,0.036133,-5.498938,-56.940067,52.030651,,,,,,,,,,,,,,,,,,,,,,,,,
1577348132,79,0,4164.102539,4321.538574,4099.487305,4170.769043,4169.230957,16172,4,,,,0,4,4,1,0,4,,,,,,,,,,,,,,,,,,,,,,,,,,,,,,,,,,,,,
1577348132,80,0,4185.128418,4358.974121,4051.281982,4172.820313,4202.563965,450,4,,,,0,4,4,1,0,4,40,0,0.543785,0.098633,0.705078,0.444336,0.757336,-0.684092,0.028321,-5.427567,-56.988335,52.031525,,,,,,,,,,,,,,,,,,,,,,,,,
1577348132,81,0,4226.153809,4361.538574,3951.794922,4172.820313,4219.487305,450,4,,,,0,4,4,1,0,4,,,,,,,,,,,,,15.115161,4.558698,2.466706,20.302038,7.634904,3.082685,1.744006,1.579973,9.679826,3.489389,2.487101,3.625849,2.966849,86.379684,18.348158,0.877328,1.050013,1.890998,9.497037,19.234245,7.99856,2.940357,1.470483,15.581086,1.744925
1577348132,82,0,4242.05127,4398.461426,4003.589844,4194.871582,4220.512695,450,4,,,,0,4,4,1,0,4,41,0,0.543557,0.098145,0.705322,0.444336,0.759289,-0.68751,0.034668,-5.423149,-57.151405,51.972492,,,,,,,,,,,,,,,,,,,,,,,,,
1577348132,83,0,4221.025879,4369.230957,4097.94873,4139.487305,4195.384766,16172,4,,,,0,4,4,1,0,4,,,,,,,,,,,,,,,,,,,,,,,,,,,,,,,,,,,,,
1577348132,84,0,4155.897461,4298.974121,4143.589844,4151.282227,4171.794922,450,4,,,,0,4,4,1,0,4,42,0,0.543371,0.097412,0.705566,0.444336,0.757824,-0.683116,0.035157,-5.419172,-57.178539,52.098812,,,,,,,,,,,,,,,,,,,,,,,,,
1577348132,85,0,4173.333496,4343.589844,4088.718018,4205.641113,4209.230957,450,4,,,,0,4,4,1,0,4,,,,,,,,,,,,,,,,,,,,,,,,,,,,,,,,,,,,,
1577348132,86,0,4251.282227,4389.230957,3941.538574,4196.410156,4253.846191,450,4,,,,0,4,4,1,0,4,43,0,0.543428,0.096436,0.705811,0.444092,0.755871,-0.680674,0.040528,-5.355778,-57.143147,52.152683,,,,,,,,,,,,,,,,,,,,,,,,,
1577348132,87,0,4288.717773,4386.666504,3948.205078,4156.922852,4270.256348,16172,4,,,,0,4,4,1,0,4,,,,,,,,,,,,,,,,,,,,,,,,,,,,,,,,,,,,,
1577348132,88,0,4257.94873,4363.077148,4088.205078,4124.102539,4233.846191,450,4,,,,0,4,4,1,0,4,44,0,0.542891,0.095215,0.706543,0.443848,0.758312,-0.667979,0.043946,-5.358538,-57.051476,52.14135,,,,,,,,,,,,,,,,,,,,,,,,,
1577348132,89,0,4191.794922,4317.436035,4194.358887,4203.077148,4207.692383,450,4,,,,0,4,4,1,0,4,,,,,,,,,,,,,,,,,,,,,,,,,,,,,,,,,,,,,
1577348132,90,0,4186.666504,4313.846191,4115.897461,4249.743652,4240.512695,450,4,,,,0,4,4,1,0,4,45,0,0.542825,0.094238,0.707031,0.443359,0.732921,-0.656748,0.044434,-5.361023,-57.148418,52.071339,,,,,,,,,,,,,,,,,,,,,,,,,
1577348132,91,0,4219.487305,4342.05127,3965.641113,4176.410156,4253.846191,16172,4,,,,0,4,4,1,0,4,,,,,,,,,,,,,,,,,,,,,,,,,,,,,,,,,,,,,
1577348132,92,0,4260,4381.538574,4002.05127,4125.128418,4283.589844,450,4,,,,0,4,4,1,0,4,46,0,0.542556,0.093262,0.70752,0.443115,0.716808,-0.628428,0.056641,-5.423074,-57.116035,52.247585,,,,,,,,,,,,,,,,,,,,,,,,,
1577348132,93,0,4285.641113,4389.743652,4070.256348,4106.666504,4287.692383,450,4,,,,0,4,4,1,0,4,,,,,,,,,,,,,,,,,,,,,,,,,,,,,,,,,,,,,
1577348132,94,0,4285.641113,4344.102539,4050.769287,4184.615234,4265.128418,450,4,,,,0,4,4,1,0,4,47,0,0.542363,0.092529,0.707764,0.443115,0.71046,-0.627451,0.054688,-5.35929,-56.907448,52.16695,,,,,,,,,,,,,,,,,,,,,,,,,
1577348132,95,0,4344.615234,4332.307617,4080.512939,4253.333496,4325.128418,16172,4,,,,0,4,4,1,0,4,,,,,,,,,,,,,,,,,,,,,,,,,,,,,,,,,,,,,
1577348132,96,0,4391.282227,4359.487305,4107.692383,4178.461426,4362.563965,450,4,,,,0,4,4,1,0,4,48,0,0.54165,0.091797,0.708252,0.443359,0.74464,-0.632822,0.062989,-5.48133,-56.899162,52.094376,,,,,,,,,,,,,,,,,,,,,,,,,
1577348132,97,0,4382.563965,4362.563965,4121.538574,4126.666504,4375.897461,450,4,,,,0,4,4,1,0,4,,,,,,,,,,,,,14.173469,3.874255,2.49582,20.502014,8.056571,3.246903,1.976466,1.164854,10.014083,3.643307,2.121518,3.760412,3.172529,88.795135,18.117914,0.788395,0.904923,1.768021,8.64487,20.077951,7.98038,3.047056,1.143939,15.924318,1.865535
1577348132,98,0,4405.128418,4351.282227,4048.205078,4148.717773,4396.922852,450,4,,,,0,4,4,1,0,4,49,0,0.541013,0.091309,0.708496,0.443848,0.736339,-0.632822,0.064454,-5.471535,-56.891705,52.088875,,,,,,,,,,,,,,,,,,,,,,,,,
1577348132,99,0,4435.897461,4366.153809,3958.461426,4211.282227,4388.717773,16172,4,,,,0,4,4,1,0,4,,,,,,,,,,,,,,,,,,,,,,,,,,,,,,,,,,,,,
1577348132,100,0,4466.666504,4394.871582,4026.153809,4215.384766,4407.692383,450,4,,,,0,4,4,1,0,4,50,0,0.540653,0.091064,0.708496,0.444336,0.716808,-0.635264,0.062013,-5.46272,-56.884995,52.024109,,,,,,,,,,,,,,,,,,,,,,,,,
1577348132,101,0,4441.538574,4364.615234,4104.615234,4128.717773,4376.410156,450,4,,,,0,4,4,1,0,4,,,,,,,,,,,,,,,,,,,,,,,,,,,,,,,,,,,,,
1577348132,102,0,4380.512695,4320,4130.769043,4142.563965,4335.384766,450,4,,,,0,4,4,1,0,4,51,0,0.54165,0.091797,0.708252,0.443359,0.74464,-0.632822,0.062989,-5.574417,-56.878956,51.96582,,,,,,,,,,,,,,,,,,,,,,,,,
1577348132,103,0,4401.538574,4325.128418,4055.384521,4199.487305,4364.615234,16172,4,,,,0,4,4,1,0,4,,,,,,,,,,,,,,,,,,,,,,,,,,,,,,,,,,,,,
1577348132,104,0,4449.743652,4366.666504,3937.94873,4209.230957,4393.846191,450,4,,,,0,4,4,1,0,4,52,0,0.540653,0.091064,0.708496,0.444336,0.716808,-0.635264,0.062013,-5.555314,-56.87352,51.913361,,,,,,,,,,,,,,,,,,,,,,,,,
1577348132,105,0,4474.358887,4422.05127,3985.641113,4180.512695,4431.794922,450,4,,,,0,4,4,1,0,4,,,,,,,,,,,,,,,,,,,,,,,,,,,,,,,,,,,,,
1577348132,106,0,4449.230957,4406.666504,4056.410156,4108.717773,4392.307617,450,4,,,,0,4,4,1,0,4,53,0,0.539931,0.091064,0.70874,0.444824,0.74464,-0.658213,0.054688,-5.597936,-57.048073,51.985775,,,,,,,,,,,,,,,,,,,,,,,,,
1577348132,107,0,4393.333496,4347.179688,4110.256348,4170.256348,4332.307617,16172,4,,,,0,4,4,1,0,4,,,,,,,,,,,,,,,,,,,,,,,,,,,,,,,,,,,,,
1577348132,108,0,4386.153809,4352.820313,4115.384766,4251.282227,4367.179688,450,4,,,,0,4,4,1,0,4,54,0,0.539167,0.091309,0.708984,0.445313,0.746105,-0.669444,0.057618,-5.57648,-57.085541,51.93132,,,,,,,,,,,,,,,,,,,,,,,,,
1577348132,109,0,4405.641113,4387.179688,4015.897461,4190.256348,4388.205078,450,4,,,,0,4,4,1,0,4,,,,,,,,,,,,,,,,,,,,,,,,,,,,,,,,,,,,,
1577348132,110,0,4453.846191,4418.974121,3987.692383,4136.410156,4418.974121,450,4,,,,0,4,4,1,0,4,55,0,0.5384,0.091553,0.709229,0.445801,0.737804,-0.67042,0.058106,-5.616986,-57.059448,51.942123,,,,,,,,,,,,,,,,,,,,,,,,,
1577348132,111,0,4446.666504,4397.94873,4036.923096,4120,4398.974121,16172,4,,,,0,4,4,1,0,4,,,,,,,,,,,,,,,,,,,,,,,,,,,,,,,,,,,,,
