title:lo, start timestamp:2019-12-27T07:49:55.797054+03:00, stop timestamp:2019-12-27T07:50:26.512788+03:00, headset type:INSIGHT, headset serial:A2D200FB, headset firmware:930, subject name:Qasim, channels:44, sampling rate:eeg_128;pow_8, samples:3941      , version:2.0
Timestamp,EEG.Counter,EEG.Interpolated,EEG.AF3,EEG.T7,EEG.Pz,EEG.T8,EEG.AF4,EEG.RawCq,EEG.Battery,MarkerIndex,MarkerType,MarkerValueInt,EEG.MarkerHardware,CQ.AF3,CQ.T7,CQ.Pz,CQ.T8,CQ.AF4,POW.AF3.Theta,POW.AF3.Alpha,POW.AF3.BetaL,POW.AF3.BetaH,POW.AF3.Gamma,POW.T7.Theta,POW.T7.Alpha,POW.T7.BetaL,POW.T7.BetaH,POW.T7.Gamma,POW.Pz.Theta,POW.Pz.Alpha,POW.Pz.BetaL,POW.Pz.BetaH,POW.Pz.Gamma,POW.T8.Theta,POW.T8.Alpha,POW.T8.BetaL,POW.T8.BetaH,POW.T8.Gamma,POW.AF4.Theta,POW.AF4.Alpha,POW.AF4.BetaL,POW.AF4.BetaH,POW.AF4.Gamma
1577422195.797054,2.000000,0.000000,3979.487061,4071.281982,3707.179443,3902.564209,3956.923096,16285.000000,4.000000,,,,0.000000,4.000000,4.000000,4.000000,4.000000,4.000000,,,,,,,,,,,,,,,,,,,,,,,,,
1577422195.804958,3.000000,0.000000,4260.512695,4317.948730,3966.153809,4351.282227,4277.948730,450.000000,4.000000,,,,0.000000,4.000000,4.000000,4.000000,4.000000,4.000000,,,,,,,,,,,,,,,,,,,,,,,,,
1577422195.812761,4.000000,0.000000,4331.282227,4351.794922,4007.179443,4204.615234,4254.358887,16252.000000,4.000000,,,,0.000000,4.000000,4.000000,4.000000,4.000000,4.000000,,,,,,,,,,,,,,,,,,,,,,,,,
1577422195.820664,5.000000,0.000000,4104.615234,4168.205078,3812.820557,4035.384521,4055.897461,450.000000,4.000000,,,,0.000000,4.000000,4.000000,4.000000,4.000000,4.000000,,,,,,,,,,,,,,,,,,,,,,,,,
1577422195.828467,6.000000,0.000000,4221.025879,4277.436035,3927.179443,4224.615234,4192.820313,16186.000000,4.000000,,,,0.000000,4.000000,4.000000,4.000000,4.000000,4.000000,,,,,,,,,,,,,,,,,,,,,,,,,
1577422195.836371,7.000000,0.000000,4305.641113,4344.102539,4000.000000,4196.922852,4230.256348,450.000000,4.000000,,,,0.000000,4.000000,4.000000,4.000000,4.000000,4.000000,32.932842,6.797604,4.052809,7.942241,6.742001,33.333485,5.408476,5.631031,3.403173,4.387173,2774.485107,3342.889404,1898.017822,571.567139,181.740814,8.954679,7.090794,4.563453,3.924888,12.608884,16.563084,7.890349,4.564533,6.925686,8.394641
1577422195.844174,8.000000,0.000000,4177.436035,4244.102539,3894.358887,4101.538574,4119.487305,450.000000,4.000000,,,,0.000000,4.000000,4.000000,4.000000,4.000000,4.000000,,,,,,,,,,,,,,,,,,,,,,,,,
1577422195.852077,9.000000,0.000000,4229.230957,4290.256348,3954.871826,4223.589844,4201.025879,16211.000000,4.000000,,,,0.000000,4.000000,4.000000,4.000000,4.000000,4.000000,,,,,,,,,,,,,,,,,,,,,,,,,
1577422195.859880,10.000000,0.000000,4256.410156,4294.358887,3984.102539,4167.692383,4196.410156,450.000000,4.000000,,,,0.000000,4.000000,4.000000,4.000000,4.000000,4.000000,,,,,,,,,,,,,,,,,,,,,,,,,
1577422195.867783,11.000000,0.000000,4137.948730,4213.333496,3904.615479,4102.051270,4107.692383,16256.000000,4.000000,,,,0.000000,4.000000,4.000000,4.000000,4.000000,4.000000,,,,,,,,,,,,,,,,,,,,,,,,,
1577422195.875586,12.000000,0.000000,4250.769043,4317.436035,4028.205078,4225.128418,4245.641113,450.000000,4.000000,,,,0.000000,4.000000,4.000000,4.000000,4.000000,4.000000,,,,,,,,,,,,,,,,,,,,,,,,,
1577422195.883488,13.000000,0.000000,4147.692383,4214.871582,3949.230713,4101.538574,4130.769043,450.000000,4.000000,,,,0.000000,4.000000,4.000000,4.000000,4.000000,4.000000,,,,,,,,,,,,,,,,,,,,,,,,,
1577422195.891291,14.000000,0.000000,4124.615234,4205.128418,3945.641113,4164.102539,4118.974121,450.000000,4.000000,,,,0.000000,4.000000,4.000000,4.000000,4.000000,4.000000,,,,,,,,,,,,,,,,,,,,,,,,,
1577422195.899194,15.000000,0.000000,4273.333496,4322.563965,4072.820557,4215.384766,4236.410156,16256.000000,4.000000,,,,0.000000,4.000000,4.000000,4.000000,4.000000,4.000000,,,,,,,,,,,,,,,,,,,,,,,,,
1577422195.907098,16.000000,0.000000,4173.333496,4238.974121,3985.641113,4101.538574,4144.615234,0.000000,4.000000,,,,0.000000,4.000000,4.000000,4.000000,4.000000,4.000000,,,,,,,,,,,,,,,,,,,,,,,,,
1577422195.914902,17.000000,0.000000,4136.922852,4223.077148,3960.000000,4160.000000,4134.358887,0.000000,4.000000,,,,0.000000,4.000000,4.000000,4.000000,4.000000,4.000000,,,,,,,,,,,,,,,,,,,,,,,,,
1577422195.922805,18.000000,0.000000,4120.512695,4214.871582,3957.435791,4165.128418,4115.897461,0.000000,4.000000,,,,0.000000,4.000000,4.000000,4.000000,4.000000,4.000000,,,,,,,,,,,,,,,,,,,,,,,,,
1577422195.930609,19.000000,0.000000,4244.102539,4314.871582,4085.641113,4218.974121,4228.205078,0.000000,4.000000,,,,0.000000,4.000000,4.000000,4.000000,4.000000,4.000000,,,,,,,,,,,,,,,,,,,,,,,,,
1577422195.938513,20.000000,0.000000,4191.794922,4253.333496,4027.179443,4107.179688,4169.230957,0.000000,4.000000,,,,0.000000,4.000000,4.000000,4.000000,4.000000,4.000000,,,,,,,,,,,,,,,,,,,,,,,,,
1577422195.946317,21.000000,0.000000,4081.025635,4188.717773,3954.358887,4171.282227,4111.282227,0.000000,4.000000,,,,0.000000,4.000000,4.000000,4.000000,4.000000,4.000000,,,,,,,,,,,,,,,,,,,,,,,,,
1577422195.954120,22.000000,0.000000,4306.666504,4395.384766,4178.461426,4315.384766,4300.512695,0.000000,4.000000,,,,0.000000,4.000000,4.000000,4.000000,4.000000,4.000000,,,,,,,,,,,,,,,,,,,,,,,,,
1577422195.962022,23.000000,0.000000,4154.358887,4244.615234,4020.000000,4033.333252,4121.538574,0.000000,4.000000,,,,0.000000,4.000000,4.000000,4.000000,4.000000,4.000000,17.538090,9.124337,4.797336,8.036061,4.889247,28.106344,6.605690,5.888483,3.678894,2.869221,1862.474731,2253.459229,1302.544312,376.810486,115.701469,6.250547,7.620441,4.960078,3.281401,4.496998,13.410981,7.991970,5.060902,6.686915,4.812187
1577422195.969926,24.000000,0.000000,4111.282227,4228.205078,3992.820557,4158.461426,4131.282227,0.000000,4.000000,,,,0.000000,4.000000,4.000000,4.000000,4.000000,4.000000,,,,,,,,,,,,,,,,,,,,,,,,,
1577422195.977729,25.000000,0.000000,4284.102539,4378.461426,4166.666504,4273.846191,4258.974121,0.000000,4.000000,,,,0.000000,4.000000,4.000000,4.000000,4.000000,4.000000,,,,,,,,,,,,,,,,,,,,,,,,,
1577422195.985632,26.000000,0.000000,4139.487305,4235.897461,4051.281982,4090.256348,4128.717773,0.000000,4.000000,,,,0.000000,4.000000,4.000000,4.000000,4.000000,4.000000,,,,,,,,,,,,,,,,,,,,,,,,,
1577422195.993436,27.000000,0.000000,4189.743652,4277.948730,4112.307617,4204.615234,4212.820313,0.000000,4.000000,,,,0.000000,4.000000,4.000000,4.000000,4.000000,4.000000,,,,,,,,,,,,,,,,,,,,,,,,,
1577422196.001239,28.000000,0.000000,4232.307617,4308.717773,4142.563965,4166.666504,4207.692383,0.000000,4.000000,,,,0.000000,4.000000,4.000000,4.000000,4.000000,4.000000,,,,,,,,,,,,,,,,,,,,,,,,,
1577422196.009141,29.000000,0.000000,4189.743652,4260.512695,4105.128418,4110.256348,4170.769043,0.000000,4.000000,,,,0.000000,4.000000,4.000000,4.000000,4.000000,4.000000,,,,,,,,,,,,,,,,,,,,,,,,,
1577422196.016943,30.000000,0.000000,4245.128418,4294.358887,4167.692383,4184.102539,4232.307617,0.000000,4.000000,,,,0.000000,4.000000,4.000000,4.000000,4.000000,4.000000,,,,,,,,,,,,,,,,,,,,,,,,,
1577422196.024645,31.000000,0.000000,4225.641113,4274.358887,4147.692383,4157.436035,4210.256348,0.000000,4.000000,,,,0.000000,4.000000,4.000000,4.000000,4.000000,4.000000,,,,,,,,,,,,,,,,,,,,,,,,,
1577422196.032548,32.000000,0.000000,4190.769043,4263.589844,4136.922852,4151.794922,4196.410156,0.000000,4.000000,,,,0.000000,4.000000,4.000000,4.000000,4.000000,4.000000,,,,,,,,,,,,,,,,,,,,,,,,,
1577422196.040351,33.000000,0.000000,4201.538574,4277.948730,4175.384766,4173.333496,4206.153809,0.000000,4.000000,,,,0.000000,4.000000,4.000000,4.000000,4.000000,4.000000,,,,,,,,,,,,,,,,,,,,,,,,,
1577422196.048255,34.000000,0.000000,4230.769043,4276.410156,4189.230957,4155.897461,4217.436035,0.000000,4.000000,,,,0.000000,4.000000,4.000000,4.000000,4.000000,4.000000,,,,,,,,,,,,,,,,,,,,,,,,,
1577422196.056058,35.000000,0.000000,4228.205078,4273.333496,4174.358887,4137.948730,4202.563965,0.000000,4.000000,,,,0.000000,4.000000,4.000000,4.000000,4.000000,4.000000,,,,,,,,,,,,,,,,,,,,,,,,,
1577422196.063861,36.000000,0.000000,4210.769043,4277.948730,4163.077148,4151.282227,4204.102539,0.000000,4.000000,,,,0.000000,4.000000,4.000000,4.000000,4.000000,4.000000,,,,,,,,,,,,,,,,,,,,,,,,,
1577422196.071563,37.000000,0.000000,4194.358887,4265.128418,4160.512695,4167.692383,4216.922852,0.000000,4.000000,,,,0.000000,4.000000,4.000000,4.000000,4.000000,4.000000,,,,,,,,,,,,,,,,,,,,,,,,,
1577422196.079465,38.000000,0.000000,4197.948730,4252.820313,4165.128418,4160.000000,4207.179688,0.000000,4.000000,,,,0.000000,4.000000,4.000000,4.000000,4.000000,4.000000,,,,,,,,,,,,,,,,,,,,,,,,,
1577422196.087369,39.000000,0.000000,4225.128418,4258.461426,4161.538574,4135.384766,4214.871582,0.000000,4.000000,,,,0.000000,4.000000,4.000000,4.000000,4.000000,4.000000,10.777267,11.500179,5.321700,8.491844,6.114903,21.930626,8.097452,5.847430,3.898041,3.659493,1022.487793,1235.333984,729.375122,201.242493,63.996136,3.866485,8.376448,5.270464,3.066842,3.728158,11.001353,8.477713,5.285598,6.573882,5.003168
1577422196.095174,40.000000,0.000000,4263.589844,4294.358887,4183.077148,4162.051270,4252.820313,0.000000,4.000000,,,,0.000000,4.000000,4.000000,4.000000,4.000000,4.000000,,,,,,,,,,,,,,,,,,,,,,,,,
1577422196.103078,41.000000,0.000000,4252.307617,4288.205078,4184.615234,4164.615234,4246.666504,0.000000,4.000000,,,,0.000000,4.000000,4.000000,4.000000,4.000000,4.000000,,,,,,,,,,,,,,,,,,,,,,,,,
1577422196.110882,42.000000,0.000000,4187.179688,4229.230957,4154.358887,4129.743652,4197.948730,0.000000,4.000000,,,,0.000000,4.000000,4.000000,4.000000,4.000000,4.000000,,,,,,,,,,,,,,,,,,,,,,,,,
1577422196.118686,43.000000,0.000000,4194.358887,4229.230957,4182.563965,4138.974121,4206.666504,0.000000,4.000000,,,,0.000000,4.000000,4.000000,4.000000,4.000000,4.000000,,,,,,,,,,,,,,,,,,,,,,,,,
1577422196.126588,44.000000,0.000000,4239.487305,4254.871582,4205.641113,4132.307617,4248.205078,0.000000,4.000000,,,,0.000000,4.000000,4.000000,4.000000,4.000000,4.000000,,,,,,,,,,,,,,,,,,,,,,,,,
1577422196.134391,45.000000,0.000000,4251.794922,4261.025879,4206.153809,4134.358887,4272.307617,0.000000,4.000000,,,,0.000000,4.000000,4.000000,4.000000,4.000000,4.000000,,,,,,,,,,,,,,,,,,,,,,,,,
1577422196.142293,46.000000,0.000000,4240.512695,4248.717773,4211.282227,4133.333496,4257.948730,0.000000,4.000000,,,,0.000000,4.000000,4.000000,4.000000,4.000000,4.000000,,,,,,,,,,,,,,,,,,,,,,,,,
1577422196.150096,47.000000,0.000000,4216.410156,4228.205078,4193.846191,4106.666504,4220.000000,0.000000,4.000000,,,,0.000000,4.000000,4.000000,4.000000,4.000000,4.000000,,,,,,,,,,,,,,,,,,,,,,,,,
1577422196.157998,48.000000,0.000000,4227.692383,4238.974121,4192.307617,4129.230957,4220.512695,0.000000,4.000000,,,,0.000000,4.000000,4.000000,4.000000,4.000000,4.000000,,,,,,,,,,,,,,,,,,,,,,,,,
1577422196.165800,49.000000,0.000000,4228.205078,4232.820313,4178.974121,4122.051270,4207.692383,0.000000,4.000000,,,,0.000000,4.000000,4.000000,4.000000,4.000000,4.000000,,,,,,,,,,,,,,,,,,,,,,,,,
1577422196.173702,50.000000,0.000000,4196.922852,4206.666504,4172.820313,4107.692383,4197.948730,0.000000,4.000000,,,,0.000000,4.000000,4.000000,4.000000,4.000000,4.000000,,,,,,,,,,,,,,,,,,,,,,,,,
1577422196.181606,51.000000,0.000000,4212.307617,4214.358887,4210.769043,4130.769043,4229.230957,0.000000,4.000000,,,,0.000000,4.000000,4.000000,4.000000,4.000000,4.000000,,,,,,,,,,,,,,,,,,,,,,,,,
1577422196.189409,52.000000,0.000000,4247.692383,4238.974121,4227.692383,4127.692383,4239.487305,0.000000,4.000000,,,,0.000000,4.000000,4.000000,4.000000,4.000000,4.000000,,,,,,,,,,,,,,,,,,,,,,,,,
1577422196.197213,53.000000,0.000000,4261.025879,4264.615234,4235.897461,4130.769043,4240.512695,0.000000,4.000000,,,,0.000000,4.000000,4.000000,4.000000,4.000000,4.000000,,,,,,,,,,,,,,,,,,,,,,,,,
1577422196.205115,54.000000,0.000000,4246.666504,4254.871582,4239.487305,4122.051270,4214.358887,0.000000,4.000000,,,,0.000000,4.000000,4.000000,4.000000,4.000000,4.000000,,,,,,,,,,,,,,,,,,,,,,,,,
1577422196.212917,55.000000,0.000000,4196.922852,4209.743652,4212.307617,4101.538574,4182.051270,0.000000,4.000000,,,,0.000000,4.000000,4.000000,4.000000,4.000000,4.000000,9.039050,13.288655,5.471381,9.118017,11.097390,16.503063,9.576545,5.446183,3.973736,7.256922,438.114166,518.320862,313.498840,82.085579,33.308048,2.229839,8.955379,5.281982,3.023229,8.425170,9.298489,8.850082,5.074796,6.637734,8.703341
1577422196.220819,56.000000,0.000000,4187.692383,4222.563965,4212.307617,4108.205078,4201.538574,0.000000,4.000000,,,,0.000000,4.000000,4.000000,4.000000,4.000000,4.000000,,,,,,,,,,,,,,,,,,,,,,,,,
1577422196.228722,57.000000,0.000000,4250.256348,4286.666504,4252.307617,4132.820313,4232.820313,0.000000,4.000000,,,,0.000000,4.000000,4.000000,4.000000,4.000000,4.000000,,,,,,,,,,,,,,,,,,,,,,,,,
1577422196.236525,58.000000,0.000000,4295.384766,4315.897461,4280.512695,4160.512695,4255.897461,0.000000,4.000000,,,,0.000000,4.000000,4.000000,4.000000,4.000000,4.000000,,,,,,,,,,,,,,,,,,,,,,,,,
1577422196.244428,59.000000,0.000000,4249.230957,4289.230957,4265.128418,4130.769043,4212.307617,0.000000,4.000000,,,,0.000000,4.000000,4.000000,4.000000,4.000000,4.000000,,,,,,,,,,,,,,,,,,,,,,,,,
1577422196.252231,60.000000,0.000000,4185.641113,4258.974121,4240.000000,4106.666504,4157.436035,0.000000,4.000000,,,,0.000000,4.000000,4.000000,4.000000,4.000000,4.000000,,,,,,,,,,,,,,,,,,,,,,,,,
1577422196.260134,61.000000,0.000000,4208.717773,4275.384766,4257.948730,4146.666504,4200.512695,0.000000,4.000000,,,,0.000000,4.000000,4.000000,4.000000,4.000000,4.000000,,,,,,,,,,,,,,,,,,,,,,,,,
1577422196.267937,62.000000,0.000000,4244.102539,4293.333496,4284.615234,4162.563965,4225.641113,0.000000,4.000000,,,,0.000000,4.000000,4.000000,4.000000,4.000000,4.000000,,,,,,,,,,,,,,,,,,,,,,,,,
1577422196.275840,63.000000,0.000000,4270.256348,4312.820313,4308.717773,4176.922852,4232.307617,0.000000,4.000000,,,,0.000000,4.000000,4.000000,4.000000,4.000000,4.000000,,,,,,,,,,,,,,,,,,,,,,,,,
1577422196.283642,64.000000,0.000000,4287.179688,4328.205078,4318.974121,4175.897461,4240.512695,450.000000,4.000000,,,,0.000000,4.000000,4.000000,4.000000,4.000000,4.000000,,,,,,,,,,,,,,,,,,,,,,,,,
1577422196.291545,65.000000,0.000000,4274.358887,4303.077148,4296.922852,4144.102539,4217.436035,450.000000,4.000000,,,,0.000000,4.000000,4.000000,4.000000,4.000000,4.000000,,,,,,,,,,,,,,,,,,,,,,,,,
1577422196.299348,66.000000,0.000000,4303.589844,4300.512695,4304.615234,4157.436035,4249.743652,16266.000000,4.000000,,,,0.000000,4.000000,4.000000,4.000000,4.000000,4.000000,,,,,,,,,,,,,,,,,,,,,,,,,
1577422196.307250,67.000000,0.000000,4324.102539,4322.563965,4331.282227,4174.871582,4265.128418,450.000000,4.000000,,,,0.000000,4.000000,4.000000,4.000000,4.000000,4.000000,,,,,,,,,,,,,,,,,,,,,,,,,
1577422196.315053,68.000000,0.000000,4323.589844,4328.717773,4329.743652,4169.230957,4237.948730,16205.000000,4.000000,,,,0.000000,4.000000,4.000000,4.000000,4.000000,4.000000,,,,,,,,,,,,,,,,,,,,,,,,,
1577422196.322955,69.000000,0.000000,4314.358887,4315.897461,4307.692383,4173.846191,4233.333496,450.000000,4.000000,,,,0.000000,4.000000,4.000000,4.000000,4.000000,4.000000,,,,,,,,,,,,,,,,,,,,,,,,,
1577422196.330758,70.000000,0.000000,4302.051270,4324.102539,4302.563965,4207.179688,4262.051270,16187.000000,4.000000,,,,0.000000,4.000000,4.000000,4.000000,4.000000,4.000000,,,,,,,,,,,,,,,,,,,,,,,,,
1577422196.338660,71.000000,0.000000,4315.384766,4345.128418,4315.897461,4218.974121,4302.051270,450.000000,4.000000,,,,0.000000,4.000000,4.000000,4.000000,4.000000,4.000000,8.504440,13.913558,5.207101,9.639589,20.108315,12.793777,10.625648,4.688781,3.881859,13.837375,146.938354,152.247009,93.748627,24.411821,23.441147,1.400836,8.954156,4.889478,2.987575,17.524002,7.929039,8.623022,4.459170,6.778123,15.611685
1577422196.346462,72.000000,0.000000,4268.205078,4300.000000,4303.077148,4186.153809,4271.794922,450.000000,4.000000,,,,0.000000,4.000000,4.000000,4.000000,4.000000,4.000000,,,,,,,,,,,,,,,,,,,,,,,,,
1577422196.354364,73.000000,0.000000,4219.487305,4268.717773,4287.179688,4177.948730,4234.871582,16193.000000,4.000000,,,,0.000000,4.000000,4.000000,4.000000,4.000000,4.000000,,,,,,,,,,,,,,,,,,,,,,,,,
1577422196.362268,74.000000,0.000000,4222.051270,4289.743652,4292.307617,4171.794922,4236.922852,450.000000,4.000000,,,,0.000000,4.000000,4.000000,4.000000,4.000000,4.000000,,,,,,,,,,,,,,,,,,,,,,,,,
1577422196.370071,75.000000,0.000000,4212.307617,4284.615234,4304.102539,4166.666504,4226.666504,16195.000000,4.000000,,,,0.000000,4.000000,4.000000,4.000000,4.000000,4.000000,,,,,,,,,,,,,,,,,,,,,,,,,
1577422196.377975,76.000000,0.000000,4229.743652,4283.077148,4323.589844,4194.871582,4243.077148,450.000000,4.000000,,,,0.000000,4.000000,4.000000,4.000000,4.000000,4.000000,,,,,,,,,,,,,,,,,,,,,,,,,
1577422196.385778,77.000000,0.000000,4217.948730,4282.051270,4315.384766,4200.000000,4258.461426,450.000000,4.000000,,,,0.000000,4.000000,4.000000,4.000000,4.000000,4.000000,,,,,,,,,,,,,,,,,,,,,,,,,
1577422196.393681,78.000000,0.000000,4161.025879,4266.153809,4281.025879,4180.000000,4235.384766,450.000000,4.000000,,,,0.000000,4.000000,4.000000,4.000000,4.000000,4.000000,,,,,,,,,,,,,,,,,,,,,,,,,
1577422196.401484,79.000000,0.000000,4156.922852,4267.179688,4274.871582,4174.358887,4218.461426,16195.000000,4.000000,,,,0.000000,4.000000,4.000000,4.000000,4.000000,4.000000,,,,,,,,,,,,,,,,,,,,,,,,,
1577422196.409387,80.000000,0.000000,4174.358887,4268.717773,4300.000000,4192.307617,4229.230957,450.000000,4.000000,,,,0.000000,4.000000,4.000000,4.000000,4.000000,4.000000,,,,,,,,,,,,,,,,,,,,,,,,,
1577422196.417191,81.000000,0.000000,4203.589844,4287.692383,4344.615234,4231.282227,4267.692383,450.000000,4.000000,,,,0.000000,4.000000,4.000000,4.000000,4.000000,4.000000,,,,,,,,,,,,,,,,,,,,,,,,,
1577422196.425094,82.000000,0.000000,4203.589844,4286.153809,4330.256348,4225.641113,4269.743652,450.000000,4.000000,,,,0.000000,4.000000,4.000000,4.000000,4.000000,4.000000,,,,,,,,,,,,,,,,,,,,,,,,,
1577422196.432897,83.000000,0.000000,4154.358887,4252.820313,4290.256348,4192.307617,4229.743652,16195.000000,4.000000,,,,0.000000,4.000000,4.000000,4.000000,4.000000,4.000000,,,,,,,,,,,,,,,,,,,,,,,,,
1577422196.440800,84.000000,0.000000,4164.615234,4263.589844,4334.871582,4194.871582,4241.538574,450.000000,4.000000,,,,0.000000,4.000000,4.000000,4.000000,4.000000,4.000000,,,,,,,,,,,,,,,,,,,,,,,,,
1577422196.448603,85.000000,0.000000,4162.563965,4254.358887,4350.769043,4176.922852,4242.563965,450.000000,4.000000,,,,0.000000,4.000000,4.000000,4.000000,4.000000,4.000000,,,,,,,,,,,,,,,,,,,,,,,,,
1577422196.456406,86.000000,0.000000,4139.487305,4246.666504,4346.153809,4185.641113,4226.666504,450.000000,4.000000,,,,0.000000,4.000000,4.000000,4.000000,4.000000,4.000000,,,,,,,,,,,,,,,,,,,,,,,,,
1577422196.464108,87.000000,0.000000,4193.846191,4285.128418,4385.128418,4215.384766,4261.538574,16195.000000,4.000000,,,,0.000000,4.000000,4.000000,4.000000,4.000000,4.000000,7.793004,13.281699,4.630438,9.834154,31.974342,10.963088,10.923780,3.692928,3.668641,22.529791,56.082417,33.078094,19.497850,7.865187,27.788710,1.161809,8.208728,4.133306,2.907469,29.708729,6.787344,7.655983,3.655751,6.840849,24.723761
1577422196.472011,88.000000,0.000000,4218.974121,4265.128418,4366.666504,4183.077148,4269.230957,450.000000,4.000000,,,,0.000000,4.000000,4.000000,4.000000,4.000000,4.000000,,,,,,,,,,,,,,,,,,,,,,,,,
1577422196.479814,89.000000,0.000000,4221.538574,4261.025879,4368.717773,4192.820313,4277.948730,450.000000,4.000000,,,,0.000000,4.000000,4.000000,4.000000,4.000000,4.000000,,,,,,,,,,,,,,,,,,,,,,,,,
1577422196.487716,90.000000,0.000000,4224.615234,4275.897461,4395.897461,4220.000000,4298.974121,450.000000,4.000000,,,,0.000000,4.000000,4.000000,4.000000,4.000000,4.000000,,,,,,,,,,,,,,,,,,,,,,,,,
1577422196.495620,91.000000,0.000000,4200.000000,4248.717773,4390.769043,4217.948730,4283.077148,16195.000000,4.000000,,,,0.000000,4.000000,4.000000,4.000000,4.000000,4.000000,,,,,,,,,,,,,,,,,,,,,,,,,
1577422196.503424,92.000000,0.000000,4213.846191,4261.538574,4410.769043,4225.641113,4283.589844,450.000000,4.000000,,,,0.000000,4.000000,4.000000,4.000000,4.000000,4.000000,,,,,,,,,,,,,,,,,,,,,,,,,
1577422196.511328,93.000000,0.000000,4209.230957,4272.820313,4399.487305,4190.256348,4275.384766,450.000000,4.000000,,,,0.000000,4.000000,4.000000,4.000000,4.000000,4.000000,,,,,,,,,,,,,,,,,,,,,,,,,
1577422196.519132,94.000000,0.000000,4197.436035,4268.205078,4391.282227,4191.282227,4271.794922,450.000000,4.000000,,,,0.000000,4.000000,4.000000,4.000000,4.000000,4.000000,,,,,,,,,,,,,,,,,,,,,,,,,
1577422196.526936,95.000000,0.000000,4192.820313,4248.717773,4398.974121,4202.563965,4276.922852,16195.000000,4.000000,,,,0.000000,4.000000,4.000000,4.000000,4.000000,4.000000,,,,,,,,,,,,,,,,,,,,,,,,,
1577422196.534838,96.000000,0.000000,4149.743652,4218.974121,4367.692383,4172.820313,4240.000000,450.000000,4.000000,,,,0.000000,4.000000,4.000000,4.000000,4.000000,4.000000,,,,,,,,,,,,,,,,,,,,,,,,,
1577422196.542742,97.000000,0.000000,4151.794922,4236.410156,4364.615234,4166.153809,4226.153809,450.000000,4.000000,,,,0.000000,4.000000,4.000000,4.000000,4.000000,4.000000,,,,,,,,,,,,,,,,,,,,,,,,,
1577422196.550546,98.000000,0.000000,4192.820313,4247.179688,4374.871582,4152.820313,4257.948730,450.000000,4.000000,,,,0.000000,4.000000,4.000000,4.000000,4.000000,4.000000,,,,,,,,,,,,,,,,,,,,,,,,,
1577422196.558349,99.000000,0.000000,4232.307617,4258.974121,4396.922852,4170.769043,4298.461426,16195.000000,4.000000,,,,0.000000,4.000000,4.000000,4.000000,4.000000,4.000000,,,,,,,,,,,,,,,,,,,,,,,,,
1577422196.566052,100.000000,0.000000,4223.589844,4261.538574,4398.974121,4181.538574,4294.358887,450.000000,4.000000,,,,0.000000,4.000000,4.000000,4.000000,4.000000,4.000000,,,,,,,,,,,,,,,,,,,,,,,,,
1577422196.573854,101.000000,0.000000,4157.948730,4226.666504,4351.282227,4153.846191,4243.077148,450.000000,4.000000,,,,0.000000,4.000000,4.000000,4.000000,4.000000,4.000000,,,,,,,,,,,,,,,,,,,,,,,,,
1577422196.581556,102.000000,0.000000,4155.897461,4230.256348,4354.358887,4159.487305,4240.512695,450.000000,4.000000,,,,0.000000,4.000000,4.000000,4.000000,4.000000,4.000000,,,,,,,,,,,,,,,,,,,,,,,,,
1577422196.589358,103.000000,0.000000,4198.461426,4253.846191,4372.307617,4149.230957,4278.461426,16195.000000,4.000000,,,,0.000000,4.000000,4.000000,4.000000,4.000000,4.000000,7.399660,11.866955,3.881613,9.634981,43.751736,10.136758,10.324721,2.629881,3.433427,31.182413,37.222050,12.589375,6.557558,5.872355,36.552433,1.171635,6.845617,3.198085,2.790008,42.032749,5.814224,6.172680,2.905124,6.724237,33.767979
1577422196.597060,104.000000,0.000000,4230.769043,4274.871582,4387.692383,4155.384766,4311.282227,450.000000,4.000000,,,,0.000000,4.000000,4.000000,4.000000,4.000000,4.000000,,,,,,,,,,,,,,,,,,,,,,,,,
1577422196.604963,105.000000,0.000000,4253.333496,4289.230957,4405.641113,4178.461426,4320.000000,450.000000,4.000000,,,,0.000000,4.000000,4.000000,4.000000,4.000000,4.000000,,,,,,,,,,,,,,,,,,,,,,,,,
1577422196.612766,106.000000,0.000000,4237.948730,4276.922852,4388.205078,4168.717773,4298.974121,450.000000,4.000000,,,,0.000000,4.000000,4.000000,4.000000,4.000000,4.000000,,,,,,,,,,,,,,,,,,,,,,,,,
1577422196.620669,107.000000,0.000000,4240.512695,4283.589844,4405.128418,4183.077148,4312.307617,16195.000000,4.000000,,,,0.000000,4.000000,4.000000,4.000000,4.000000,4.000000,,,,,,,,,,,,,,,,,,,,,,,,,
1577422196.628473,108.000000,0.000000,4244.102539,4275.897461,4411.282227,4159.487305,4315.897461,450.000000,4.000000,,,,0.000000,4.000000,4.000000,4.000000,4.000000,4.000000,,,,,,,,,,,,,,,,,,,,,,,,,
1577422196.636375,109.000000,0.000000,4200.512695,4255.897461,4378.461426,4123.077148,4280.000000,450.000000,4.000000,,,,0.000000,4.000000,4.000000,4.000000,4.000000,4.000000,,,,,,,,,,,,,,,,,,,,,,,,,
1577422196.644178,110.000000,0.000000,4192.820313,4276.410156,4377.948730,4129.230957,4273.333496,450.000000,4.000000,,,,0.000000,4.000000,4.000000,4.000000,4.000000,4.000000,,,,,,,,,,,,,,,,,,,,,,,,,
1577422196.651981,111.000000,0.000000,4224.102539,4290.769043,4387.692383,4116.410156,4283.589844,16195.000000,4.000000,,,,0.000000,4.000000,4.000000,4.000000,4.000000,4.000000,,,,,,,,,,,,,,,,,,,,,,,,,
1577422196.659686,112.000000,0.000000,4244.615234,4317.436035,4409.743652,4128.717773,4292.307617,450.000000,4.000000,,,,0.000000,4.000000,4.000000,4.000000,4.000000,4.000000,,,,,,,,,,,,,,,,,,,,,,,,,
1577422196.667591,113.000000,0.000000,4206.153809,4327.692383,4393.846191,4121.538574,4238.461426,450.000000,4.000000,,,,0.000000,4.000000,4.000000,4.000000,4.000000,4.000000,,,,,,,,,,,,,,,,,,,,,,,,,
1577422196.675396,114.000000,0.000000,4148.717773,4301.538574,4370.769043,4111.794922,4192.820313,450.000000,4.000000,,,,0.000000,4.000000,4.000000,4.000000,4.000000,4.000000,,,,,,,,,,,,,,,,,,,,,,,,,
1577422196.683202,115.000000,0.000000,4187.692383,4342.563965,4438.974121,4155.897461,4250.256348,16195.000000,4.000000,,,,0.000000,4.000000,4.000000,4.000000,4.000000,4.000000,,,,,,,,,,,,,,,,,,,,,,,,,
1577422196.691007,116.000000,0.000000,4236.922852,4403.589844,4482.563965,4157.436035,4272.307617,450.000000,4.000000,,,,0.000000,4.000000,4.000000,4.000000,4.000000,4.000000,,,,,,,,,,,,,,,,,,,,,,,,,
1577422196.698909,117.000000,0.000000,4242.563965,4428.205078,4485.128418,4162.051270,4267.179688,450.000000,4.000000,,,,0.000000,4.000000,4.000000,4.000000,4.000000,4.000000,,,,,,,,,,,,,,,,,,,,,,,,,
1577422196.706712,118.000000,0.000000,4238.461426,4423.589844,4503.589844,4171.794922,4255.897461,450.000000,4.000000,,,,0.000000,4.000000,4.000000,4.000000,4.000000,4.000000,,,,,,,,,,,,,,,,,,,,,,,,,
1577422196.714614,119.000000,0.000000,4200.512695,4393.333496,4498.461426,4160.000000,4220.512695,16195.000000,4.000000,,,,0.000000,4.000000,4.000000,4.000000,4.000000,4.000000,8.517063,10.175125,3.114280,9.172041,51.770500,9.650647,8.964319,1.703317,3.286407,37.118057,28.153179,7.639874,4.581368,5.294580,42.755009,1.265806,5.186508,2.323532,2.662084,50.696587,5.027260,4.523241,2.349287,6.451616,39.909954
1577422196.722417,120.000000,0.000000,4200.000000,4418.461426,4514.871582,4175.897461,4249.230957,450.000000,4.000000,,,,0.000000,4.000000,4.000000,4.000000,4.000000,4.000000,,,,,,,,,,,,,,,,,,,,,,,,,
1577422196.730119,121.000000,0.000000,4212.307617,4438.974121,4514.358887,4149.230957,4237.948730,450.000000,4.000000,,,,0.000000,4.000000,4.000000,4.000000,4.000000,4.000000,,,,,,,,,,,,,,,,,,,,,,,,,
1577422196.737921,122.000000,0.000000,4221.025879,4429.743652,4502.051270,4144.615234,4218.974121,450.000000,4.000000,,,,0.000000,4.000000,4.000000,4.000000,4.000000,4.000000,,,,,,,,,,,,,,,,,,,,,,,,,
1577422196.745624,123.000000,0.000000,4211.794922,4445.128418,4510.256348,4153.846191,4223.077148,16195.000000,4.000000,,,,0.000000,4.000000,4.000000,4.000000,4.000000,4.000000,,,,,,,,,,,,,,,,,,,,,,,,,
1577422196.753426,124.000000,0.000000,4125.641113,4407.692383,4451.282227,4103.589844,4150.256348,450.000000,4.000000,,,,0.000000,4.000000,4.000000,4.000000,4.000000,4.000000,,,,,,,,,,,,,,,,,,,,,,,,,
1577422196.761128,125.000000,0.000000,4175.897461,4437.948730,4481.538574,4169.230957,4202.051270,450.000000,4.000000,,,,0.000000,4.000000,4.000000,4.000000,4.000000,4.000000,,,,,,,,,,,,,,,,,,,,,,,,,
1577422196.768930,126.000000,0.000000,4198.974121,4454.358887,4504.102539,4174.358887,4212.820313,450.000000,4.000000,,,,0.000000,4.000000,4.000000,4.000000,4.000000,4.000000,,,,,,,,,,,,,,,,,,,,,,,,,
1577422196.776632,127.000000,0.000000,4082.051270,4365.641113,4406.153809,4130.256348,4117.948730,234.000000,4.000000,,,,0.000000,4.000000,4.000000,4.000000,4.000000,4.000000,,,,,,,,,,,,,,,,,,,,,,,,,
1577422196.784434,0.000000,0.000000,4311.794922,4543.077148,4607.179688,4296.410156,4326.153809,450.000000,4.000000,,,,0.000000,4.000000,4.000000,4.000000,4.000000,4.000000,,,,,,,,,,,,,,,,,,,,,,,,,
1577422196.792136,1.000000,0.000000,4155.384766,4391.794922,4459.487305,4068.718018,4143.589844,450.000000,4.000000,,,,0.000000,4.000000,4.000000,4.000000,4.000000,4.000000,,,,,,,,,,,,,,,,,,,,,,,,,
1577422196.800042,2.000000,1.000000,4155.042969,4387.407227,4459.658203,4075.384521,4145.812012,16266.000000,4.000000,,,,0.000000,4.000000,4.000000,4.000000,4.000000,4.000000,,,,,,,,,,,,,,,,,,,,,,,,,
1577422196.807848,3.000000,1.000000,4154.700684,4383.020020,4459.829102,4082.051270,4148.034180,450.000000,4.000000,,,,0.000000,4.000000,4.000000,4.000000,4.000000,4.000000,,,,,,,,,,,,,,,,,,,,,,,,,
1577422196.815654,4.000000,1.000000,4154.358887,4378.632324,4460.000000,4088.718018,4150.256348,16205.000000,4.000000,,,,0.000000,4.000000,4.000000,4.000000,4.000000,4.000000,,,,,,,,,,,,,,,,,,,,,,,,,
1577422196.823459,5.000000,1.000000,4154.017090,4374.245117,4460.170898,4095.384521,4152.478516,450.000000,4.000000,,,,0.000000,4.000000,4.000000,4.000000,4.000000,4.000000,,,,,,,,,,,,,,,,,,,,,,,,,
1577422196.831265,6.000000,1.000000,4153.675293,4369.857422,4460.341797,4102.051270,4154.700684,16187.000000,4.000000,,,,0.000000,4.000000,4.000000,4.000000,4.000000,4.000000,,,,,,,,,,,,,,,,,,,,,,,,,
1577422196.839071,7.000000,1.000000,4153.333496,4365.470215,4460.512695,4108.717773,4156.922852,450.000000,4.000000,,,,0.000000,4.000000,4.000000,4.000000,4.000000,4.000000,12.003589,8.696807,2.497230,8.691137,53.270927,9.433887,7.305929,1.009208,3.301113,38.312675,22.523605,5.144798,3.617630,4.818462,43.644825,1.486443,3.707182,1.716842,2.543750,52.749218,4.814414,3.176013,2.027648,6.118228,41.031464
1577422196.846877,8.000000,1.000000,4152.991211,4361.082520,4460.683594,4115.384766,4159.145508,450.000000,4.000000,,,,0.000000,4.000000,4.000000,4.000000,4.000000,4.000000,,,,,,,,,,,,,,,,,,,,,,,,,
1577422196.854683,9.000000,1.000000,4152.649414,4356.695313,4460.854492,4122.051270,4161.367676,16193.000000,4.000000,,,,0.000000,4.000000,4.000000,4.000000,4.000000,4.000000,,,,,,,,,,,,,,,,,,,,,,,,,
1577422196.862489,10.000000,0.000000,4152.307617,4352.307617,4461.025879,4128.717773,4163.589844,450.000000,4.000000,,,,0.000000,4.000000,4.000000,4.000000,4.000000,4.000000,,,,,,,,,,,,,,,,,,,,,,,,,
1577422196.870185,11.000000,0.000000,4171.282227,4363.077148,4489.230957,4173.333496,4191.282227,16224.000000,4.000000,,,,0.000000,4.000000,4.000000,4.000000,4.000000,4.000000,,,,,,,,,,,,,,,,,,,,,,,,,
1577422196.877981,12.000000,0.000000,4150.769043,4354.871582,4482.051270,4146.666504,4172.820313,450.000000,4.000000,,,,0.000000,4.000000,4.000000,4.000000,4.000000,4.000000,,,,,,,,,,,,,,,,,,,,,,,,,
1577422196.885777,13.000000,0.000000,4164.102539,4372.820313,4507.692383,4167.692383,4186.153809,450.000000,4.000000,,,,0.000000,4.000000,4.000000,4.000000,4.000000,4.000000,,,,,,,,,,,,,,,,,,,,,,,,,
1577422196.893472,14.000000,0.000000,4193.333496,4384.102539,4544.615234,4184.102539,4206.153809,450.000000,4.000000,,,,0.000000,4.000000,4.000000,4.000000,4.000000,4.000000,,,,,,,,,,,,,,,,,,,,,,,,,
1577422196.901266,15.000000,0.000000,4176.922852,4376.922852,4540.000000,4171.282227,4194.358887,16224.000000,4.000000,,,,0.000000,4.000000,4.000000,4.000000,4.000000,4.000000,,,,,,,,,,,,,,,,,,,,,,,,,
1577422196.908961,16.000000,0.000000,4161.025879,4373.846191,4532.307617,4165.641113,4184.102539,0.000000,4.000000,,,,0.000000,4.000000,4.000000,4.000000,4.000000,4.000000,,,,,,,,,,,,,,,,,,,,,,,,,
1577422196.916755,17.000000,0.000000,4141.538574,4357.436035,4517.948730,4149.743652,4162.563965,0.000000,4.000000,,,,0.000000,4.000000,4.000000,4.000000,4.000000,4.000000,,,,,,,,,,,,,,,,,,,,,,,,,
1577422196.924450,18.000000,0.000000,4137.436035,4367.692383,4526.153809,4144.615234,4156.410156,0.000000,4.000000,,,,0.000000,4.000000,4.000000,4.000000,4.000000,4.000000,,,,,,,,,,,,,,,,,,,,,,,,,
1577422196.932245,19.000000,0.000000,4127.692383,4372.307617,4537.948730,4142.051270,4154.871582,0.000000,4.000000,,,,0.000000,4.000000,4.000000,4.000000,4.000000,4.000000,,,,,,,,,,,,,,,,,,,,,,,,,
1577422196.939939,20.000000,0.000000,4128.205078,4352.820313,4538.974121,4149.230957,4166.666504,0.000000,4.000000,,,,0.000000,4.000000,4.000000,4.000000,4.000000,4.000000,,,,,,,,,,,,,,,,,,,,,,,,,
1577422196.947635,21.000000,0.000000,4159.487305,4361.025879,4556.410156,4169.743652,4193.846191,0.000000,4.000000,,,,0.000000,4.000000,4.000000,4.000000,4.000000,4.000000,,,,,,,,,,,,,,,,,,,,,,,,,
1577422196.955431,22.000000,0.000000,4164.615234,4383.077148,4580.000000,4180.512695,4203.077148,0.000000,4.000000,,,,0.000000,4.000000,4.000000,4.000000,4.000000,4.000000,,,,,,,,,,,,,,,,,,,,,,,,,
1577422196.963127,23.000000,0.000000,4150.256348,4380.000000,4586.666504,4177.436035,4203.589844,0.000000,4.000000,,,,0.000000,4.000000,4.000000,4.000000,4.000000,4.000000,17.508703,7.763109,2.180548,8.464704,47.745018,10.089756,5.740564,0.599264,3.493897,34.358173,18.635733,3.723521,2.999676,4.419896,38.809109,1.891873,2.840496,1.506311,2.457479,47.511593,5.363437,2.495025,1.946769,5.856958,36.760365
1577422196.970922,24.000000,0.000000,4157.948730,4372.307617,4578.461426,4173.846191,4206.666504,0.000000,4.000000,,,,0.000000,4.000000,4.000000,4.000000,4.000000,4.000000,,,,,,,,,,,,,,,,,,,,,,,,,
1577422196.978618,25.000000,0.000000,4156.410156,4370.256348,4555.897461,4161.025879,4190.769043,0.000000,4.000000,,,,0.000000,4.000000,4.000000,4.000000,4.000000,4.000000,,,,,,,,,,,,,,,,,,,,,,,,,
1577422196.986414,26.000000,0.000000,4118.461426,4341.538574,4529.743652,4125.128418,4142.051270,0.000000,4.000000,,,,0.000000,4.000000,4.000000,4.000000,4.000000,4.000000,,,,,,,,,,,,,,,,,,,,,,,,,
1577422196.994209,27.000000,0.000000,4098.974121,4303.077148,4530.256348,4106.153809,4115.384766,0.000000,4.000000,,,,0.000000,4.000000,4.000000,4.000000,4.000000,4.000000,,,,,,,,,,,,,,,,,,,,,,,,,
1577422197.001903,28.000000,0.000000,4141.025879,4308.205078,4563.077148,4147.179688,4161.025879,0.000000,4.000000,,,,0.000000,4.000000,4.000000,4.000000,4.000000,4.000000,,,,,,,,,,,,,,,,,,,,,,,,,
1577422197.009599,29.000000,0.000000,4172.820313,4311.282227,4577.436035,4175.384766,4184.615234,0.000000,4.000000,,,,0.000000,4.000000,4.000000,4.000000,4.000000,4.000000,,,,,,,,,,,,,,,,,,,,,,,,,
1577422197.017394,30.000000,0.000000,4163.589844,4269.230957,4565.641113,4151.282227,4154.358887,0.000000,4.000000,,,,0.000000,4.000000,4.000000,4.000000,4.000000,4.000000,,,,,,,,,,,,,,,,,,,,,,,,,
1577422197.025089,31.000000,0.000000,4164.615234,4245.641113,4569.230957,4136.922852,4151.282227,0.000000,4.000000,,,,0.000000,4.000000,4.000000,4.000000,4.000000,4.000000,,,,,,,,,,,,,,,,,,,,,,,,,
1577422197.032884,32.000000,0.000000,4171.282227,4257.948730,4580.512695,4135.384766,4161.538574,0.000000,4.000000,,,,0.000000,4.000000,4.000000,4.000000,4.000000,4.000000,,,,,,,,,,,,,,,,,,,,,,,,,
1577422197.040579,33.000000,0.000000,4174.871582,4267.692383,4603.589844,4134.871582,4163.077148,0.000000,4.000000,,,,0.000000,4.000000,4.000000,4.000000,4.000000,4.000000,,,,,,,,,,,,,,,,,,,,,,,,,
1577422197.048374,34.000000,0.000000,4181.538574,4262.051270,4636.410156,4138.461426,4170.256348,0.000000,4.000000,,,,0.000000,4.000000,4.000000,4.000000,4.000000,4.000000,,,,,,,,,,,,,,,,,,,,,,,,,
1577422197.056170,35.000000,0.000000,4174.358887,4261.025879,4641.538574,4129.230957,4168.717773,0.000000,4.000000,,,,0.000000,4.000000,4.000000,4.000000,4.000000,4.000000,,,,,,,,,,,,,,,,,,,,,,,,,
1577422197.063863,36.000000,0.000000,4166.153809,4277.948730,4644.102539,4129.230957,4165.641113,0.000000,4.000000,,,,0.000000,4.000000,4.000000,4.000000,4.000000,4.000000,,,,,,,,,,,,,,,,,,,,,,,,,
1577422197.071558,37.000000,0.000000,4173.333496,4303.589844,4667.692383,4145.641113,4174.358887,0.000000,4.000000,,,,0.000000,4.000000,4.000000,4.000000,4.000000,4.000000,,,,,,,,,,,,,,,,,,,,,,,,,
1577422197.079353,38.000000,0.000000,4181.025879,4324.102539,4687.179688,4153.333496,4188.717773,0.000000,4.000000,,,,0.000000,4.000000,4.000000,4.000000,4.000000,4.000000,,,,,,,,,,,,,,,,,,,,,,,,,
1577422197.087048,39.000000,0.000000,4182.563965,4336.922852,4693.333496,4152.820313,4197.436035,0.000000,4.000000,,,,0.000000,4.000000,4.000000,4.000000,4.000000,4.000000,23.538120,7.390248,2.250897,8.632322,37.183662,11.957597,4.590684,0.459613,3.807352,26.659328,19.682577,3.286647,2.686594,4.088003,29.882977,2.724604,2.813598,1.754671,2.455543,36.891495,6.465093,2.566982,2.113620,5.771235,28.638426
1577422197.094842,40.000000,0.000000,4174.358887,4348.205078,4704.102539,4149.743652,4188.717773,0.000000,4.000000,,,,0.000000,4.000000,4.000000,4.000000,4.000000,4.000000,,,,,,,,,,,,,,,,,,,,,,,,,
1577422197.102537,41.000000,0.000000,4165.128418,4352.820313,4727.692383,4143.589844,4182.051270,0.000000,4.000000,,,,0.000000,4.000000,4.000000,4.000000,4.000000,4.000000,,,,,,,,,,,,,,,,,,,,,,,,,
1577422197.110332,42.000000,0.000000,4166.153809,4349.743652,4759.487305,4143.077148,4184.102539,0.000000,4.000000,,,,0.000000,4.000000,4.000000,4.000000,4.000000,4.000000,,,,,,,,,,,,,,,,,,,,,,,,,
1577422197.118026,43.000000,0.000000,4186.666504,4362.051270,4786.153809,4167.179688,4195.384766,0.000000,4.000000,,,,0.000000,4.000000,4.000000,4.000000,4.000000,4.000000,,,,,,,,,,,,,,,,,,,,,,,,,
1577422197.125821,44.000000,0.000000,4222.051270,4392.307617,4788.205078,4201.538574,4228.205078,0.000000,4.000000,,,,0.000000,4.000000,4.000000,4.000000,4.000000,4.000000,,,,,,,,,,,,,,,,,,,,,,,,,
1577422197.133515,45.000000,0.000000,4234.871582,4393.333496,4762.051270,4207.179688,4242.051270,0.000000,4.000000,,,,0.000000,4.000000,4.000000,4.000000,4.000000,4.000000,,,,,,,,,,,,,,,,,,,,,,,,,
1577422197.141310,46.000000,0.000000,4210.769043,4363.589844,4726.666504,4178.974121,4213.846191,0.000000,4.000000,,,,0.000000,4.000000,4.000000,4.000000,4.000000,4.000000,,,,,,,,,,,,,,,,,,,,,,,,,
1577422197.149004,47.000000,0.000000,4183.589844,4346.666504,4684.102539,4146.666504,4186.153809,0.000000,4.000000,,,,0.000000,4.000000,4.000000,4.000000,4.000000,4.000000,,,,,,,,,,,,,,,,,,,,,,,,,
1577422197.156798,48.000000,0.000000,4178.461426,4366.153809,4644.102539,4141.025879,4181.025879,0.000000,4.000000,,,,0.000000,4.000000,4.000000,4.000000,4.000000,4.000000,,,,,,,,,,,,,,,,,,,,,,,,,
1577422197.164492,49.000000,0.000000,4182.051270,4394.358887,4636.922852,4152.820313,4195.384766,0.000000,4.000000,,,,0.000000,4.000000,4.000000,4.000000,4.000000,4.000000,,,,,,,,,,,,,,,,,,,,,,,,,
1577422197.172286,50.000000,0.000000,4176.922852,4406.153809,4635.384766,4154.358887,4205.128418,0.000000,4.000000,,,,0.000000,4.000000,4.000000,4.000000,4.000000,4.000000,,,,,,,,,,,,,,,,,,,,,,,,,
1577422197.179981,51.000000,0.000000,4167.179688,4432.307617,4597.436035,4150.769043,4199.487305,0.000000,4.000000,,,,0.000000,4.000000,4.000000,4.000000,4.000000,4.000000,,,,,,,,,,,,,,,,,,,,,,,,,
1577422197.187775,52.000000,0.000000,4170.769043,4491.282227,4565.128418,4157.948730,4216.410156,0.000000,4.000000,,,,0.000000,4.000000,4.000000,4.000000,4.000000,4.000000,,,,,,,,,,,,,,,,,,,,,,,,,
1577422197.195469,53.000000,0.000000,4194.871582,4534.871582,4578.974121,4181.025879,4251.282227,0.000000,4.000000,,,,0.000000,4.000000,4.000000,4.000000,4.000000,4.000000,,,,,,,,,,,,,,,,,,,,,,,,,
1577422197.203263,54.000000,0.000000,4220.512695,4540.000000,4601.025879,4201.538574,4269.743652,0.000000,4.000000,,,,0.000000,4.000000,4.000000,4.000000,4.000000,4.000000,,,,,,,,,,,,,,,,,,,,,,,,,
1577422197.210957,55.000000,0.000000,4225.128418,4537.436035,4593.846191,4205.128418,4272.307617,0.000000,4.000000,,,,0.000000,4.000000,4.000000,4.000000,4.000000,4.000000,28.327700,7.346742,2.651104,9.101727,25.124334,15.248196,4.045475,0.511576,4.123525,17.773405,23.424847,3.849004,2.628120,3.831887,19.780024,4.285930,3.678473,2.415960,2.612905,24.467819,7.787340,3.265482,2.518926,5.855115,19.386435
1577422197.218751,56.000000,0.000000,4208.717773,4535.384766,4565.641113,4194.871582,4263.589844,0.000000,4.000000,,,,0.000000,4.000000,4.000000,4.000000,4.000000,4.000000,,,,,,,,,,,,,,,,,,,,,,,,,
1577422197.226444,57.000000,0.000000,4202.051270,4531.282227,4538.461426,4197.948730,4272.820313,0.000000,4.000000,,,,0.000000,4.000000,4.000000,4.000000,4.000000,4.000000,,,,,,,,,,,,,,,,,,,,,,,,,
1577422197.234139,58.000000,0.000000,4198.974121,4517.436035,4509.743652,4205.128418,4280.512695,0.000000,4.000000,,,,0.000000,4.000000,4.000000,4.000000,4.000000,4.000000,,,,,,,,,,,,,,,,,,,,,,,,,
1577422197.241934,59.000000,0.000000,4181.025879,4489.230957,4473.846191,4184.615234,4256.410156,0.000000,4.000000,,,,0.000000,4.000000,4.000000,4.000000,4.000000,4.000000,,,,,,,,,,,,,,,,,,,,,,,,,
1577422197.249629,60.000000,0.000000,4169.743652,4474.358887,4445.641113,4165.128418,4240.512695,0.000000,4.000000,,,,0.000000,4.000000,4.000000,4.000000,4.000000,4.000000,,,,,,,,,,,,,,,,,,,,,,,,,
1577422197.257424,61.000000,0.000000,4158.974121,4458.461426,4411.794922,4160.512695,4232.820313,0.000000,4.000000,,,,0.000000,4.000000,4.000000,4.000000,4.000000,4.000000,,,,,,,,,,,,,,,,,,,,,,,,,
1577422197.265119,62.000000,0.000000,4146.666504,4437.436035,4368.717773,4152.307617,4218.974121,0.000000,4.000000,,,,0.000000,4.000000,4.000000,4.000000,4.000000,4.000000,,,,,,,,,,,,,,,,,,,,,,,,,
1577422197.272914,63.000000,0.000000,4155.897461,4435.897461,4362.051270,4156.922852,4223.589844,0.000000,4.000000,,,,0.000000,4.000000,4.000000,4.000000,4.000000,4.000000,,,,,,,,,,,,,,,,,,,,,,,,,
1577422197.280609,64.000000,0.000000,4160.000000,4431.794922,4373.846191,4158.461426,4229.230957,450.000000,4.000000,,,,0.000000,4.000000,4.000000,4.000000,4.000000,4.000000,,,,,,,,,,,,,,,,,,,,,,,,,
1577422197.288404,65.000000,0.000000,4142.051270,4415.384766,4370.769043,4134.871582,4212.820313,450.000000,4.000000,,,,0.000000,4.000000,4.000000,4.000000,4.000000,4.000000,,,,,,,,,,,,,,,,,,,,,,,,,
1577422197.296098,66.000000,0.000000,4134.358887,4424.615234,4404.615234,4135.384766,4208.205078,16191.000000,4.000000,,,,0.000000,4.000000,4.000000,4.000000,4.000000,4.000000,,,,,,,,,,,,,,,,,,,,,,,,,
1577422197.303893,67.000000,0.000000,4144.102539,4448.717773,4472.307617,4157.436035,4215.384766,450.000000,4.000000,,,,0.000000,4.000000,4.000000,4.000000,4.000000,4.000000,,,,,,,,,,,,,,,,,,,,,,,,,
1577422197.311588,68.000000,0.000000,4147.692383,4448.717773,4507.179688,4141.025879,4201.025879,16168.000000,4.000000,,,,0.000000,4.000000,4.000000,4.000000,4.000000,4.000000,,,,,,,,,,,,,,,,,,,,,,,,,
1577422197.319382,69.000000,0.000000,4146.666504,4447.179688,4537.436035,4121.025879,4191.282227,450.000000,4.000000,,,,0.000000,4.000000,4.000000,4.000000,4.000000,4.000000,,,,,,,,,,,,,,,,,,,,,,,,,
1577422197.327077,70.000000,0.000000,4145.641113,4471.282227,4592.820313,4138.461426,4200.512695,16162.000000,4.000000,,,,0.000000,4.000000,4.000000,4.000000,4.000000,4.000000,,,,,,,,,,,,,,,,,,,,,,,,,
1577422197.334871,71.000000,0.000000,4128.205078,4485.128418,4614.358887,4137.436035,4191.794922,450.000000,4.000000,,,,0.000000,4.000000,4.000000,4.000000,4.000000,4.000000,30.174082,7.455852,3.261791,9.626418,14.958051,20.216015,4.215067,0.658011,4.328724,10.206380,28.393877,5.214758,2.853526,3.689390,11.301084,6.764917,5.316623,3.333947,3.005546,13.802966,8.856947,4.421572,3.126544,6.043672,11.615576
1577422197.342566,72.000000,0.000000,4116.922852,4487.692383,4613.846191,4121.538574,4180.512695,450.000000,4.000000,,,,0.000000,4.000000,4.000000,4.000000,4.000000,4.000000,,,,,,,,,,,,,,,,,,,,,,,,,
1577422197.350360,73.000000,0.000000,4133.846191,4510.256348,4642.563965,4137.948730,4197.436035,16174.000000,4.000000,,,,0.000000,4.000000,4.000000,4.000000,4.000000,4.000000,,,,,,,,,,,,,,,,,,,,,,,,,
1577422197.358054,74.000000,0.000000,4133.846191,4516.922852,4652.820313,4137.948730,4198.461426,450.000000,4.000000,,,,0.000000,4.000000,4.000000,4.000000,4.000000,4.000000,,,,,,,,,,,,,,,,,,,,,,,,,
1577422197.365848,75.000000,0.000000,4117.948730,4501.025879,4646.153809,4118.974121,4181.025879,16217.000000,4.000000,,,,0.000000,4.000000,4.000000,4.000000,4.000000,4.000000,,,,,,,,,,,,,,,,,,,,,,,,,
1577422197.373543,76.000000,0.000000,4118.461426,4494.871582,4660.512695,4117.948730,4180.000000,450.000000,4.000000,,,,0.000000,4.000000,4.000000,4.000000,4.000000,4.000000,,,,,,,,,,,,,,,,,,,,,,,,,
1577422197.381337,77.000000,0.000000,4123.589844,4492.820313,4677.436035,4120.000000,4184.615234,450.000000,4.000000,,,,0.000000,4.000000,4.000000,4.000000,4.000000,4.000000,,,,,,,,,,,,,,,,,,,,,,,,,
1577422197.389031,78.000000,0.000000,4130.769043,4493.333496,4697.948730,4123.077148,4190.256348,450.000000,4.000000,,,,0.000000,4.000000,4.000000,4.000000,4.000000,4.000000,,,,,,,,,,,,,,,,,,,,,,,,,
1577422197.396726,79.000000,0.000000,4146.666504,4496.410156,4720.512695,4127.179688,4201.538574,16217.000000,4.000000,,,,0.000000,4.000000,4.000000,4.000000,4.000000,4.000000,,,,,,,,,,,,,,,,,,,,,,,,,
1577422197.404522,80.000000,0.000000,4152.820313,4480.512695,4723.077148,4125.128418,4198.461426,450.000000,4.000000,,,,0.000000,4.000000,4.000000,4.000000,4.000000,4.000000,,,,,,,,,,,,,,,,,,,,,,,,,
1577422197.412217,81.000000,0.000000,4138.974121,4451.794922,4718.974121,4108.717773,4181.538574,450.000000,4.000000,,,,0.000000,4.000000,4.000000,4.000000,4.000000,4.000000,,,,,,,,,,,,,,,,,,,,,,,,,
1577422197.420012,82.000000,0.000000,4127.179688,4440.512695,4733.333496,4096.410156,4181.025879,450.000000,4.000000,,,,0.000000,4.000000,4.000000,4.000000,4.000000,4.000000,,,,,,,,,,,,,,,,,,,,,,,,,
1577422197.427707,83.000000,0.000000,4134.358887,4442.563965,4765.128418,4104.615234,4190.769043,16217.000000,4.000000,,,,0.000000,4.000000,4.000000,4.000000,4.000000,4.000000,,,,,,,,,,,,,,,,,,,,,,,,,
1577422197.435502,84.000000,0.000000,4145.128418,4433.846191,4791.794922,4112.307617,4194.871582,450.000000,4.000000,,,,0.000000,4.000000,4.000000,4.000000,4.000000,4.000000,,,,,,,,,,,,,,,,,,,,,,,,,
1577422197.443198,85.000000,0.000000,4148.717773,4422.563965,4808.205078,4108.717773,4193.333496,450.000000,4.000000,,,,0.000000,4.000000,4.000000,4.000000,4.000000,4.000000,,,,,,,,,,,,,,,,,,,,,,,,,
1577422197.450993,86.000000,0.000000,4149.743652,4418.974121,4824.102539,4108.205078,4186.153809,450.000000,4.000000,,,,0.000000,4.000000,4.000000,4.000000,4.000000,4.000000,,,,,,,,,,,,,,,,,,,,,,,,,
1577422197.458688,87.000000,0.000000,4157.948730,4423.589844,4847.179688,4114.358887,4183.077148,16217.000000,4.000000,,,,0.000000,4.000000,4.000000,4.000000,4.000000,4.000000,28.272057,7.645279,3.938790,9.885456,8.487062,27.437737,5.442832,0.889193,4.340271,5.355115,34.463043,7.544443,3.316182,3.667344,5.947247,10.027763,7.468008,4.315330,3.631355,6.931137,9.511227,5.847715,3.859143,6.203569,6.711989
1577422197.466482,88.000000,0.000000,4163.589844,4428.205078,4876.922852,4113.846191,4177.948730,450.000000,4.000000,,,,0.000000,4.000000,4.000000,4.000000,4.000000,4.000000,,,,,,,,,,,,,,,,,,,,,,,,,
1577422197.474177,89.000000,0.000000,4152.820313,4425.641113,4893.333496,4096.922852,4162.563965,450.000000,4.000000,,,,0.000000,4.000000,4.000000,4.000000,4.000000,4.000000,,,,,,,,,,,,,,,,,,,,,,,,,
1577422197.481972,90.000000,0.000000,4137.436035,4423.077148,4891.282227,4081.025635,4149.743652,450.000000,4.000000,,,,0.000000,4.000000,4.000000,4.000000,4.000000,4.000000,,,,,,,,,,,,,,,,,,,,,,,,,
1577422197.489667,91.000000,0.000000,4123.077148,4426.153809,4878.461426,4076.923096,4137.948730,16217.000000,4.000000,,,,0.000000,4.000000,4.000000,4.000000,4.000000,4.000000,,,,,,,,,,,,,,,,,,,,,,,,,
1577422197.497461,92.000000,0.000000,4114.358887,4448.205078,4869.743652,4084.102539,4132.307617,450.000000,4.000000,,,,0.000000,4.000000,4.000000,4.000000,4.000000,4.000000,,,,,,,,,,,,,,,,,,,,,,,,,
1577422197.505156,93.000000,0.000000,4112.307617,4482.563965,4859.487305,4089.743652,4131.282227,450.000000,4.000000,,,,0.000000,4.000000,4.000000,4.000000,4.000000,4.000000,,,,,,,,,,,,,,,,,,,,,,,,,
1577422197.512950,94.000000,0.000000,4111.794922,4489.230957,4827.692383,4081.025635,4125.128418,450.000000,4.000000,,,,0.000000,4.000000,4.000000,4.000000,4.000000,4.000000,,,,,,,,,,,,,,,,,,,,,,,,,
1577422197.520645,95.000000,0.000000,4114.358887,4473.333496,4798.461426,4085.128174,4125.128418,16217.000000,4.000000,,,,0.000000,4.000000,4.000000,4.000000,4.000000,4.000000,,,,,,,,,,,,,,,,,,,,,,,,,
1577422197.528439,96.000000,0.000000,4112.307617,4466.666504,4757.948730,4090.256348,4124.102539,450.000000,4.000000,,,,0.000000,4.000000,4.000000,4.000000,4.000000,4.000000,,,,,,,,,,,,,,,,,,,,,,,,,
1577422197.536134,97.000000,0.000000,4116.922852,4461.025879,4675.384766,4066.153809,4116.922852,450.000000,4.000000,,,,0.000000,4.000000,4.000000,4.000000,4.000000,4.000000,,,,,,,,,,,,,,,,,,,,,,,,,
1577422197.543829,98.000000,0.000000,4159.487305,4449.743652,4616.922852,4059.487061,4141.538574,450.000000,4.000000,,,,0.000000,4.000000,4.000000,4.000000,4.000000,4.000000,,,,,,,,,,,,,,,,,,,,,,,,,
1577422197.551625,99.000000,0.000000,4202.051270,4442.051270,4599.487305,4080.512939,4171.794922,16217.000000,4.000000,,,,0.000000,4.000000,4.000000,4.000000,4.000000,4.000000,,,,,,,,,,,,,,,,,,,,,,,,,
1577422197.559421,100.000000,0.000000,4194.871582,4432.820313,4550.256348,4068.718018,4155.897461,450.000000,4.000000,,,,0.000000,4.000000,4.000000,4.000000,4.000000,4.000000,,,,,,,,,,,,,,,,,,,,,,,,,
1577422197.567115,101.000000,0.000000,4184.615234,4427.692383,4493.846191,4055.897461,4141.538574,450.000000,4.000000,,,,0.000000,4.000000,4.000000,4.000000,4.000000,4.000000,,,,,,,,,,,,,,,,,,,,,,,,,
1577422197.574810,102.000000,0.000000,4183.077148,4419.487305,4469.743652,4067.179443,4150.769043,450.000000,4.000000,,,,0.000000,4.000000,4.000000,4.000000,4.000000,4.000000,,,,,,,,,,,,,,,,,,,,,,,,,
1577422197.582606,103.000000,0.000000,4156.410156,4406.153809,4432.820313,4053.333252,4134.358887,16217.000000,4.000000,,,,0.000000,4.000000,4.000000,4.000000,4.000000,4.000000,23.051891,7.923356,4.564577,9.603507,5.492357,37.322311,7.927705,1.221592,4.121564,3.138705,42.689220,11.406972,3.884090,3.717494,3.540527,13.447742,9.707126,5.152730,4.348924,3.802192,9.765019,7.339768,4.587739,6.191617,4.494606
1577422197.590301,104.000000,0.000000,4135.897461,4405.641113,4383.077148,4027.692383,4109.230957,450.000000,4.000000,,,,0.000000,4.000000,4.000000,4.000000,4.000000,4.000000,,,,,,,,,,,,,,,,,,,,,,,,,
1577422197.598096,105.000000,0.000000,4137.948730,4407.179688,4357.436035,4031.281982,4112.820313,450.000000,4.000000,,,,0.000000,4.000000,4.000000,4.000000,4.000000,4.000000,,,,,,,,,,,,,,,,,,,,,,,,,
1577422197.605792,106.000000,0.000000,4140.512695,4401.025879,4349.230957,4044.615479,4120.512695,450.000000,4.000000,,,,0.000000,4.000000,4.000000,4.000000,4.000000,4.000000,,,,,,,,,,,,,,,,,,,,,,,,,
1577422197.613587,107.000000,0.000000,4144.615234,4397.948730,4341.025879,4049.743652,4117.948730,16217.000000,4.000000,,,,0.000000,4.000000,4.000000,4.000000,4.000000,4.000000,,,,,,,,,,,,,,,,,,,,,,,,,
1577422197.621382,108.000000,0.000000,4150.256348,4395.384766,4327.692383,4049.743652,4123.589844,450.000000,4.000000,,,,0.000000,4.000000,4.000000,4.000000,4.000000,4.000000,,,,,,,,,,,,,,,,,,,,,,,,,
1577422197.629076,109.000000,0.000000,4148.717773,4395.897461,4321.538574,4047.692383,4127.179688,450.000000,4.000000,,,,0.000000,4.000000,4.000000,4.000000,4.000000,4.000000,,,,,,,,,,,,,,,,,,,,,,,,,
1577422197.636771,110.000000,0.000000,4148.205078,4402.051270,4331.794922,4051.281982,4125.128418,450.000000,4.000000,,,,0.000000,4.000000,4.000000,4.000000,4.000000,4.000000,,,,,,,,,,,,,,,,,,,,,,,,,
1577422197.644467,111.000000,0.000000,4153.333496,4402.563965,4348.205078,4063.589844,4131.794922,16217.000000,4.000000,,,,0.000000,4.000000,4.000000,4.000000,4.000000,4.000000,,,,,,,,,,,,,,,,,,,,,,,,,
1577422197.652263,112.000000,0.000000,4150.769043,4408.205078,4358.461426,4070.256348,4135.897461,450.000000,4.000000,,,,0.000000,4.000000,4.000000,4.000000,4.000000,4.000000,,,,,,,,,,,,,,,,,,,,,,,,,
1577422197.660060,113.000000,0.000000,4135.384766,4420.512695,4358.461426,4063.589844,4127.179688,450.000000,4.000000,,,,0.000000,4.000000,4.000000,4.000000,4.000000,4.000000,,,,,,,,,,,,,,,,,,,,,,,,,
1577422197.667754,114.000000,0.000000,4127.179688,4420.000000,4355.897461,4054.358887,4115.897461,450.000000,4.000000,,,,0.000000,4.000000,4.000000,4.000000,4.000000,4.000000,,,,,,,,,,,,,,,,,,,,,,,,,
1577422197.675451,115.000000,0.000000,4129.230957,4421.025879,4358.461426,4049.743652,4114.358887,16217.000000,4.000000,,,,0.000000,4.000000,4.000000,4.000000,4.000000,4.000000,,,,,,,,,,,,,,,,,,,,,,,,,
1577422197.683148,116.000000,0.000000,4138.974121,4442.051270,4364.102539,4055.897461,4125.641113,450.000000,4.000000,,,,0.000000,4.000000,4.000000,4.000000,4.000000,4.000000,,,,,,,,,,,,,,,,,,,,,,,,,
1577422197.690945,117.000000,0.000000,4145.128418,4446.153809,4358.974121,4060.512939,4126.153809,450.000000,4.000000,,,,0.000000,4.000000,4.000000,4.000000,4.000000,4.000000,,,,,,,,,,,,,,,,,,,,,,,,,
1577422197.698742,118.000000,0.000000,4135.897461,4421.538574,4341.538574,4046.153809,4111.794922,450.000000,4.000000,,,,0.000000,4.000000,4.000000,4.000000,4.000000,4.000000,,,,,,,,,,,,,,,,,,,,,,,,,
1577422197.706438,119.000000,0.000000,4129.743652,4415.897461,4335.897461,4044.615479,4111.282227,16217.000000,4.000000,,,,0.000000,4.000000,4.000000,4.000000,4.000000,4.000000,16.487789,8.381427,5.010349,8.681911,4.449977,49.762897,11.265688,1.645428,3.690978,2.475474,54.140881,17.053415,4.323252,3.751997,2.811756,16.118315,11.524887,5.657122,4.929457,2.916557,9.984991,8.720793,5.132777,5.917298,3.766082
1577422197.714234,120.000000,0.000000,4135.384766,4421.538574,4340.512695,4066.153809,4120.000000,450.000000,4.000000,,,,0.000000,4.000000,4.000000,4.000000,4.000000,4.000000,,,,,,,,,,,,,,,,,,,,,,,,,
1577422197.721930,121.000000,0.000000,4134.871582,4412.820313,4342.051270,4078.974365,4117.948730,450.000000,4.000000,,,,0.000000,4.000000,4.000000,4.000000,4.000000,4.000000,,,,,,,,,,,,,,,,,,,,,,,,,
1577422197.729725,122.000000,0.000000,4128.717773,4412.307617,4350.769043,4074.871826,4109.230957,450.000000,4.000000,,,,0.000000,4.000000,4.000000,4.000000,4.000000,4.000000,,,,,,,,,,,,,,,,,,,,,,,,,
1577422197.737421,123.000000,0.000000,4143.077148,4431.282227,4376.922852,4082.051270,4118.461426,16217.000000,4.000000,,,,0.000000,4.000000,4.000000,4.000000,4.000000,4.000000,,,,,,,,,,,,,,,,,,,,,,,,,
1577422197.745217,124.000000,0.000000,4164.615234,4430.256348,4404.102539,4095.897461,4133.846191,450.000000,4.000000,,,,0.000000,4.000000,4.000000,4.000000,4.000000,4.000000,,,,,,,,,,,,,,,,,,,,,,,,,
1577422197.752913,125.000000,0.000000,4155.384766,4410.256348,4400.000000,4083.589844,4123.077148,450.000000,4.000000,,,,0.000000,4.000000,4.000000,4.000000,4.000000,4.000000,,,,,,,,,,,,,,,,,,,,,,,,,
1577422197.760708,126.000000,0.000000,4138.461426,4411.282227,4380.512695,4064.102539,4110.769043,450.000000,4.000000,,,,0.000000,4.000000,4.000000,4.000000,4.000000,4.000000,,,,,,,,,,,,,,,,,,,,,,,,,
1577422197.768406,127.000000,0.000000,4146.153809,4424.615234,4389.743652,4073.846191,4120.512695,234.000000,4.000000,,,,0.000000,4.000000,4.000000,4.000000,4.000000,4.000000,,,,,,,,,,,,,,,,,,,,,,,,,
1577422197.776106,0.000000,0.000000,4162.563965,4430.256348,4412.820313,4092.820557,4144.615234,450.000000,4.000000,,,,0.000000,4.000000,4.000000,4.000000,4.000000,4.000000,,,,,,,,,,,,,,,,,,,,,,,,,
1577422197.783905,1.000000,0.000000,4167.179688,4429.230957,4415.897461,4092.820557,4160.000000,450.000000,4.000000,,,,0.000000,4.000000,4.000000,4.000000,4.000000,4.000000,,,,,,,,,,,,,,,,,,,,,,,,,
1577422197.791705,2.000000,0.000000,4160.000000,4417.948730,4405.128418,4086.153809,4151.282227,16211.000000,4.000000,,,,0.000000,4.000000,4.000000,4.000000,4.000000,4.000000,,,,,,,,,,,,,,,,,,,,,,,,,
1577422197.799504,3.000000,0.000000,4161.025879,4410.256348,4402.051270,4083.076904,4143.077148,450.000000,4.000000,,,,0.000000,4.000000,4.000000,4.000000,4.000000,4.000000,,,,,,,,,,,,,,,,,,,,,,,,,
1577422197.807201,4.000000,0.000000,4157.948730,4408.205078,4395.384766,4076.923096,4140.000000,16187.000000,4.000000,,,,0.000000,4.000000,4.000000,4.000000,4.000000,4.000000,,,,,,,,,,,,,,,,,,,,,,,,,
1577422197.814899,5.000000,0.000000,4134.871582,4400.512695,4372.820313,4064.102539,4125.128418,450.000000,4.000000,,,,0.000000,4.000000,4.000000,4.000000,4.000000,4.000000,,,,,,,,,,,,,,,,,,,,,,,,,
1577422197.822696,6.000000,0.000000,4139.487305,4404.102539,4353.333496,4063.589844,4133.333496,16163.000000,4.000000,,,,0.000000,4.000000,4.000000,4.000000,4.000000,4.000000,,,,,,,,,,,,,,,,,,,,,,,,,
1577422197.830394,7.000000,0.000000,4176.922852,4410.769043,4344.615234,4078.974365,4169.230957,450.000000,4.000000,,,,0.000000,4.000000,4.000000,4.000000,4.000000,4.000000,10.547706,9.094826,5.208915,7.279134,3.883288,62.874901,14.711477,2.110706,3.127410,2.260114,70.388969,23.915051,4.428458,3.694668,2.524307,17.223526,12.464717,5.706702,5.162626,2.689664,10.382315,9.804966,5.340046,5.383539,3.367445
1577422197.838192,8.000000,0.000000,4191.794922,4396.410156,4340.000000,4087.179443,4184.615234,450.000000,4.000000,,,,0.000000,4.000000,4.000000,4.000000,4.000000,4.000000,,,,,,,,,,,,,,,,,,,,,,,,,
1577422197.845889,9.000000,0.000000,4177.948730,4384.615234,4328.717773,4076.923096,4171.282227,16167.000000,4.000000,,,,0.000000,4.000000,4.000000,4.000000,4.000000,4.000000,,,,,,,,,,,,,,,,,,,,,,,,,
1577422197.853687,10.000000,0.000000,4176.410156,4386.666504,4313.846191,4073.846191,4165.641113,450.000000,4.000000,,,,0.000000,4.000000,4.000000,4.000000,4.000000,4.000000,,,,,,,,,,,,,,,,,,,,,,,,,
1577422197.861384,11.000000,0.000000,4194.358887,4382.563965,4308.205078,4087.179443,4173.846191,16218.000000,4.000000,,,,0.000000,4.000000,4.000000,4.000000,4.000000,4.000000,,,,,,,,,,,,,,,,,,,,,,,,,
1577422197.869182,12.000000,0.000000,4189.230957,4370.256348,4292.820313,4078.974365,4164.615234,450.000000,4.000000,,,,0.000000,4.000000,4.000000,4.000000,4.000000,4.000000,,,,,,,,,,,,,,,,,,,,,,,,,
1577422197.876879,13.000000,0.000000,4173.333496,4370.769043,4271.282227,4059.487061,4152.820313,450.000000,4.000000,,,,0.000000,4.000000,4.000000,4.000000,4.000000,4.000000,,,,,,,,,,,,,,,,,,,,,,,,,
1577422197.884677,14.000000,0.000000,4185.641113,4382.051270,4272.307617,4077.948730,4165.128418,450.000000,4.000000,,,,0.000000,4.000000,4.000000,4.000000,4.000000,4.000000,,,,,,,,,,,,,,,,,,,,,,,,,
1577422197.892374,15.000000,0.000000,4201.538574,4371.282227,4277.948730,4100.512695,4177.436035,16218.000000,4.000000,,,,0.000000,4.000000,4.000000,4.000000,4.000000,4.000000,,,,,,,,,,,,,,,,,,,,,,,,,
1577422197.900171,16.000000,0.000000,4195.384766,4353.333496,4272.307617,4094.358887,4170.256348,0.000000,4.000000,,,,0.000000,4.000000,4.000000,4.000000,4.000000,4.000000,,,,,,,,,,,,,,,,,,,,,,,,,
1577422197.907868,17.000000,0.000000,4186.153809,4351.282227,4272.820313,4084.102539,4160.512695,0.000000,4.000000,,,,0.000000,4.000000,4.000000,4.000000,4.000000,4.000000,,,,,,,,,,,,,,,,,,,,,,,,,
1577422197.915566,18.000000,0.000000,4197.948730,4355.384766,4291.282227,4092.307617,4176.410156,0.000000,4.000000,,,,0.000000,4.000000,4.000000,4.000000,4.000000,4.000000,,,,,,,,,,,,,,,,,,,,,,,,,
1577422197.923365,19.000000,0.000000,4210.256348,4356.922852,4315.897461,4103.077148,4192.307617,0.000000,4.000000,,,,0.000000,4.000000,4.000000,4.000000,4.000000,4.000000,,,,,,,,,,,,,,,,,,,,,,,,,
1577422197.931163,20.000000,0.000000,4203.077148,4355.384766,4338.461426,4097.948730,4186.153809,0.000000,4.000000,,,,0.000000,4.000000,4.000000,4.000000,4.000000,4.000000,,,,,,,,,,,,,,,,,,,,,,,,,
1577422197.938860,21.000000,0.000000,4198.461426,4351.794922,4367.179688,4094.358887,4183.077148,0.000000,4.000000,,,,0.000000,4.000000,4.000000,4.000000,4.000000,4.000000,,,,,,,,,,,,,,,,,,,,,,,,,
1577422197.946558,22.000000,0.000000,4205.641113,4351.794922,4400.000000,4100.512695,4185.128418,0.000000,4.000000,,,,0.000000,4.000000,4.000000,4.000000,4.000000,4.000000,,,,,,,,,,,,,,,,,,,,,,,,,
1577422197.954356,23.000000,0.000000,4201.538574,4351.282227,4408.205078,4098.974121,4181.538574,0.000000,4.000000,,,,0.000000,4.000000,4.000000,4.000000,4.000000,4.000000,6.769432,10.036627,5.251319,5.685363,3.242250,74.049774,17.293966,2.538766,2.534832,2.035332,88.384621,30.417036,4.188347,3.497835,2.210413,16.341444,12.297453,5.294529,4.922009,2.433681,10.979360,10.420615,5.170982,4.622899,2.875304
1577422197.962054,24.000000,0.000000,4186.666504,4346.153809,4393.333496,4095.384521,4177.436035,0.000000,4.000000,,,,0.000000,4.000000,4.000000,4.000000,4.000000,4.000000,,,,,,,,,,,,,,,,,,,,,,,,,
1577422197.969852,25.000000,0.000000,4196.922852,4351.794922,4395.897461,4107.692383,4185.128418,0.000000,4.000000,,,,0.000000,4.000000,4.000000,4.000000,4.000000,4.000000,,,,,,,,,,,,,,,,,,,,,,,,,
1577422197.977550,26.000000,0.000000,4214.358887,4361.025879,4404.102539,4117.948730,4193.333496,0.000000,4.000000,,,,0.000000,4.000000,4.000000,4.000000,4.000000,4.000000,,,,,,,,,,,,,,,,,,,,,,,,,
1577422197.985348,27.000000,0.000000,4202.051270,4347.692383,4387.179688,4104.102539,4186.666504,0.000000,4.000000,,,,0.000000,4.000000,4.000000,4.000000,4.000000,4.000000,,,,,,,,,,,,,,,,,,,,,,,,,
1577422197.993046,28.000000,0.000000,4183.589844,4329.743652,4366.666504,4092.307617,4178.974121,0.000000,4.000000,,,,0.000000,4.000000,4.000000,4.000000,4.000000,4.000000,,,,,,,,,,,,,,,,,,,,,,,,,
1577422198.000844,29.000000,0.000000,4190.769043,4343.077148,4373.333496,4108.205078,4188.205078,0.000000,4.000000,,,,0.000000,4.000000,4.000000,4.000000,4.000000,4.000000,,,,,,,,,,,,,,,,,,,,,,,,,
1577422198.008542,30.000000,0.000000,4215.384766,4367.179688,4390.256348,4125.128418,4210.256348,0.000000,4.000000,,,,0.000000,4.000000,4.000000,4.000000,4.000000,4.000000,,,,,,,,,,,,,,,,,,,,,,,,,
1577422198.016339,31.000000,0.000000,4225.128418,4353.846191,4384.102539,4114.871582,4216.410156,0.000000,4.000000,,,,0.000000,4.000000,4.000000,4.000000,4.000000,4.000000,,,,,,,,,,,,,,,,,,,,,,,,,
1577422198.024037,32.000000,0.000000,4208.205078,4326.153809,4360.512695,4098.974121,4195.384766,0.000000,4.000000,,,,0.000000,4.000000,4.000000,4.000000,4.000000,4.000000,,,,,,,,,,,,,,,,,,,,,,,,,
1577422198.031834,33.000000,0.000000,4190.256348,4326.666504,4349.230957,4097.948730,4182.563965,0.000000,4.000000,,,,0.000000,4.000000,4.000000,4.000000,4.000000,4.000000,,,,,,,,,,,,,,,,,,,,,,,,,
1577422198.039632,34.000000,0.000000,4200.512695,4337.948730,4371.282227,4114.358887,4201.025879,0.000000,4.000000,,,,0.000000,4.000000,4.000000,4.000000,4.000000,4.000000,,,,,,,,,,,,,,,,,,,,,,,,,
1577422198.047328,35.000000,0.000000,4203.077148,4332.820313,4385.128418,4112.820313,4201.538574,0.000000,4.000000,,,,0.000000,4.000000,4.000000,4.000000,4.000000,4.000000,,,,,,,,,,,,,,,,,,,,,,,,,
1577422198.055025,36.000000,0.000000,4179.487305,4327.179688,4375.384766,4090.256348,4175.384766,0.000000,4.000000,,,,0.000000,4.000000,4.000000,4.000000,4.000000,4.000000,,,,,,,,,,,,,,,,,,,,,,,,,
1577422198.062823,37.000000,0.000000,4184.615234,4343.589844,4398.461426,4100.512695,4180.512695,0.000000,4.000000,,,,0.000000,4.000000,4.000000,4.000000,4.000000,4.000000,,,,,,,,,,,,,,,,,,,,,,,,,
1577422198.070520,38.000000,0.000000,4217.436035,4358.461426,4436.410156,4133.846191,4205.128418,0.000000,4.000000,,,,0.000000,4.000000,4.000000,4.000000,4.000000,4.000000,,,,,,,,,,,,,,,,,,,,,,,,,
1577422198.078317,39.000000,0.000000,4227.692383,4355.384766,4437.436035,4138.461426,4206.666504,0.000000,4.000000,,,,0.000000,4.000000,4.000000,4.000000,4.000000,4.000000,5.257569,11.012659,5.235820,4.188567,2.517499,79.811203,18.104813,2.812681,1.998851,1.727606,105.978836,34.746700,3.674489,3.152995,1.842384,13.854900,11.094377,4.503026,4.240202,2.054834,11.522937,10.444892,4.671037,3.712910,2.297994
1577422198.086114,40.000000,0.000000,4228.205078,4349.230957,4437.436035,4126.666504,4196.410156,0.000000,4.000000,,,,0.000000,4.000000,4.000000,4.000000,4.000000,4.000000,,,,,,,,,,,,,,,,,,,,,,,,,
1577422198.093810,41.000000,0.000000,4236.922852,4346.153809,4465.128418,4131.794922,4198.461426,0.000000,4.000000,,,,0.000000,4.000000,4.000000,4.000000,4.000000,4.000000,,,,,,,,,,,,,,,,,,,,,,,,,
1577422198.101508,42.000000,0.000000,4234.871582,4340.000000,4486.666504,4135.897461,4205.641113,0.000000,4.000000,,,,0.000000,4.000000,4.000000,4.000000,4.000000,4.000000,,,,,,,,,,,,,,,,,,,,,,,,,
1577422198.109206,43.000000,0.000000,4211.282227,4324.102539,4477.948730,4118.974121,4188.205078,0.000000,4.000000,,,,0.000000,4.000000,4.000000,4.000000,4.000000,4.000000,,,,,,,,,,,,,,,,,,,,,,,,,
1577422198.117005,44.000000,0.000000,4182.051270,4313.846191,4459.487305,4095.384521,4155.384766,0.000000,4.000000,,,,0.000000,4.000000,4.000000,4.000000,4.000000,4.000000,,,,,,,,,,,,,,,,,,,,,,,,,
1577422198.124803,45.000000,0.000000,4176.922852,4325.128418,4465.128418,4092.820557,4152.307617,0.000000,4.000000,,,,0.000000,4.000000,4.000000,4.000000,4.000000,4.000000,,,,,,,,,,,,,,,,,,,,,,,,,
1577422198.132500,46.000000,0.000000,4183.077148,4321.538574,4474.871582,4100.512695,4167.179688,0.000000,4.000000,,,,0.000000,4.000000,4.000000,4.000000,4.000000,4.000000,,,,,,,,,,,,,,,,,,,,,,,,,
1577422198.140199,47.000000,0.000000,4178.461426,4304.102539,4464.102539,4100.000000,4167.692383,0.000000,4.000000,,,,0.000000,4.000000,4.000000,4.000000,4.000000,4.000000,,,,,,,,,,,,,,,,,,,,,,,,,
1577422198.147997,48.000000,0.000000,4184.102539,4316.410156,4462.051270,4107.179688,4169.230957,0.000000,4.000000,,,,0.000000,4.000000,4.000000,4.000000,4.000000,4.000000,,,,,,,,,,,,,,,,,,,,,,,,,
1577422198.155795,49.000000,0.000000,4202.051270,4333.846191,4471.282227,4120.512695,4186.153809,0.000000,4.000000,,,,0.000000,4.000000,4.000000,4.000000,4.000000,4.000000,,,,,,,,,,,,,,,,,,,,,,,,,
1577422198.163492,50.000000,0.000000,4205.128418,4321.538574,4463.589844,4120.512695,4192.820313,0.000000,4.000000,,,,0.000000,4.000000,4.000000,4.000000,4.000000,4.000000,,,,,,,,,,,,,,,,,,,,,,,,,
1577422198.171289,51.000000,0.000000,4191.282227,4309.230957,4449.743652,4113.333496,4182.051270,0.000000,4.000000,,,,0.000000,4.000000,4.000000,4.000000,4.000000,4.000000,,,,,,,,,,,,,,,,,,,,,,,,,
1577422198.178985,52.000000,0.000000,4191.794922,4319.487305,4447.692383,4119.487305,4183.589844,0.000000,4.000000,,,,0.000000,4.000000,4.000000,4.000000,4.000000,4.000000,,,,,,,,,,,,,,,,,,,,,,,,,
1577422198.186683,53.000000,0.000000,4200.000000,4316.410156,4431.794922,4122.051270,4185.641113,0.000000,4.000000,,,,0.000000,4.000000,4.000000,4.000000,4.000000,4.000000,,,,,,,,,,,,,,,,,,,,,,,,,
1577422198.194481,54.000000,0.000000,4191.282227,4297.436035,4404.615234,4105.641113,4172.307617,0.000000,4.000000,,,,0.000000,4.000000,4.000000,4.000000,4.000000,4.000000,,,,,,,,,,,,,,,,,,,,,,,,,
1577422198.202179,55.000000,0.000000,4179.487305,4303.077148,4398.974121,4096.410156,4161.025879,0.000000,4.000000,,,,0.000000,4.000000,4.000000,4.000000,4.000000,4.000000,5.297008,11.676435,5.176331,2.994022,1.830825,78.515999,16.782879,2.841043,1.574129,1.376426,121.170555,35.618359,3.031764,2.702466,1.484768,10.424241,9.187142,3.500395,3.311476,1.634451,11.621247,9.850739,3.963120,2.795171,1.735687
1577422198.209977,56.000000,0.000000,4184.102539,4322.563965,4402.563965,4102.051270,4165.641113,0.000000,4.000000,,,,0.000000,4.000000,4.000000,4.000000,4.000000,4.000000,,,,,,,,,,,,,,,,,,,,,,,,,
1577422198.217675,57.000000,0.000000,4205.128418,4333.333496,4403.589844,4112.820313,4184.102539,0.000000,4.000000,,,,0.000000,4.000000,4.000000,4.000000,4.000000,4.000000,,,,,,,,,,,,,,,,,,,,,,,,,
1577422198.225374,58.000000,0.000000,4209.743652,4338.461426,4400.000000,4112.820313,4185.128418,0.000000,4.000000,,,,0.000000,4.000000,4.000000,4.000000,4.000000,4.000000,,,,,,,,,,,,,,,,,,,,,,,,,
1577422198.233172,59.000000,0.000000,4200.512695,4346.666504,4398.461426,4112.307617,4178.461426,0.000000,4.000000,,,,0.000000,4.000000,4.000000,4.000000,4.000000,4.000000,,,,,,,,,,,,,,,,,,,,,,,,,
1577422198.240971,60.000000,0.000000,4211.794922,4351.282227,4408.717773,4129.743652,4195.384766,0.000000,4.000000,,,,0.000000,4.000000,4.000000,4.000000,4.000000,4.000000,,,,,,,,,,,,,,,,,,,,,,,,,
1577422198.248669,61.000000,0.000000,4212.820313,4348.205078,4409.230957,4132.307617,4200.000000,0.000000,4.000000,,,,0.000000,4.000000,4.000000,4.000000,4.000000,4.000000,,,,,,,,,,,,,,,,,,,,,,,,,
1577422198.256466,62.000000,0.000000,4196.410156,4356.410156,4395.384766,4118.974121,4183.077148,0.000000,4.000000,,,,0.000000,4.000000,4.000000,4.000000,4.000000,4.000000,,,,,,,,,,,,,,,,,,,,,,,,,
1577422198.264164,63.000000,0.000000,4204.615234,4369.743652,4394.358887,4129.230957,4186.666504,0.000000,4.000000,,,,0.000000,4.000000,4.000000,4.000000,4.000000,4.000000,,,,,,,,,,,,,,,,,,,,,,,,,
1577422198.271961,64.000000,0.000000,4212.820313,4361.538574,4393.333496,4139.487305,4194.871582,450.000000,4.000000,,,,0.000000,4.000000,4.000000,4.000000,4.000000,4.000000,,,,,,,,,,,,,,,,,,,,,,,,,
1577422198.279658,65.000000,0.000000,4193.333496,4349.230957,4376.410156,4127.692383,4185.128418,450.000000,4.000000,,,,0.000000,4.000000,4.000000,4.000000,4.000000,4.000000,,,,,,,,,,,,,,,,,,,,,,,,,
1577422198.287456,66.000000,0.000000,4180.000000,4353.333496,4352.307617,4115.384766,4174.871582,16216.000000,4.000000,,,,0.000000,4.000000,4.000000,4.000000,4.000000,4.000000,,,,,,,,,,,,,,,,,,,,,,,,,
1577422198.295153,67.000000,0.000000,4190.769043,4348.717773,4334.871582,4115.384766,4179.487305,450.000000,4.000000,,,,0.000000,4.000000,4.000000,4.000000,4.000000,4.000000,,,,,,,,,,,,,,,,,,,,,,,,,
1577422198.302950,68.000000,0.000000,4207.692383,4344.102539,4336.410156,4126.153809,4189.743652,16190.000000,4.000000,,,,0.000000,4.000000,4.000000,4.000000,4.000000,4.000000,,,,,,,,,,,,,,,,,,,,,,,,,
1577422198.310647,69.000000,0.000000,4201.025879,4345.128418,4331.282227,4125.128418,4179.487305,450.000000,4.000000,,,,0.000000,4.000000,4.000000,4.000000,4.000000,4.000000,,,,,,,,,,,,,,,,,,,,,,,,,
1577422198.318444,70.000000,0.000000,4176.410156,4327.179688,4314.358887,4108.717773,4155.384766,16160.000000,4.000000,,,,0.000000,4.000000,4.000000,4.000000,4.000000,4.000000,,,,,,,,,,,,,,,,,,,,,,,,,
1577422198.326141,71.000000,0.000000,4184.102539,4322.563965,4326.153809,4118.461426,4165.641113,450.000000,4.000000,,,,0.000000,4.000000,4.000000,4.000000,4.000000,4.000000,5.755511,11.675000,4.996634,2.190823,1.306562,69.893463,13.653777,2.607211,1.280326,1.052820,132.088120,32.571220,2.379184,2.224649,1.194489,7.104310,7.022706,2.478830,2.381021,1.269472,10.918243,8.701995,3.180356,2.035584,1.281578
1577422198.333937,72.000000,0.000000,4210.769043,4336.922852,4335.897461,4134.871582,4188.205078,450.000000,4.000000,,,,0.000000,4.000000,4.000000,4.000000,4.000000,4.000000,,,,,,,,,,,,,,,,,,,,,,,,,
1577422198.341634,73.000000,0.000000,4210.256348,4335.384766,4321.538574,4124.615234,4178.461426,16166.000000,4.000000,,,,0.000000,4.000000,4.000000,4.000000,4.000000,4.000000,,,,,,,,,,,,,,,,,,,,,,,,,
1577422198.349431,74.000000,0.000000,4205.128418,4329.230957,4325.641113,4124.615234,4174.871582,450.000000,4.000000,,,,0.000000,4.000000,4.000000,4.000000,4.000000,4.000000,,,,,,,,,,,,,,,,,,,,,,,,,
1577422198.357128,75.000000,0.000000,4211.282227,4331.282227,4332.820313,4133.846191,4186.153809,16210.000000,4.000000,,,,0.000000,4.000000,4.000000,4.000000,4.000000,4.000000,,,,,,,,,,,,,,,,,,,,,,,,,
1577422198.364826,76.000000,0.000000,4210.769043,4324.615234,4318.461426,4126.153809,4178.461426,450.000000,4.000000,,,,0.000000,4.000000,4.000000,4.000000,4.000000,4.000000,,,,,,,,,,,,,,,,,,,,,,,,,
1577422198.372624,77.000000,0.000000,4211.282227,4325.641113,4323.589844,4127.179688,4180.512695,450.000000,4.000000,,,,0.000000,4.000000,4.000000,4.000000,4.000000,4.000000,,,,,,,,,,,,,,,,,,,,,,,,,
1577422198.380322,78.000000,0.000000,4217.436035,4343.077148,4337.948730,4134.871582,4196.922852,450.000000,4.000000,,,,0.000000,4.000000,4.000000,4.000000,4.000000,4.000000,,,,,,,,,,,,,,,,,,,,,,,,,
1577422198.388120,79.000000,0.000000,4206.666504,4330.769043,4318.974121,4117.436035,4189.743652,16210.000000,4.000000,,,,0.000000,4.000000,4.000000,4.000000,4.000000,4.000000,,,,,,,,,,,,,,,,,,,,,,,,,
1577422198.395817,80.000000,0.000000,4194.871582,4308.205078,4303.589844,4105.641113,4179.487305,450.000000,4.000000,,,,0.000000,4.000000,4.000000,4.000000,4.000000,4.000000,,,,,,,,,,,,,,,,,,,,,,,,,
1577422198.403615,81.000000,0.000000,4201.025879,4321.025879,4318.974121,4121.025879,4190.256348,450.000000,4.000000,,,,0.000000,4.000000,4.000000,4.000000,4.000000,4.000000,,,,,,,,,,,,,,,,,,,,,,,,,
1577422198.411313,82.000000,0.000000,4217.436035,4346.153809,4344.615234,4141.025879,4206.153809,450.000000,4.000000,,,,0.000000,4.000000,4.000000,4.000000,4.000000,4.000000,,,,,,,,,,,,,,,,,,,,,,,,,
1577422198.419110,83.000000,0.000000,4233.333496,4349.230957,4363.077148,4152.820313,4215.897461,16210.000000,4.000000,,,,0.000000,4.000000,4.000000,4.000000,4.000000,4.000000,,,,,,,,,,,,,,,,,,,,,,,,,
1577422198.426808,84.000000,0.000000,4227.692383,4339.487305,4355.384766,4140.000000,4208.717773,450.000000,4.000000,,,,0.000000,4.000000,4.000000,4.000000,4.000000,4.000000,,,,,,,,,,,,,,,,,,,,,,,,,
1577422198.434605,85.000000,0.000000,4225.641113,4348.717773,4344.615234,4128.205078,4206.153809,450.000000,4.000000,,,,0.000000,4.000000,4.000000,4.000000,4.000000,4.000000,,,,,,,,,,,,,,,,,,,,,,,,,
1577422198.442303,86.000000,0.000000,4237.948730,4362.051270,4351.794922,4139.487305,4215.897461,450.000000,4.000000,,,,0.000000,4.000000,4.000000,4.000000,4.000000,4.000000,,,,,,,,,,,,,,,,,,,,,,,,,
1577422198.450100,87.000000,0.000000,4231.794922,4344.102539,4345.128418,4140.512695,4217.948730,16210.000000,4.000000,,,,0.000000,4.000000,4.000000,4.000000,4.000000,4.000000,5.981098,10.842242,4.705174,1.739234,1.004302,56.436661,9.666555,2.218491,1.095486,0.815936,138.949524,26.484879,1.879141,1.801174,1.002261,4.581495,5.068229,1.659419,1.643034,1.026635,9.385090,7.193305,2.558909,1.536375,0.989716
1577422198.457797,88.000000,0.000000,4220.000000,4322.051270,4324.615234,4135.897461,4221.025879,450.000000,4.000000,,,,0.000000,4.000000,4.000000,4.000000,4.000000,4.000000,,,,,,,,,,,,,,,,,,,,,,,,,
1577422198.465595,89.000000,0.000000,4214.358887,4318.974121,4308.205078,4132.307617,4217.948730,450.000000,4.000000,,,,0.000000,4.000000,4.000000,4.000000,4.000000,4.000000,,,,,,,,,,,,,,,,,,,,,,,,,
1577422198.473292,90.000000,0.000000,4208.205078,4313.846191,4293.846191,4122.563965,4211.794922,450.000000,4.000000,,,,0.000000,4.000000,4.000000,4.000000,4.000000,4.000000,,,,,,,,,,,,,,,,,,,,,,,,,
1577422198.481089,91.000000,0.000000,4215.384766,4305.641113,4290.256348,4127.179688,4215.897461,16210.000000,4.000000,,,,0.000000,4.000000,4.000000,4.000000,4.000000,4.000000,,,,,,,,,,,,,,,,,,,,,,,,,
1577422198.488787,92.000000,0.000000,4220.512695,4302.563965,4289.230957,4132.820313,4210.256348,450.000000,4.000000,,,,0.000000,4.000000,4.000000,4.000000,4.000000,4.000000,,,,,,,,,,,,,,,,,,,,,,,,,
1577422198.496584,93.000000,0.000000,4211.282227,4306.666504,4281.025879,4121.025879,4197.436035,450.000000,4.000000,,,,0.000000,4.000000,4.000000,4.000000,4.000000,4.000000,,,,,,,,,,,,,,,,,,,,,,,,,
1577422198.504281,94.000000,0.000000,4212.820313,4313.333496,4285.641113,4118.974121,4201.538574,450.000000,4.000000,,,,0.000000,4.000000,4.000000,4.000000,4.000000,4.000000,,,,,,,,,,,,,,,,,,,,,,,,,
1577422198.511979,95.000000,0.000000,4212.307617,4305.128418,4296.922852,4121.025879,4199.487305,16210.000000,4.000000,,,,0.000000,4.000000,4.000000,4.000000,4.000000,4.000000,,,,,,,,,,,,,,,,,,,,,,,,,
1577422198.519777,96.000000,0.000000,4196.410156,4284.615234,4299.487305,4110.256348,4190.256348,450.000000,4.000000,,,,0.000000,4.000000,4.000000,4.000000,4.000000,4.000000,,,,,,,,,,,,,,,,,,,,,,,,,
1577422198.527475,97.000000,0.000000,4190.256348,4281.025879,4294.871582,4101.538574,4194.358887,450.000000,4.000000,,,,0.000000,4.000000,4.000000,4.000000,4.000000,4.000000,,,,,,,,,,,,,,,,,,,,,,,,,
1577422198.535274,98.000000,0.000000,4196.410156,4294.871582,4292.820313,4107.692383,4198.461426,450.000000,4.000000,,,,0.000000,4.000000,4.000000,4.000000,4.000000,4.000000,,,,,,,,,,,,,,,,,,,,,,,,,
1577422198.542972,99.000000,0.000000,4206.153809,4297.436035,4303.077148,4125.128418,4195.897461,16210.000000,4.000000,,,,0.000000,4.000000,4.000000,4.000000,4.000000,4.000000,,,,,,,,,,,,,,,,,,,,,,,,,
1577422198.550770,100.000000,0.000000,4216.410156,4288.717773,4312.820313,4134.871582,4204.102539,450.000000,4.000000,,,,0.000000,4.000000,4.000000,4.000000,4.000000,4.000000,,,,,,,,,,,,,,,,,,,,,,,,,
1577422198.558468,101.000000,0.000000,4219.487305,4294.358887,4308.717773,4129.230957,4209.743652,450.000000,4.000000,,,,0.000000,4.000000,4.000000,4.000000,4.000000,4.000000,,,,,,,,,,,,,,,,,,,,,,,,,
1577422198.566266,102.000000,0.000000,4212.307617,4305.641113,4296.410156,4122.563965,4204.102539,450.000000,4.000000,,,,0.000000,4.000000,4.000000,4.000000,4.000000,4.000000,,,,,,,,,,,,,,,,,,,,,,,,,
1577422198.574064,103.000000,0.000000,4211.282227,4308.205078,4293.333496,4130.769043,4209.743652,16210.000000,4.000000,,,,0.000000,4.000000,4.000000,4.000000,4.000000,4.000000,5.795543,9.295478,4.437758,1.507529,0.895516,41.287369,5.935965,1.832669,0.972076,0.683694,140.002594,19.103220,1.639956,1.471011,0.901909,3.171992,3.646321,1.189933,1.165806,0.913584,7.415209,5.588266,2.302506,1.282173,0.852672
1577422198.581761,104.000000,0.000000,4215.897461,4312.820313,4293.333496,4135.897461,4213.333496,450.000000,4.000000,,,,0.000000,4.000000,4.000000,4.000000,4.000000,4.000000,,,,,,,,,,,,,,,,,,,,,,,,,
1577422198.589459,105.000000,0.000000,4209.743652,4315.384766,4281.025879,4120.000000,4196.922852,450.000000,4.000000,,,,0.000000,4.000000,4.000000,4.000000,4.000000,4.000000,,,,,,,,,,,,,,,,,,,,,,,,,
1577422198.597256,106.000000,0.000000,4216.922852,4320.000000,4286.153809,4124.615234,4206.666504,450.000000,4.000000,,,,0.000000,4.000000,4.000000,4.000000,4.000000,4.000000,,,,,,,,,,,,,,,,,,,,,,,,,
1577422198.604954,107.000000,0.000000,4238.461426,4321.538574,4309.743652,4147.692383,4234.871582,16210.000000,4.000000,,,,0.000000,4.000000,4.000000,4.000000,4.000000,4.000000,,,,,,,,,,,,,,,,,,,,,,,,,
1577422198.612752,108.000000,0.000000,4234.358887,4309.230957,4304.615234,4139.487305,4228.717773,450.000000,4.000000,,,,0.000000,4.000000,4.000000,4.000000,4.000000,4.000000,,,,,,,,,,,,,,,,,,,,,,,,,
1577422198.620449,109.000000,0.000000,4212.307617,4303.589844,4282.051270,4114.871582,4205.641113,450.000000,4.000000,,,,0.000000,4.000000,4.000000,4.000000,4.000000,4.000000,,,,,,,,,,,,,,,,,,,,,,,,,
1577422198.628247,110.000000,0.000000,4206.666504,4300.512695,4276.922852,4113.333496,4204.102539,450.000000,4.000000,,,,0.000000,4.000000,4.000000,4.000000,4.000000,4.000000,,,,,,,,,,,,,,,,,,,,,,,,,
1577422198.636044,111.000000,0.000000,4214.358887,4286.666504,4277.436035,4124.102539,4212.307617,16210.000000,4.000000,,,,0.000000,4.000000,4.000000,4.000000,4.000000,4.000000,,,,,,,,,,,,,,,,,,,,,,,,,
1577422198.643740,112.000000,0.000000,4208.205078,4277.436035,4261.025879,4114.358887,4200.000000,450.000000,4.000000,,,,0.000000,4.000000,4.000000,4.000000,4.000000,4.000000,,,,,,,,,,,,,,,,,,,,,,,,,
1577422198.651438,113.000000,0.000000,4203.077148,4285.128418,4252.307617,4102.563965,4194.358887,450.000000,4.000000,,,,0.000000,4.000000,4.000000,4.000000,4.000000,4.000000,,,,,,,,,,,,,,,,,,,,,,,,,
1577422198.659235,114.000000,0.000000,4216.922852,4300.000000,4265.128418,4115.897461,4213.333496,450.000000,4.000000,,,,0.000000,4.000000,4.000000,4.000000,4.000000,4.000000,,,,,,,,,,,,,,,,,,,,,,,,,
1577422198.666932,115.000000,0.000000,4212.820313,4295.384766,4261.025879,4111.282227,4203.589844,16210.000000,4.000000,,,,0.000000,4.000000,4.000000,4.000000,4.000000,4.000000,,,,,,,,,,,,,,,,,,,,,,,,,
1577422198.674730,116.000000,0.000000,4197.948730,4276.922852,4252.820313,4095.897461,4181.538574,450.000000,4.000000,,,,0.000000,4.000000,4.000000,4.000000,4.000000,4.000000,,,,,,,,,,,,,,,,,,,,,,,,,
1577422198.682427,117.000000,0.000000,4205.128418,4278.974121,4271.282227,4111.282227,4190.256348,450.000000,4.000000,,,,0.000000,4.000000,4.000000,4.000000,4.000000,4.000000,,,,,,,,,,,,,,,,,,,,,,,,,
1577422198.690224,118.000000,0.000000,4214.358887,4295.897461,4281.538574,4126.153809,4203.077148,450.000000,4.000000,,,,0.000000,4.000000,4.000000,4.000000,4.000000,4.000000,,,,,,,,,,,,,,,,,,,,,,,,,
1577422198.697921,119.000000,0.000000,4229.230957,4296.410156,4281.538574,4136.410156,4218.461426,16210.000000,4.000000,,,,0.000000,4.000000,4.000000,4.000000,4.000000,4.000000,5.205581,7.424339,4.298061,1.362721,0.903611,27.807390,3.287758,1.566685,0.869149,0.639040,133.582489,12.441496,1.665264,1.229311,0.866297,2.404044,2.854642,1.054853,0.903474,0.890134,5.405435,4.159306,2.405894,1.174720,0.822455
1577422198.705718,120.000000,0.000000,4254.358887,4290.256348,4288.205078,4158.974121,4239.487305,450.000000,4.000000,,,,0.000000,4.000000,4.000000,4.000000,4.000000,4.000000,,,,,,,,,,,,,,,,,,,,,,,,,
1577422198.713415,121.000000,0.000000,4244.102539,4293.846191,4270.769043,4149.230957,4229.230957,450.000000,4.000000,,,,0.000000,4.000000,4.000000,4.000000,4.000000,4.000000,,,,,,,,,,,,,,,,,,,,,,,,,
1577422198.721113,122.000000,0.000000,4214.358887,4294.358887,4233.333496,4112.307617,4194.358887,450.000000,4.000000,,,,0.000000,4.000000,4.000000,4.000000,4.000000,4.000000,,,,,,,,,,,,,,,,,,,,,,,,,
1577422198.728911,123.000000,0.000000,4217.436035,4284.615234,4218.461426,4109.230957,4189.743652,16210.000000,4.000000,,,,0.000000,4.000000,4.000000,4.000000,4.000000,4.000000,,,,,,,,,,,,,,,,,,,,,,,,,
1577422198.736709,124.000000,0.000000,4227.179688,4282.563965,4221.538574,4118.974121,4203.589844,450.000000,4.000000,,,,0.000000,4.000000,4.000000,4.000000,4.000000,4.000000,,,,,,,,,,,,,,,,,,,,,,,,,
1577422198.744406,125.000000,0.000000,4214.871582,4294.871582,4224.102539,4113.846191,4195.897461,450.000000,4.000000,,,,0.000000,4.000000,4.000000,4.000000,4.000000,4.000000,,,,,,,,,,,,,,,,,,,,,,,,,
1577422198.752104,126.000000,0.000000,4205.128418,4293.333496,4217.436035,4110.256348,4182.563965,450.000000,4.000000,,,,0.000000,4.000000,4.000000,4.000000,4.000000,4.000000,,,,,,,,,,,,,,,,,,,,,,,,,
1577422198.759902,127.000000,0.000000,4204.102539,4277.948730,4204.615234,4104.102539,4176.922852,234.000000,4.000000,,,,0.000000,4.000000,4.000000,4.000000,4.000000,4.000000,,,,,,,,,,,,,,,,,,,,,,,,,
1577422198.767700,0.000000,0.000000,4201.025879,4279.487305,4206.153809,4097.436035,4178.461426,450.000000,4.000000,,,,0.000000,4.000000,4.000000,4.000000,4.000000,4.000000,,,,,,,,,,,,,,,,,,,,,,,,,
1577422198.775397,1.000000,0.000000,4213.846191,4300.512695,4227.179688,4113.333496,4196.922852,450.000000,4.000000,,,,0.000000,4.000000,4.000000,4.000000,4.000000,4.000000,,,,,,,,,,,,,,,,,,,,,,,,,
1577422198.783095,2.000000,0.000000,4227.692383,4307.692383,4240.512695,4130.256348,4211.282227,16221.000000,4.000000,,,,0.000000,4.000000,4.000000,4.000000,4.000000,4.000000,,,,,,,,,,,,,,,,,,,,,,,,,
1577422198.790892,3.000000,0.000000,4218.974121,4298.974121,4235.384766,4119.487305,4198.461426,450.000000,4.000000,,,,0.000000,4.000000,4.000000,4.000000,4.000000,4.000000,,,,,,,,,,,,,,,,,,,,,,,,,
1577422198.798590,4.000000,0.000000,4224.615234,4304.615234,4244.102539,4122.563965,4193.846191,16203.000000,4.000000,,,,0.000000,4.000000,4.000000,4.000000,4.000000,4.000000,,,,,,,,,,,,,,,,,,,,,,,,,
1577422198.806387,5.000000,0.000000,4240.512695,4306.666504,4260.512695,4141.025879,4205.641113,450.000000,4.000000,,,,0.000000,4.000000,4.000000,4.000000,4.000000,4.000000,,,,,,,,,,,,,,,,,,,,,,,,,
1577422198.814085,6.000000,0.000000,4232.820313,4292.307617,4262.051270,4137.436035,4196.410156,16172.000000,4.000000,,,,0.000000,4.000000,4.000000,4.000000,4.000000,4.000000,,,,,,,,,,,,,,,,,,,,,,,,,
1577422198.821883,7.000000,0.000000,4221.025879,4278.974121,4258.974121,4124.102539,4178.461426,450.000000,4.000000,,,,0.000000,4.000000,4.000000,4.000000,4.000000,4.000000,4.404292,5.679126,4.282119,1.228096,0.951649,17.818478,1.967560,1.455222,0.771632,0.650886,119.019341,7.972667,1.846176,1.047638,0.863955,2.001101,2.588214,1.160951,0.758972,0.901007,3.934827,3.068888,2.688941,1.106616,0.842134
1577422198.829580,8.000000,0.000000,4218.974121,4272.820313,4254.871582,4119.487305,4176.410156,450.000000,4.000000,,,,0.000000,4.000000,4.000000,4.000000,4.000000,4.000000,,,,,,,,,,,,,,,,,,,,,,,,,
1577422198.837378,9.000000,0.000000,4211.794922,4265.128418,4246.666504,4114.871582,4172.307617,16167.000000,4.000000,,,,0.000000,4.000000,4.000000,4.000000,4.000000,4.000000,,,,,,,,,,,,,,,,,,,,,,,,,
1577422198.845075,10.000000,0.000000,4207.179688,4258.974121,4240.512695,4108.717773,4167.692383,450.000000,4.000000,,,,0.000000,4.000000,4.000000,4.000000,4.000000,4.000000,,,,,,,,,,,,,,,,,,,,,,,,,
1577422198.852872,11.000000,0.000000,4223.589844,4259.487305,4252.820313,4116.922852,4189.230957,16211.000000,4.000000,,,,0.000000,4.000000,4.000000,4.000000,4.000000,4.000000,,,,,,,,,,,,,,,,,,,,,,,,,
1577422198.860570,12.000000,0.000000,4242.051270,4257.436035,4265.641113,4128.205078,4205.641113,450.000000,4.000000,,,,0.000000,4.000000,4.000000,4.000000,4.000000,4.000000,,,,,,,,,,,,,,,,,,,,,,,,,
1577422198.868367,13.000000,0.000000,4236.922852,4260.000000,4252.820313,4120.000000,4193.846191,450.000000,4.000000,,,,0.000000,4.000000,4.000000,4.000000,4.000000,4.000000,,,,,,,,,,,,,,,,,,,,,,,,,
1577422198.876064,14.000000,0.000000,4221.025879,4262.563965,4230.769043,4108.205078,4177.436035,450.000000,4.000000,,,,0.000000,4.000000,4.000000,4.000000,4.000000,4.000000,,,,,,,,,,,,,,,,,,,,,,,,,
1577422198.883763,15.000000,0.000000,4208.717773,4260.512695,4224.102539,4106.666504,4164.102539,16211.000000,4.000000,,,,0.000000,4.000000,4.000000,4.000000,4.000000,4.000000,,,,,,,,,,,,,,,,,,,,,,,,,
1577422198.891561,16.000000,0.000000,4203.589844,4271.794922,4234.358887,4112.307617,4155.897461,0.000000,4.000000,,,,0.000000,4.000000,4.000000,4.000000,4.000000,4.000000,,,,,,,,,,,,,,,,,,,,,,,,,
1577422198.899259,17.000000,0.000000,4216.410156,4294.358887,4266.153809,4133.846191,4170.769043,0.000000,4.000000,,,,0.000000,4.000000,4.000000,4.000000,4.000000,4.000000,,,,,,,,,,,,,,,,,,,,,,,,,
1577422198.906959,18.000000,0.000000,4246.153809,4306.666504,4307.179688,4160.000000,4206.153809,0.000000,4.000000,,,,0.000000,4.000000,4.000000,4.000000,4.000000,4.000000,,,,,,,,,,,,,,,,,,,,,,,,,
1577422198.914758,19.000000,0.000000,4260.000000,4310.256348,4321.538574,4163.589844,4224.615234,0.000000,4.000000,,,,0.000000,4.000000,4.000000,4.000000,4.000000,4.000000,,,,,,,,,,,,,,,,,,,,,,,,,
1577422198.922458,20.000000,0.000000,4247.692383,4303.077148,4307.179688,4151.282227,4217.948730,0.000000,4.000000,,,,0.000000,4.000000,4.000000,4.000000,4.000000,4.000000,,,,,,,,,,,,,,,,,,,,,,,,,
1577422198.930257,21.000000,0.000000,4242.051270,4288.205078,4301.538574,4144.615234,4217.436035,0.000000,4.000000,,,,0.000000,4.000000,4.000000,4.000000,4.000000,4.000000,,,,,,,,,,,,,,,,,,,,,,,,,
1577422198.937956,22.000000,0.000000,4259.487305,4296.410156,4316.410156,4150.769043,4226.666504,0.000000,4.000000,,,,0.000000,4.000000,4.000000,4.000000,4.000000,4.000000,,,,,,,,,,,,,,,,,,,,,,,,,
1577422198.945756,23.000000,0.000000,4269.743652,4308.205078,4327.692383,4161.025879,4227.692383,0.000000,4.000000,,,,0.000000,4.000000,4.000000,4.000000,4.000000,4.000000,3.666543,4.378043,4.269834,1.083612,0.992890,11.817020,1.605082,1.447383,0.678310,0.689730,96.297974,5.992575,2.028308,0.902015,0.872727,1.771413,2.610646,1.378419,0.660869,0.912671,3.205609,2.358390,2.904051,1.013865,0.873084
1577422198.953455,24.000000,0.000000,4244.615234,4290.256348,4314.358887,4153.333496,4206.153809,0.000000,4.000000,,,,0.000000,4.000000,4.000000,4.000000,4.000000,4.000000,,,,,,,,,,,,,,,,,,,,,,,,,
1577422198.961254,25.000000,0.000000,4212.820313,4269.230957,4295.384766,4131.282227,4176.922852,0.000000,4.000000,,,,0.000000,4.000000,4.000000,4.000000,4.000000,4.000000,,,,,,,,,,,,,,,,,,,,,,,,,
1577422198.968953,26.000000,0.000000,4218.974121,4275.897461,4304.102539,4136.922852,4182.051270,0.000000,4.000000,,,,0.000000,4.000000,4.000000,4.000000,4.000000,4.000000,,,,,,,,,,,,,,,,,,,,,,,,,
1577422198.976752,27.000000,0.000000,4241.025879,4288.205078,4324.102539,4156.410156,4206.666504,0.000000,4.000000,,,,0.000000,4.000000,4.000000,4.000000,4.000000,4.000000,,,,,,,,,,,,,,,,,,,,,,,,,
1577422198.984453,28.000000,0.000000,4227.692383,4283.077148,4322.051270,4145.128418,4200.512695,0.000000,4.000000,,,,0.000000,4.000000,4.000000,4.000000,4.000000,4.000000,,,,,,,,,,,,,,,,,,,,,,,,,
1577422198.992356,29.000000,0.000000,4210.256348,4287.179688,4321.025879,4131.794922,4184.615234,0.000000,4.000000,,,,0.000000,4.000000,4.000000,4.000000,4.000000,4.000000,,,,,,,,,,,,,,,,,,,,,,,,,
1577422199.000158,30.000000,0.000000,4211.794922,4301.025879,4329.230957,4133.333496,4181.025879,0.000000,4.000000,,,,0.000000,4.000000,4.000000,4.000000,4.000000,4.000000,,,,,,,,,,,,,,,,,,,,,,,,,
1577422199.007961,31.000000,0.000000,4220.000000,4305.641113,4340.512695,4140.512695,4191.282227,0.000000,4.000000,,,,0.000000,4.000000,4.000000,4.000000,4.000000,4.000000,,,,,,,,,,,,,,,,,,,,,,,,,
1577422199.015763,32.000000,0.000000,4242.563965,4317.436035,4366.666504,4163.077148,4219.487305,0.000000,4.000000,,,,0.000000,4.000000,4.000000,4.000000,4.000000,4.000000,,,,,,,,,,,,,,,,,,,,,,,,,
1577422199.023566,33.000000,0.000000,4245.128418,4324.615234,4372.307617,4166.666504,4221.538574,0.000000,4.000000,,,,0.000000,4.000000,4.000000,4.000000,4.000000,4.000000,,,,,,,,,,,,,,,,,,,,,,,,,
1577422199.031264,34.000000,0.000000,4210.256348,4301.538574,4343.589844,4136.410156,4188.205078,0.000000,4.000000,,,,0.000000,4.000000,4.000000,4.000000,4.000000,4.000000,,,,,,,,,,,,,,,,,,,,,,,,,
1577422199.039164,35.000000,0.000000,4197.436035,4290.256348,4338.461426,4130.769043,4181.538574,0.000000,4.000000,,,,0.000000,4.000000,4.000000,4.000000,4.000000,4.000000,,,,,,,,,,,,,,,,,,,,,,,,,
1577422199.046964,36.000000,0.000000,4218.974121,4312.307617,4364.102539,4153.846191,4211.794922,0.000000,4.000000,,,,0.000000,4.000000,4.000000,4.000000,4.000000,4.000000,,,,,,,,,,,,,,,,,,,,,,,,,
1577422199.054664,37.000000,0.000000,4226.153809,4320.000000,4380.512695,4158.974121,4226.153809,0.000000,4.000000,,,,0.000000,4.000000,4.000000,4.000000,4.000000,4.000000,,,,,,,,,,,,,,,,,,,,,,,,,
1577422199.062564,38.000000,0.000000,4218.461426,4297.948730,4382.563965,4148.717773,4219.487305,0.000000,4.000000,,,,0.000000,4.000000,4.000000,4.000000,4.000000,4.000000,,,,,,,,,,,,,,,,,,,,,,,,,
1577422199.070365,39.000000,0.000000,4226.153809,4289.743652,4387.692383,4153.846191,4226.666504,0.000000,4.000000,,,,0.000000,4.000000,4.000000,4.000000,4.000000,4.000000,3.225883,3.653966,4.112306,0.952523,0.997981,9.246090,1.736131,1.465447,0.598487,0.724978,71.372314,5.889481,2.127665,0.795853,0.871451,1.724870,2.795175,1.557923,0.601190,0.908245,3.145633,2.027949,2.899611,0.900757,0.889516
1577422199.078266,40.000000,0.000000,4232.820313,4305.641113,4394.358887,4160.512695,4240.000000,0.000000,4.000000,,,,0.000000,4.000000,4.000000,4.000000,4.000000,4.000000,,,,,,,,,,,,,,,,,,,,,,,,,
1577422199.086067,41.000000,0.000000,4221.538574,4304.615234,4393.333496,4150.256348,4235.897461,0.000000,4.000000,,,,0.000000,4.000000,4.000000,4.000000,4.000000,4.000000,,,,,,,,,,,,,,,,,,,,,,,,,
1577422199.093967,42.000000,0.000000,4223.589844,4294.871582,4397.948730,4151.282227,4233.846191,0.000000,4.000000,,,,0.000000,4.000000,4.000000,4.000000,4.000000,4.000000,,,,,,,,,,,,,,,,,,,,,,,,,
1577422199.101768,43.000000,0.000000,4227.179688,4300.000000,4396.922852,4153.846191,4230.256348,0.000000,4.000000,,,,0.000000,4.000000,4.000000,4.000000,4.000000,4.000000,,,,,,,,,,,,,,,,,,,,,,,,,
1577422199.109569,44.000000,0.000000,4193.846191,4290.769043,4370.769043,4125.128418,4200.512695,0.000000,4.000000,,,,0.000000,4.000000,4.000000,4.000000,4.000000,4.000000,,,,,,,,,,,,,,,,,,,,,,,,,
1577422199.117269,45.000000,0.000000,4184.615234,4274.871582,4364.102539,4118.974121,4197.436035,0.000000,4.000000,,,,0.000000,4.000000,4.000000,4.000000,4.000000,4.000000,,,,,,,,,,,,,,,,,,,,,,,,,
1577422199.125068,46.000000,0.000000,4218.461426,4283.077148,4381.538574,4149.743652,4233.846191,0.000000,4.000000,,,,0.000000,4.000000,4.000000,4.000000,4.000000,4.000000,,,,,,,,,,,,,,,,,,,,,,,,,
1577422199.132767,47.000000,0.000000,4222.563965,4290.769043,4366.153809,4145.641113,4237.436035,0.000000,4.000000,,,,0.000000,4.000000,4.000000,4.000000,4.000000,4.000000,,,,,,,,,,,,,,,,,,,,,,,,,
1577422199.140566,48.000000,0.000000,4207.692383,4275.384766,4334.871582,4122.051270,4211.282227,0.000000,4.000000,,,,0.000000,4.000000,4.000000,4.000000,4.000000,4.000000,,,,,,,,,,,,,,,,,,,,,,,,,
1577422199.148266,49.000000,0.000000,4217.948730,4266.153809,4323.589844,4126.153809,4206.153809,0.000000,4.000000,,,,0.000000,4.000000,4.000000,4.000000,4.000000,4.000000,,,,,,,,,,,,,,,,,,,,,,,,,
1577422199.156065,50.000000,0.000000,4223.077148,4276.922852,4314.358887,4129.743652,4210.256348,0.000000,4.000000,,,,0.000000,4.000000,4.000000,4.000000,4.000000,4.000000,,,,,,,,,,,,,,,,,,,,,,,,,
1577422199.163764,51.000000,0.000000,4215.384766,4288.205078,4306.153809,4127.179688,4210.256348,0.000000,4.000000,,,,0.000000,4.000000,4.000000,4.000000,4.000000,4.000000,,,,,,,,,,,,,,,,,,,,,,,,,
1577422199.171664,52.000000,0.000000,4228.717773,4288.205078,4316.410156,4146.153809,4227.179688,0.000000,4.000000,,,,0.000000,4.000000,4.000000,4.000000,4.000000,4.000000,,,,,,,,,,,,,,,,,,,,,,,,,
1577422199.179464,53.000000,0.000000,4242.051270,4278.974121,4322.563965,4154.358887,4231.794922,0.000000,4.000000,,,,0.000000,4.000000,4.000000,4.000000,4.000000,4.000000,,,,,,,,,,,,,,,,,,,,,,,,,
1577422199.187364,54.000000,0.000000,4222.051270,4271.282227,4301.538574,4124.102539,4200.512695,0.000000,4.000000,,,,0.000000,4.000000,4.000000,4.000000,4.000000,4.000000,,,,,,,,,,,,,,,,,,,,,,,,,
1577422199.195265,55.000000,0.000000,4208.205078,4270.769043,4294.358887,4114.358887,4188.205078,0.000000,4.000000,,,,0.000000,4.000000,4.000000,4.000000,4.000000,4.000000,3.073588,3.432084,3.769909,0.895725,0.963249,8.662671,2.078355,1.449677,0.550636,0.737581,47.934906,6.697955,2.160589,0.777294,0.849563,1.823732,3.097867,1.611867,0.617451,0.886748,3.475094,2.006215,2.748895,0.840371,0.886486
1577422199.203066,56.000000,0.000000,4217.436035,4271.794922,4315.384766,4133.846191,4203.589844,0.000000,4.000000,,,,0.000000,4.000000,4.000000,4.000000,4.000000,4.000000,,,,,,,,,,,,,,,,,,,,,,,,,
1577422199.210868,57.000000,0.000000,4210.256348,4263.077148,4321.538574,4125.128418,4200.000000,0.000000,4.000000,,,,0.000000,4.000000,4.000000,4.000000,4.000000,4.000000,,,,,,,,,,,,,,,,,,,,,,,,,
1577422199.218768,58.000000,0.000000,4201.025879,4256.410156,4327.179688,4108.717773,4189.743652,0.000000,4.000000,,,,0.000000,4.000000,4.000000,4.000000,4.000000,4.000000,,,,,,,,,,,,,,,,,,,,,,,,,
1577422199.226568,59.000000,0.000000,4222.563965,4264.102539,4366.666504,4124.615234,4208.717773,0.000000,4.000000,,,,0.000000,4.000000,4.000000,4.000000,4.000000,4.000000,,,,,,,,,,,,,,,,,,,,,,,,,
1577422199.234468,60.000000,0.000000,4236.410156,4266.666504,4400.512695,4141.538574,4224.615234,0.000000,4.000000,,,,0.000000,4.000000,4.000000,4.000000,4.000000,4.000000,,,,,,,,,,,,,,,,,,,,,,,,,
1577422199.242267,61.000000,0.000000,4224.102539,4260.512695,4393.333496,4132.820313,4216.410156,0.000000,4.000000,,,,0.000000,4.000000,4.000000,4.000000,4.000000,4.000000,,,,,,,,,,,,,,,,,,,,,,,,,
1577422199.250167,62.000000,0.000000,4218.461426,4263.077148,4377.436035,4125.641113,4218.974121,0.000000,4.000000,,,,0.000000,4.000000,4.000000,4.000000,4.000000,4.000000,,,,,,,,,,,,,,,,,,,,,,,,,
1577422199.257967,63.000000,0.000000,4219.487305,4259.487305,4380.000000,4131.282227,4228.717773,0.000000,4.000000,,,,0.000000,4.000000,4.000000,4.000000,4.000000,4.000000,,,,,,,,,,,,,,,,,,,,,,,,,
1577422199.265667,64.000000,0.000000,4217.436035,4236.410156,4381.538574,4132.307617,4226.666504,450.000000,4.000000,,,,0.000000,4.000000,4.000000,4.000000,4.000000,4.000000,,,,,,,,,,,,,,,,,,,,,,,,,
1577422199.273466,65.000000,0.000000,4216.410156,4233.846191,4377.436035,4124.102539,4223.589844,450.000000,4.000000,,,,0.000000,4.000000,4.000000,4.000000,4.000000,4.000000,,,,,,,,,,,,,,,,,,,,,,,,,
1577422199.281166,66.000000,0.000000,4205.641113,4254.871582,4382.563965,4118.974121,4219.487305,16214.000000,4.000000,,,,0.000000,4.000000,4.000000,4.000000,4.000000,4.000000,,,,,,,,,,,,,,,,,,,,,,,,,
1577422199.288966,67.000000,0.000000,4204.102539,4255.384766,4384.615234,4125.128418,4224.615234,450.000000,4.000000,,,,0.000000,4.000000,4.000000,4.000000,4.000000,4.000000,,,,,,,,,,,,,,,,,,,,,,,,,
1577422199.296665,68.000000,0.000000,4223.077148,4249.230957,4378.974121,4135.384766,4241.538574,16186.000000,4.000000,,,,0.000000,4.000000,4.000000,4.000000,4.000000,4.000000,,,,,,,,,,,,,,,,,,,,,,,,,
1577422199.304465,69.000000,0.000000,4233.333496,4252.307617,4380.000000,4138.461426,4247.179688,450.000000,4.000000,,,,0.000000,4.000000,4.000000,4.000000,4.000000,4.000000,,,,,,,,,,,,,,,,,,,,,,,,,
1577422199.312164,70.000000,0.000000,4232.307617,4250.256348,4386.666504,4141.538574,4251.794922,16172.000000,4.000000,,,,0.000000,4.000000,4.000000,4.000000,4.000000,4.000000,,,,,,,,,,,,,,,,,,,,,,,,,
1577422199.320065,71.000000,0.000000,4224.615234,4245.641113,4381.538574,4141.538574,4252.820313,450.000000,4.000000,,,,0.000000,4.000000,4.000000,4.000000,4.000000,4.000000,3.103936,3.535040,3.332267,0.955093,0.918446,8.861962,2.577123,1.358806,0.541113,0.729605,31.519787,7.767478,2.151079,0.885225,0.819330,2.037264,3.541864,1.543822,0.733150,0.866779,3.895223,2.209717,2.660753,0.901062,0.887954
1577422199.327865,72.000000,0.000000,4207.179688,4241.538574,4372.820313,4132.307617,4238.974121,450.000000,4.000000,,,,0.000000,4.000000,4.000000,4.000000,4.000000,4.000000,,,,,,,,,,,,,,,,,,,,,,,,,
1577422199.335765,73.000000,0.000000,4197.948730,4240.000000,4369.743652,4128.205078,4230.769043,16180.000000,4.000000,,,,0.000000,4.000000,4.000000,4.000000,4.000000,4.000000,,,,,,,,,,,,,,,,,,,,,,,,,
1577422199.343566,74.000000,0.000000,4195.897461,4236.410156,4355.384766,4124.615234,4229.230957,450.000000,4.000000,,,,0.000000,4.000000,4.000000,4.000000,4.000000,4.000000,,,,,,,,,,,,,,,,,,,,,,,,,
1577422199.351466,75.000000,0.000000,4201.538574,4241.025879,4350.769043,4127.692383,4235.384766,16221.000000,4.000000,,,,0.000000,4.000000,4.000000,4.000000,4.000000,4.000000,,,,,,,,,,,,,,,,,,,,,,,,,
1577422199.359266,76.000000,0.000000,4220.000000,4249.230957,4367.179688,4142.563965,4248.717773,450.000000,4.000000,,,,0.000000,4.000000,4.000000,4.000000,4.000000,4.000000,,,,,,,,,,,,,,,,,,,,,,,,,
1577422199.367167,77.000000,0.000000,4230.769043,4249.743652,4373.846191,4145.641113,4250.256348,450.000000,4.000000,,,,0.000000,4.000000,4.000000,4.000000,4.000000,4.000000,,,,,,,,,,,,,,,,,,,,,,,,,
1577422199.374967,78.000000,0.000000,4220.512695,4246.666504,4351.282227,4131.282227,4234.871582,450.000000,4.000000,,,,0.000000,4.000000,4.000000,4.000000,4.000000,4.000000,,,,,,,,,,,,,,,,,,,,,,,,,
1577422199.382867,79.000000,0.000000,4194.358887,4232.820313,4313.333496,4108.717773,4205.128418,16221.000000,4.000000,,,,0.000000,4.000000,4.000000,4.000000,4.000000,4.000000,,,,,,,,,,,,,,,,,,,,,,,,,
1577422199.390667,80.000000,0.000000,4183.589844,4213.846191,4298.461426,4101.025879,4191.282227,450.000000,4.000000,,,,0.000000,4.000000,4.000000,4.000000,4.000000,4.000000,,,,,,,,,,,,,,,,,,,,,,,,,
1577422199.398567,81.000000,0.000000,4205.128418,4217.948730,4319.487305,4117.948730,4210.256348,450.000000,4.000000,,,,0.000000,4.000000,4.000000,4.000000,4.000000,4.000000,,,,,,,,,,,,,,,,,,,,,,,,,
1577422199.406367,82.000000,0.000000,4221.538574,4236.922852,4330.769043,4128.717773,4221.538574,450.000000,4.000000,,,,0.000000,4.000000,4.000000,4.000000,4.000000,4.000000,,,,,,,,,,,,,,,,,,,,,,,,,
1577422199.414267,83.000000,0.000000,4222.051270,4233.846191,4324.615234,4125.641113,4215.384766,16221.000000,4.000000,,,,0.000000,4.000000,4.000000,4.000000,4.000000,4.000000,,,,,,,,,,,,,,,,,,,,,,,,,
1577422199.422067,84.000000,0.000000,4218.974121,4218.461426,4331.282227,4124.102539,4215.897461,450.000000,4.000000,,,,0.000000,4.000000,4.000000,4.000000,4.000000,4.000000,,,,,,,,,,,,,,,,,,,,,,,,,
1577422199.429867,85.000000,0.000000,4209.230957,4218.974121,4341.538574,4116.922852,4215.897461,450.000000,4.000000,,,,0.000000,4.000000,4.000000,4.000000,4.000000,4.000000,,,,,,,,,,,,,,,,,,,,,,,,,
1577422199.437666,86.000000,0.000000,4197.948730,4222.563965,4338.974121,4102.563965,4203.589844,450.000000,4.000000,,,,0.000000,4.000000,4.000000,4.000000,4.000000,4.000000,,,,,,,,,,,,,,,,,,,,,,,,,
1577422199.445466,87.000000,0.000000,4189.743652,4212.820313,4338.461426,4093.333252,4191.282227,16221.000000,4.000000,,,,0.000000,4.000000,4.000000,4.000000,4.000000,4.000000,3.105099,3.742739,2.931123,1.118399,0.904329,8.852058,3.213700,1.225995,0.556181,0.715712,21.905670,8.661157,2.228697,1.115918,0.805706,2.279604,4.080438,1.395904,0.923310,0.872791,4.230068,2.550282,2.820799,1.088167,0.926836
1577422199.453165,88.000000,0.000000,4195.384766,4212.820313,4361.025879,4101.025879,4198.974121,450.000000,4.000000,,,,0.000000,4.000000,4.000000,4.000000,4.000000,4.000000,,,,,,,,,,,,,,,,,,,,,,,,,
1577422199.460865,89.000000,0.000000,4220.000000,4235.384766,4384.615234,4116.922852,4216.922852,450.000000,4.000000,,,,0.000000,4.000000,4.000000,4.000000,4.000000,4.000000,,,,,,,,,,,,,,,,,,,,,,,,,
1577422199.468765,90.000000,0.000000,4233.846191,4257.436035,4381.538574,4123.077148,4225.128418,450.000000,4.000000,,,,0.000000,4.000000,4.000000,4.000000,4.000000,4.000000,,,,,,,,,,,,,,,,,,,,,,,,,
1577422199.476566,91.000000,0.000000,4231.282227,4263.077148,4371.794922,4121.538574,4225.128418,16221.000000,4.000000,,,,0.000000,4.000000,4.000000,4.000000,4.000000,4.000000,,,,,,,,,,,,,,,,,,,,,,,,,
1577422199.484367,92.000000,0.000000,4233.846191,4241.538574,4366.153809,4126.666504,4222.563965,450.000000,4.000000,,,,0.000000,4.000000,4.000000,4.000000,4.000000,4.000000,,,,,,,,,,,,,,,,,,,,,,,,,
1577422199.492066,93.000000,0.000000,4238.461426,4231.794922,4351.794922,4135.897461,4226.666504,450.000000,4.000000,,,,0.000000,4.000000,4.000000,4.000000,4.000000,4.000000,,,,,,,,,,,,,,,,,,,,,,,,,
1577422199.499967,94.000000,0.000000,4240.512695,4252.820313,4335.897461,4138.461426,4234.871582,450.000000,4.000000,,,,0.000000,4.000000,4.000000,4.000000,4.000000,4.000000,,,,,,,,,,,,,,,,,,,,,,,,,
1577422199.507767,95.000000,0.000000,4240.000000,4246.153809,4323.077148,4130.769043,4236.410156,16221.000000,4.000000,,,,0.000000,4.000000,4.000000,4.000000,4.000000,4.000000,,,,,,,,,,,,,,,,,,,,,,,,,
1577422199.515668,96.000000,0.000000,4231.282227,4221.538574,4302.563965,4120.000000,4229.230957,450.000000,4.000000,,,,0.000000,4.000000,4.000000,4.000000,4.000000,4.000000,,,,,,,,,,,,,,,,,,,,,,,,,
1577422199.523469,97.000000,0.000000,4223.077148,4229.743652,4276.922852,4116.410156,4218.974121,450.000000,4.000000,,,,0.000000,4.000000,4.000000,4.000000,4.000000,4.000000,,,,,,,,,,,,,,,,,,,,,,,,,
1577422199.531369,98.000000,0.000000,4225.641113,4230.769043,4254.358887,4116.410156,4211.282227,450.000000,4.000000,,,,0.000000,4.000000,4.000000,4.000000,4.000000,4.000000,,,,,,,,,,,,,,,,,,,,,,,,,
1577422199.539170,99.000000,0.000000,4231.794922,4191.794922,4232.307617,4113.333496,4207.692383,16221.000000,4.000000,,,,0.000000,4.000000,4.000000,4.000000,4.000000,4.000000,,,,,,,,,,,,,,,,,,,,,,,,,
1577422199.546970,100.000000,0.000000,4230.256348,4156.410156,4213.846191,4114.358887,4204.615234,450.000000,4.000000,,,,0.000000,4.000000,4.000000,4.000000,4.000000,4.000000,,,,,,,,,,,,,,,,,,,,,,,,,
1577422199.554669,101.000000,0.000000,4231.282227,4141.538574,4192.820313,4115.384766,4200.000000,450.000000,4.000000,,,,0.000000,4.000000,4.000000,4.000000,4.000000,4.000000,,,,,,,,,,,,,,,,,,,,,,,,,
1577422199.562569,102.000000,0.000000,4226.153809,4133.846191,4170.769043,4105.128418,4187.692383,450.000000,4.000000,,,,0.000000,4.000000,4.000000,4.000000,4.000000,4.000000,,,,,,,,,,,,,,,,,,,,,,,,,
1577422199.570370,103.000000,0.000000,4203.077148,4140.512695,4172.820313,4096.410156,4171.282227,16221.000000,4.000000,,,,0.000000,4.000000,4.000000,4.000000,4.000000,4.000000,2.992544,3.881666,2.699102,1.344294,0.947005,8.336372,3.870261,1.081208,0.576078,0.710999,17.393496,9.045207,2.419448,1.423364,0.828519,2.456563,4.546506,1.225873,1.134419,0.919212,4.486340,2.891735,3.266487,1.359797,1.020699
1577422199.578170,104.000000,0.000000,4193.333496,4141.025879,4193.333496,4104.102539,4165.641113,450.000000,4.000000,,,,0.000000,4.000000,4.000000,4.000000,4.000000,4.000000,,,,,,,,,,,,,,,,,,,,,,,,,
1577422199.585869,105.000000,0.000000,4190.256348,4124.102539,4181.538574,4091.281982,4151.282227,450.000000,4.000000,,,,0.000000,4.000000,4.000000,4.000000,4.000000,4.000000,,,,,,,,,,,,,,,,,,,,,,,,,
1577422199.593769,106.000000,0.000000,4168.205078,4122.051270,4163.077148,4063.589844,4118.974121,450.000000,4.000000,,,,0.000000,4.000000,4.000000,4.000000,4.000000,4.000000,,,,,,,,,,,,,,,,,,,,,,,,,
1577422199.601569,107.000000,0.000000,4178.461426,4149.743652,4219.487305,4090.256348,4129.743652,16221.000000,4.000000,,,,0.000000,4.000000,4.000000,4.000000,4.000000,4.000000,,,,,,,,,,,,,,,,,,,,,,,,,
1577422199.609469,108.000000,0.000000,4241.025879,4176.922852,4311.794922,4150.256348,4188.717773,450.000000,4.000000,,,,0.000000,4.000000,4.000000,4.000000,4.000000,4.000000,,,,,,,,,,,,,,,,,,,,,,,,,
1577422199.617269,109.000000,0.000000,4275.384766,4187.179688,4356.410156,4166.153809,4213.846191,450.000000,4.000000,,,,0.000000,4.000000,4.000000,4.000000,4.000000,4.000000,,,,,,,,,,,,,,,,,,,,,,,,,
1577422199.625169,110.000000,0.000000,4254.871582,4188.205078,4365.641113,4142.563965,4188.717773,450.000000,4.000000,,,,0.000000,4.000000,4.000000,4.000000,4.000000,4.000000,,,,,,,,,,,,,,,,,,,,,,,,,
1577422199.632969,111.000000,0.000000,4242.051270,4181.025879,4382.563965,4137.436035,4180.000000,16221.000000,4.000000,,,,0.000000,4.000000,4.000000,4.000000,4.000000,4.000000,,,,,,,,,,,,,,,,,,,,,,,,,
1577422199.640669,112.000000,0.000000,4250.256348,4173.333496,4407.692383,4148.717773,4190.256348,450.000000,4.000000,,,,0.000000,4.000000,4.000000,4.000000,4.000000,4.000000,,,,,,,,,,,,,,,,,,,,,,,,,
1577422199.648570,113.000000,0.000000,4246.153809,4177.436035,4420.000000,4141.538574,4184.615234,450.000000,4.000000,,,,0.000000,4.000000,4.000000,4.000000,4.000000,4.000000,,,,,,,,,,,,,,,,,,,,,,,,,
1577422199.656371,114.000000,0.000000,4235.384766,4178.461426,4418.461426,4127.179688,4170.769043,450.000000,4.000000,,,,0.000000,4.000000,4.000000,4.000000,4.000000,4.000000,,,,,,,,,,,,,,,,,,,,,,,,,
1577422199.664172,115.000000,0.000000,4229.230957,4165.641113,4410.769043,4124.615234,4161.025879,16221.000000,4.000000,,,,0.000000,4.000000,4.000000,4.000000,4.000000,4.000000,,,,,,,,,,,,,,,,,,,,,,,,,
1577422199.671872,116.000000,0.000000,4228.717773,4171.794922,4408.205078,4131.794922,4166.153809,450.000000,4.000000,,,,0.000000,4.000000,4.000000,4.000000,4.000000,4.000000,,,,,,,,,,,,,,,,,,,,,,,,,
1577422199.679671,117.000000,0.000000,4228.205078,4191.794922,4403.589844,4132.307617,4170.769043,450.000000,4.000000,,,,0.000000,4.000000,4.000000,4.000000,4.000000,4.000000,,,,,,,,,,,,,,,,,,,,,,,,,
1577422199.687371,118.000000,0.000000,4229.230957,4191.282227,4394.358887,4127.692383,4168.205078,450.000000,4.000000,,,,0.000000,4.000000,4.000000,4.000000,4.000000,4.000000,,,,,,,,,,,,,,,,,,,,,,,,,
1577422199.695170,119.000000,0.000000,4237.436035,4180.000000,4394.871582,4135.384766,4170.769043,16221.000000,4.000000,,,,0.000000,4.000000,4.000000,4.000000,4.000000,4.000000,2.721176,3.830393,2.720005,1.592885,1.037744,7.370100,4.350187,0.957673,0.595699,0.722632,17.116018,8.754990,2.675469,1.747706,0.890297,2.491455,4.713559,1.091106,1.315183,0.998183,4.813290,3.067665,3.858598,1.650628,1.154622
1577422199.702870,120.000000,0.000000,4226.666504,4163.589844,4387.179688,4130.769043,4160.512695,450.000000,4.000000,,,,0.000000,4.000000,4.000000,4.000000,4.000000,4.000000,,,,,,,,,,,,,,,,,,,,,,,,,
1577422199.710669,121.000000,0.000000,4209.230957,4151.282227,4378.974121,4116.922852,4146.666504,450.000000,4.000000,,,,0.000000,4.000000,4.000000,4.000000,4.000000,4.000000,,,,,,,,,,,,,,,,,,,,,,,,,
1577422199.718368,122.000000,0.000000,4226.153809,4170.256348,4400.000000,4130.256348,4158.461426,450.000000,4.000000,,,,0.000000,4.000000,4.000000,4.000000,4.000000,4.000000,,,,,,,,,,,,,,,,,,,,,,,,,
1577422199.726167,123.000000,0.000000,4237.948730,4178.974121,4412.820313,4139.487305,4164.102539,16221.000000,4.000000,,,,0.000000,4.000000,4.000000,4.000000,4.000000,4.000000,,,,,,,,,,,,,,,,,,,,,,,,,
1577422199.733867,124.000000,0.000000,4223.589844,4158.974121,4409.230957,4130.256348,4152.820313,450.000000,4.000000,,,,0.000000,4.000000,4.000000,4.000000,4.000000,4.000000,,,,,,,,,,,,,,,,,,,,,,,,,
1577422199.741767,125.000000,0.000000,4232.820313,4170.769043,4435.897461,4144.615234,4169.743652,450.000000,4.000000,,,,0.000000,4.000000,4.000000,4.000000,4.000000,4.000000,,,,,,,,,,,,,,,,,,,,,,,,,
1577422199.749567,126.000000,0.000000,4265.128418,4206.153809,4475.897461,4170.256348,4202.563965,450.000000,4.000000,,,,0.000000,4.000000,4.000000,4.000000,4.000000,4.000000,,,,,,,,,,,,,,,,,,,,,,,,,
1577422199.757467,127.000000,0.000000,4274.871582,4215.897461,4487.179688,4171.794922,4206.666504,234.000000,4.000000,,,,0.000000,4.000000,4.000000,4.000000,4.000000,4.000000,,,,,,,,,,,,,,,,,,,,,,,,,
1577422199.765267,0.000000,0.000000,4252.820313,4198.974121,4474.358887,4147.692383,4184.102539,450.000000,4.000000,,,,0.000000,4.000000,4.000000,4.000000,4.000000,4.000000,,,,,,,,,,,,,,,,,,,,,,,,,
1577422199.773167,1.000000,0.000000,4227.692383,4183.589844,4465.641113,4121.538574,4162.563965,450.000000,4.000000,,,,0.000000,4.000000,4.000000,4.000000,4.000000,4.000000,,,,,,,,,,,,,,,,,,,,,,,,,
1577422199.780968,2.000000,0.000000,4222.563965,4194.871582,4471.794922,4117.948730,4157.948730,16214.000000,4.000000,,,,0.000000,4.000000,4.000000,4.000000,4.000000,4.000000,,,,,,,,,,,,,,,,,,,,,,,,,
1577422199.788868,3.000000,0.000000,4229.743652,4214.871582,4479.487305,4129.230957,4163.589844,450.000000,4.000000,,,,0.000000,4.000000,4.000000,4.000000,4.000000,4.000000,,,,,,,,,,,,,,,,,,,,,,,,,
1577422199.796668,4.000000,0.000000,4225.641113,4216.922852,4475.384766,4126.153809,4157.436035,16193.000000,4.000000,,,,0.000000,4.000000,4.000000,4.000000,4.000000,4.000000,,,,,,,,,,,,,,,,,,,,,,,,,
1577422199.804568,5.000000,0.000000,4212.820313,4205.128418,4465.641113,4117.948730,4145.128418,450.000000,4.000000,,,,0.000000,4.000000,4.000000,4.000000,4.000000,4.000000,,,,,,,,,,,,,,,,,,,,,,,,,
1577422199.812368,6.000000,0.000000,4218.461426,4207.692383,4471.282227,4133.846191,4157.436035,16163.000000,4.000000,,,,0.000000,4.000000,4.000000,4.000000,4.000000,4.000000,,,,,,,,,,,,,,,,,,,,,,,,,
1577422199.820267,7.000000,0.000000,4237.436035,4225.641113,4486.666504,4153.846191,4180.000000,450.000000,4.000000,,,,0.000000,4.000000,4.000000,4.000000,4.000000,4.000000,2.380714,3.545755,2.984694,1.841096,1.140121,6.648403,4.515649,0.871490,0.631587,0.750863,21.898226,7.767141,2.887760,2.040858,0.976770,2.398136,4.442366,1.056532,1.440983,1.083648,5.386183,3.000240,4.362188,1.906504,1.288578
1577422199.828067,8.000000,0.000000,4247.179688,4229.743652,4486.666504,4153.846191,4187.692383,450.000000,4.000000,,,,0.000000,4.000000,4.000000,4.000000,4.000000,4.000000,,,,,,,,,,,,,,,,,,,,,,,,,
1577422199.835767,9.000000,0.000000,4245.128418,4219.487305,4475.897461,4148.717773,4185.641113,16167.000000,4.000000,,,,0.000000,4.000000,4.000000,4.000000,4.000000,4.000000,,,,,,,,,,,,,,,,,,,,,,,,,
1577422199.843567,10.000000,0.000000,4245.128418,4217.436035,4470.256348,4142.563965,4184.615234,450.000000,4.000000,,,,0.000000,4.000000,4.000000,4.000000,4.000000,4.000000,,,,,,,,,,,,,,,,,,,,,,,,,
1577422199.851267,11.000000,0.000000,4243.589844,4214.871582,4466.666504,4138.461426,4187.179688,16209.000000,4.000000,,,,0.000000,4.000000,4.000000,4.000000,4.000000,4.000000,,,,,,,,,,,,,,,,,,,,,,,,,
1577422199.859067,12.000000,0.000000,4238.974121,4209.230957,4466.666504,4138.461426,4185.128418,450.000000,4.000000,,,,0.000000,4.000000,4.000000,4.000000,4.000000,4.000000,,,,,,,,,,,,,,,,,,,,,,,,,
1577422199.866766,13.000000,0.000000,4246.666504,4219.487305,4478.974121,4134.358887,4187.179688,450.000000,4.000000,,,,0.000000,4.000000,4.000000,4.000000,4.000000,4.000000,,,,,,,,,,,,,,,,,,,,,,,,,
1577422199.874566,14.000000,0.000000,4249.230957,4226.153809,4481.538574,4122.563965,4191.794922,450.000000,4.000000,,,,0.000000,4.000000,4.000000,4.000000,4.000000,4.000000,,,,,,,,,,,,,,,,,,,,,,,,,
1577422199.882265,15.000000,0.000000,4234.358887,4209.230957,4469.230957,4110.769043,4174.358887,16209.000000,4.000000,,,,0.000000,4.000000,4.000000,4.000000,4.000000,4.000000,,,,,,,,,,,,,,,,,,,,,,,,,
1577422199.890166,16.000000,0.000000,4237.948730,4206.666504,4476.922852,4124.102539,4167.692383,0.000000,4.000000,,,,0.000000,4.000000,4.000000,4.000000,4.000000,4.000000,,,,,,,,,,,,,,,,,,,,,,,,,
1577422199.897966,17.000000,0.000000,4267.179688,4231.794922,4507.179688,4157.436035,4200.000000,0.000000,4.000000,,,,0.000000,4.000000,4.000000,4.000000,4.000000,4.000000,,,,,,,,,,,,,,,,,,,,,,,,,
1577422199.905867,18.000000,0.000000,4276.410156,4245.641113,4522.051270,4166.153809,4217.948730,0.000000,4.000000,,,,0.000000,4.000000,4.000000,4.000000,4.000000,4.000000,,,,,,,,,,,,,,,,,,,,,,,,,
1577422199.913667,19.000000,0.000000,4274.871582,4243.589844,4523.589844,4155.897461,4211.282227,0.000000,4.000000,,,,0.000000,4.000000,4.000000,4.000000,4.000000,4.000000,,,,,,,,,,,,,,,,,,,,,,,,,
1577422199.921568,20.000000,0.000000,4277.948730,4243.589844,4525.641113,4155.384766,4203.589844,0.000000,4.000000,,,,0.000000,4.000000,4.000000,4.000000,4.000000,4.000000,,,,,,,,,,,,,,,,,,,,,,,,,
1577422199.929368,21.000000,0.000000,4262.051270,4240.512695,4510.256348,4147.179688,4189.230957,0.000000,4.000000,,,,0.000000,4.000000,4.000000,4.000000,4.000000,4.000000,,,,,,,,,,,,,,,,,,,,,,,,,
1577422199.937268,22.000000,0.000000,4250.769043,4243.077148,4501.538574,4138.461426,4184.615234,0.000000,4.000000,,,,0.000000,4.000000,4.000000,4.000000,4.000000,4.000000,,,,,,,,,,,,,,,,,,,,,,,,,
1577422199.945069,23.000000,0.000000,4259.487305,4261.025879,4507.692383,4138.974121,4192.820313,0.000000,4.000000,,,,0.000000,4.000000,4.000000,4.000000,4.000000,4.000000,2.252314,3.162301,3.443552,2.069395,1.207925,6.865317,4.391613,0.859965,0.702350,0.790111,33.281796,6.584854,2.997241,2.266722,1.064983,2.349583,3.827725,1.200973,1.511437,1.144670,6.390805,2.758761,4.619827,2.094188,1.373795
1577422199.952969,24.000000,0.000000,4248.717773,4264.615234,4494.871582,4128.717773,4185.128418,0.000000,4.000000,,,,0.000000,4.000000,4.000000,4.000000,4.000000,4.000000,,,,,,,,,,,,,,,,,,,,,,,,,
1577422199.960769,25.000000,0.000000,4225.641113,4247.179688,4471.794922,4114.358887,4164.102539,0.000000,4.000000,,,,0.000000,4.000000,4.000000,4.000000,4.000000,4.000000,,,,,,,,,,,,,,,,,,,,,,,,,
1577422199.968669,26.000000,0.000000,4227.179688,4251.794922,4473.333496,4122.563965,4169.230957,0.000000,4.000000,,,,0.000000,4.000000,4.000000,4.000000,4.000000,4.000000,,,,,,,,,,,,,,,,,,,,,,,,,
1577422199.976469,27.000000,0.000000,4240.512695,4274.871582,4489.743652,4147.692383,4192.820313,0.000000,4.000000,,,,0.000000,4.000000,4.000000,4.000000,4.000000,4.000000,,,,,,,,,,,,,,,,,,,,,,,,,
1577422199.984369,28.000000,0.000000,4237.436035,4264.615234,4490.769043,4152.307617,4191.794922,0.000000,4.000000,,,,0.000000,4.000000,4.000000,4.000000,4.000000,4.000000,,,,,,,,,,,,,,,,,,,,,,,,,
1577422199.992169,29.000000,0.000000,4229.743652,4234.871582,4482.051270,4133.846191,4179.487305,0.000000,4.000000,,,,0.000000,4.000000,4.000000,4.000000,4.000000,4.000000,,,,,,,,,,,,,,,,,,,,,,,,,
1577422199.999869,30.000000,0.000000,4230.769043,4241.538574,4478.974121,4129.230957,4178.974121,0.000000,4.000000,,,,0.000000,4.000000,4.000000,4.000000,4.000000,4.000000,,,,,,,,,,,,,,,,,,,,,,,,,
1577422200.007669,31.000000,0.000000,4230.256348,4261.538574,4476.410156,4138.461426,4180.512695,0.000000,4.000000,,,,0.000000,4.000000,4.000000,4.000000,4.000000,4.000000,,,,,,,,,,,,,,,,,,,,,,,,,
1577422200.015369,32.000000,0.000000,4238.461426,4254.358887,4470.256348,4142.051270,4185.128418,0.000000,4.000000,,,,0.000000,4.000000,4.000000,4.000000,4.000000,4.000000,,,,,,,,,,,,,,,,,,,,,,,,,
1577422200.023169,33.000000,0.000000,4256.922852,4243.589844,4469.743652,4150.769043,4195.384766,0.000000,4.000000,,,,0.000000,4.000000,4.000000,4.000000,4.000000,4.000000,,,,,,,,,,,,,,,,,,,,,,,,,
1577422200.030868,34.000000,0.000000,4250.256348,4244.102539,4456.922852,4149.743652,4190.256348,0.000000,4.000000,,,,0.000000,4.000000,4.000000,4.000000,4.000000,4.000000,,,,,,,,,,,,,,,,,,,,,,,,,
1577422200.038668,35.000000,0.000000,4236.410156,4250.256348,4440.000000,4142.563965,4181.538574,0.000000,4.000000,,,,0.000000,4.000000,4.000000,4.000000,4.000000,4.000000,,,,,,,,,,,,,,,,,,,,,,,,,
1577422200.046368,36.000000,0.000000,4247.179688,4255.384766,4439.487305,4155.384766,4191.282227,0.000000,4.000000,,,,0.000000,4.000000,4.000000,4.000000,4.000000,4.000000,,,,,,,,,,,,,,,,,,,,,,,,,
1577422200.054167,37.000000,0.000000,4255.384766,4252.307617,4434.358887,4155.897461,4190.256348,0.000000,4.000000,,,,0.000000,4.000000,4.000000,4.000000,4.000000,4.000000,,,,,,,,,,,,,,,,,,,,,,,,,
1577422200.061867,38.000000,0.000000,4257.948730,4247.692383,4430.256348,4147.179688,4183.077148,0.000000,4.000000,,,,0.000000,4.000000,4.000000,4.000000,4.000000,4.000000,,,,,,,,,,,,,,,,,,,,,,,,,
1577422200.069767,39.000000,0.000000,4271.282227,4255.384766,4434.871582,4164.102539,4201.025879,0.000000,4.000000,,,,0.000000,4.000000,4.000000,4.000000,4.000000,4.000000,2.505297,2.930971,4.040546,2.259861,1.218556,8.620899,4.096239,0.954687,0.818581,0.839520,51.891338,5.827740,3.000105,2.410796,1.139113,2.502993,3.163649,1.588740,1.552011,1.166712,7.766432,2.557592,4.641129,2.210639,1.386231
1577422200.077568,40.000000,0.000000,4268.717773,4256.410156,4425.128418,4168.205078,4204.615234,0.000000,4.000000,,,,0.000000,4.000000,4.000000,4.000000,4.000000,4.000000,,,,,,,,,,,,,,,,,,,,,,,,,
1577422200.085469,41.000000,0.000000,4246.666504,4243.077148,4408.205078,4143.077148,4178.461426,0.000000,4.000000,,,,0.000000,4.000000,4.000000,4.000000,4.000000,4.000000,,,,,,,,,,,,,,,,,,,,,,,,,
1577422200.093269,42.000000,0.000000,4250.256348,4249.230957,4417.948730,4147.692383,4183.589844,0.000000,4.000000,,,,0.000000,4.000000,4.000000,4.000000,4.000000,4.000000,,,,,,,,,,,,,,,,,,,,,,,,,
1577422200.101070,43.000000,0.000000,4269.230957,4265.128418,4436.410156,4174.358887,4209.743652,0.000000,4.000000,,,,0.000000,4.000000,4.000000,4.000000,4.000000,4.000000,,,,,,,,,,,,,,,,,,,,,,,,,
1577422200.108770,44.000000,0.000000,4260.512695,4258.461426,4418.974121,4166.666504,4198.461426,0.000000,4.000000,,,,0.000000,4.000000,4.000000,4.000000,4.000000,4.000000,,,,,,,,,,,,,,,,,,,,,,,,,
1577422200.116569,45.000000,0.000000,4248.205078,4252.307617,4383.589844,4149.743652,4176.922852,0.000000,4.000000,,,,0.000000,4.000000,4.000000,4.000000,4.000000,4.000000,,,,,,,,,,,,,,,,,,,,,,,,,
1577422200.124268,46.000000,0.000000,4248.205078,4248.205078,4361.538574,4147.692383,4173.333496,0.000000,4.000000,,,,0.000000,4.000000,4.000000,4.000000,4.000000,4.000000,,,,,,,,,,,,,,,,,,,,,,,,,
1577422200.132067,47.000000,0.000000,4250.256348,4244.102539,4361.538574,4151.282227,4179.487305,0.000000,4.000000,,,,0.000000,4.000000,4.000000,4.000000,4.000000,4.000000,,,,,,,,,,,,,,,,,,,,,,,,,
1577422200.139767,48.000000,0.000000,4257.436035,4258.461426,4365.641113,4158.461426,4188.205078,0.000000,4.000000,,,,0.000000,4.000000,4.000000,4.000000,4.000000,4.000000,,,,,,,,,,,,,,,,,,,,,,,,,
1577422200.147566,49.000000,0.000000,4256.410156,4254.871582,4352.820313,4147.692383,4184.102539,0.000000,4.000000,,,,0.000000,4.000000,4.000000,4.000000,4.000000,4.000000,,,,,,,,,,,,,,,,,,,,,,,,,
1577422200.155265,50.000000,0.000000,4252.307617,4232.820313,4344.615234,4133.846191,4180.512695,0.000000,4.000000,,,,0.000000,4.000000,4.000000,4.000000,4.000000,4.000000,,,,,,,,,,,,,,,,,,,,,,,,,
1577422200.163064,51.000000,0.000000,4249.743652,4231.794922,4350.769043,4138.974121,4182.563965,0.000000,4.000000,,,,0.000000,4.000000,4.000000,4.000000,4.000000,4.000000,,,,,,,,,,,,,,,,,,,,,,,,,
1577422200.170763,52.000000,0.000000,4250.256348,4230.256348,4356.410156,4147.692383,4185.128418,0.000000,4.000000,,,,0.000000,4.000000,4.000000,4.000000,4.000000,4.000000,,,,,,,,,,,,,,,,,,,,,,,,,
