title:d1, start timestamp:2019-12-27T08:03:18.213918+03:00, stop timestamp:2019-12-27T08:03:48.908620+03:00, headset type:INSIGHT, headset serial:A2D200FB, headset firmware:930, subject name:Qasim, channels:44, sampling rate:eeg_128;pow_8, samples:3940      , version:2.0
Timestamp,EEG.Counter,EEG.Interpolated,EEG.AF3,EEG.T7,EEG.Pz,EEG.T8,EEG.AF4,EEG.RawCq,EEG.Battery,MarkerIndex,MarkerType,MarkerValueInt,EEG.MarkerHardware,CQ.AF3,CQ.T7,CQ.Pz,CQ.T8,CQ.AF4,POW.AF3.Theta,POW.AF3.Alpha,POW.AF3.BetaL,POW.AF3.BetaH,POW.AF3.Gamma,POW.T7.Theta,POW.T7.Alpha,POW.T7.BetaL,POW.T7.BetaH,POW.T7.Gamma,POW.Pz.Theta,POW.Pz.Alpha,POW.Pz.BetaL,POW.Pz.BetaH,POW.Pz.Gamma,POW.T8.Theta,POW.T8.Alpha,POW.T8.BetaL,POW.T8.BetaH,POW.T8.Gamma,POW.AF4.Theta,POW.AF4.Alpha,POW.AF4.BetaL,POW.AF4.BetaH,POW.AF4.Gamma
1577422998.213918,57.000000,0.000000,4206.153809,4193.333496,4124.615234,4132.307617,4187.692383,0.000000,3.000000,,,,0.000000,4.000000,4.000000,4.000000,4.000000,4.000000,,,,,,,,,,,,,,,,,,,,,,,,,
1577422998.221815,58.000000,0.000000,4175.897461,4190.256348,4102.563965,4116.410156,4178.461426,0.000000,3.000000,,,,0.000000,4.000000,4.000000,4.000000,4.000000,4.000000,,,,,,,,,,,,,,,,,,,,,,,,,
1577422998.229612,59.000000,0.000000,4143.589844,4186.666504,4078.461426,4081.538574,4143.589844,0.000000,3.000000,,,,0.000000,4.000000,4.000000,4.000000,4.000000,4.000000,,,,,,,,,,,,,,,,,,,,,,,,,
1577422998.237509,60.000000,0.000000,4146.666504,4193.333496,4090.769287,4096.410156,4125.641113,0.000000,3.000000,,,,0.000000,4.000000,4.000000,4.000000,4.000000,4.000000,,,,,,,,,,,,,,,,,,,,,,,,,
1577422998.245306,61.000000,0.000000,4187.692383,4225.641113,4128.205078,4142.051270,4170.769043,0.000000,3.000000,,,,0.000000,4.000000,4.000000,4.000000,4.000000,4.000000,,,,,,,,,,,,,,,,,,,,,,,,,
1577422998.253203,62.000000,0.000000,4204.102539,4224.102539,4138.461426,4154.871582,4207.692383,0.000000,3.000000,,,,0.000000,4.000000,4.000000,4.000000,4.000000,4.000000,,,,,,,,,,,,,,,,,,,,,,,,,
1577422998.261000,63.000000,0.000000,4213.333496,4208.205078,4149.230957,4164.102539,4226.666504,0.000000,3.000000,,,,0.000000,4.000000,4.000000,4.000000,4.000000,4.000000,,,,,,,,,,,,,,,,,,,,,,,,,
1577422998.268897,64.000000,0.000000,4210.256348,4195.384766,4145.128418,4149.743652,4229.230957,450.000000,3.000000,,,,0.000000,4.000000,4.000000,4.000000,4.000000,4.000000,,,,,,,,,,,,,,,,,,,,,,,,,
1577422998.276694,65.000000,0.000000,4208.205078,4205.641113,4142.563965,4141.538574,4220.512695,450.000000,3.000000,,,,0.000000,4.000000,4.000000,4.000000,4.000000,4.000000,,,,,,,,,,,,,,,,,,,,,,,,,
1577422998.284591,66.000000,0.000000,4227.692383,4228.205078,4162.563965,4152.307617,4235.384766,16167.000000,3.000000,,,,0.000000,4.000000,4.000000,4.000000,4.000000,4.000000,2.001902,3.297510,3.465816,4.086529,2.092074,1.363917,1.472813,2.398825,2.196658,1.245635,67.672546,6.009501,3.730645,3.646305,1.397355,2.793811,2.280019,2.796765,3.979075,1.606203,1.835286,3.462291,3.036354,4.914813,1.994253
1577422998.292388,67.000000,0.000000,4145.128418,4155.897461,4115.384766,4107.692383,4177.436035,450.000000,3.000000,,,,0.000000,4.000000,4.000000,4.000000,4.000000,4.000000,,,,,,,,,,,,,,,,,,,,,,,,,
1577422998.300085,68.000000,0.000000,4172.307617,4189.230957,4163.077148,4179.487305,4218.974121,16179.000000,3.000000,,,,0.000000,4.000000,4.000000,4.000000,4.000000,4.000000,,,,,,,,,,,,,,,,,,,,,,,,,
1577422998.307882,69.000000,0.000000,4303.589844,4280.512695,4210.256348,4191.282227,4319.487305,450.000000,3.000000,,,,0.000000,4.000000,4.000000,4.000000,4.000000,4.000000,,,,,,,,,,,,,,,,,,,,,,,,,
1577422998.315579,70.000000,0.000000,3995.897461,4009.230713,3957.435791,4003.076904,4052.820557,16120.000000,3.000000,,,,0.000000,4.000000,4.000000,4.000000,4.000000,4.000000,,,,,,,,,,,,,,,,,,,,,,,,,
1577422998.323376,71.000000,0.000000,4085.641113,4111.282227,4084.615479,4262.051270,4180.000000,450.000000,3.000000,,,,0.000000,4.000000,4.000000,4.000000,4.000000,4.000000,,,,,,,,,,,,,,,,,,,,,,,,,
1577422998.331073,72.000000,0.000000,4372.307617,4335.897461,4172.307617,4201.538574,4362.563965,450.000000,3.000000,,,,0.000000,4.000000,4.000000,4.000000,4.000000,4.000000,,,,,,,,,,,,,,,,,,,,,,,,,
1577422998.338870,73.000000,0.000000,4036.923096,4044.615479,3870.769287,3843.589844,4007.179443,16135.000000,3.000000,,,,0.000000,4.000000,4.000000,4.000000,4.000000,4.000000,,,,,,,,,,,,,,,,,,,,,,,,,
1577422998.346567,74.000000,0.000000,4126.666504,4144.102539,4044.615479,4166.666504,4153.846191,450.000000,3.000000,,,,0.000000,4.000000,4.000000,4.000000,4.000000,4.000000,,,,,,,,,,,,,,,,,,,,,,,,,
1577422998.354364,75.000000,0.000000,4264.615234,4254.358887,4096.922852,4168.205078,4264.102539,16147.000000,3.000000,,,,0.000000,4.000000,4.000000,4.000000,4.000000,4.000000,,,,,,,,,,,,,,,,,,,,,,,,,
1577422998.362062,76.000000,0.000000,4114.358887,4122.051270,3963.589844,4020.000000,4106.666504,450.000000,3.000000,,,,0.000000,4.000000,4.000000,4.000000,4.000000,4.000000,,,,,,,,,,,,,,,,,,,,,,,,,
1577422998.369959,77.000000,0.000000,4224.102539,4206.153809,4067.692383,4188.717773,4226.153809,450.000000,3.000000,,,,0.000000,4.000000,4.000000,4.000000,4.000000,4.000000,,,,,,,,,,,,,,,,,,,,,,,,,
1577422998.377756,78.000000,0.000000,4191.282227,4184.615234,4020.512939,4119.487305,4184.615234,450.000000,3.000000,,,,0.000000,4.000000,4.000000,4.000000,4.000000,4.000000,,,,,,,,,,,,,,,,,,,,,,,,,
1577422998.385653,79.000000,0.000000,4157.436035,4171.794922,4009.230713,4101.025879,4157.948730,16147.000000,3.000000,,,,0.000000,4.000000,4.000000,4.000000,4.000000,4.000000,,,,,,,,,,,,,,,,,,,,,,,,,
1577422998.393450,80.000000,0.000000,4193.333496,4189.230957,4030.769287,4132.820313,4200.512695,450.000000,3.000000,,,,0.000000,4.000000,4.000000,4.000000,4.000000,4.000000,,,,,,,,,,,,,,,,,,,,,,,,,
1577422998.401248,81.000000,0.000000,4173.333496,4163.077148,4000.000000,4115.897461,4185.128418,450.000000,3.000000,,,,0.000000,4.000000,4.000000,4.000000,4.000000,4.000000,,,,,,,,,,,,,,,,,,,,,,,,,
1577422998.408945,82.000000,0.000000,4180.000000,4163.077148,3999.487061,4126.153809,4190.769043,450.000000,3.000000,,,,0.000000,4.000000,4.000000,4.000000,4.000000,4.000000,1.850950,4.017294,4.049902,3.830880,1.982725,1.174490,1.528515,2.585657,2.292580,1.162214,67.288864,8.485724,4.512418,3.140946,1.288530,3.578796,2.054574,3.435598,3.425003,1.455831,1.727631,3.703170,3.733377,4.293428,1.824167
1577422998.416742,83.000000,0.000000,4178.461426,4160.512695,3992.820557,4128.205078,4190.256348,16147.000000,3.000000,,,,0.000000,4.000000,4.000000,4.000000,4.000000,4.000000,,,,,,,,,,,,,,,,,,,,,,,,,
1577422998.424439,84.000000,0.000000,4167.179688,4155.897461,3971.281982,4124.615234,4182.051270,450.000000,3.000000,,,,0.000000,4.000000,4.000000,4.000000,4.000000,4.000000,,,,,,,,,,,,,,,,,,,,,,,,,
1577422998.432236,85.000000,0.000000,4157.948730,4130.256348,3946.153809,4116.922852,4162.051270,450.000000,3.000000,,,,0.000000,4.000000,4.000000,4.000000,4.000000,4.000000,,,,,,,,,,,,,,,,,,,,,,,,,
1577422998.439933,86.000000,0.000000,4164.102539,4113.846191,3932.820557,4113.846191,4160.512695,450.000000,3.000000,,,,0.000000,4.000000,4.000000,4.000000,4.000000,4.000000,,,,,,,,,,,,,,,,,,,,,,,,,
1577422998.447830,87.000000,0.000000,4188.717773,4136.922852,3938.461426,4127.179688,4188.717773,16147.000000,3.000000,,,,0.000000,4.000000,4.000000,4.000000,4.000000,4.000000,,,,,,,,,,,,,,,,,,,,,,,,,
1577422998.455627,88.000000,0.000000,4191.794922,4147.179688,3929.230713,4126.666504,4190.256348,450.000000,3.000000,,,,0.000000,4.000000,4.000000,4.000000,4.000000,4.000000,,,,,,,,,,,,,,,,,,,,,,,,,
1577422998.463524,89.000000,0.000000,4177.436035,4136.410156,3908.205078,4108.717773,4177.948730,450.000000,3.000000,,,,0.000000,4.000000,4.000000,4.000000,4.000000,4.000000,,,,,,,,,,,,,,,,,,,,,,,,,
1577422998.471321,90.000000,0.000000,4177.948730,4140.000000,3908.718018,4108.205078,4178.461426,450.000000,3.000000,,,,0.000000,4.000000,4.000000,4.000000,4.000000,4.000000,,,,,,,,,,,,,,,,,,,,,,,,,
1577422998.479218,91.000000,0.000000,4177.436035,4149.230957,3914.358887,4110.256348,4166.153809,16147.000000,3.000000,,,,0.000000,4.000000,4.000000,4.000000,4.000000,4.000000,,,,,,,,,,,,,,,,,,,,,,,,,
1577422998.487115,92.000000,0.000000,4179.487305,4167.692383,3927.179443,4115.384766,4168.205078,450.000000,3.000000,,,,0.000000,4.000000,4.000000,4.000000,4.000000,4.000000,,,,,,,,,,,,,,,,,,,,,,,,,
1577422998.494912,93.000000,0.000000,4166.153809,4171.282227,3925.128174,4109.743652,4162.563965,450.000000,3.000000,,,,0.000000,4.000000,4.000000,4.000000,4.000000,4.000000,,,,,,,,,,,,,,,,,,,,,,,,,
1577422998.502709,94.000000,0.000000,4141.538574,4160.000000,3910.256348,4092.307617,4141.538574,450.000000,3.000000,,,,0.000000,4.000000,4.000000,4.000000,4.000000,4.000000,,,,,,,,,,,,,,,,,,,,,,,,,
1577422998.510606,95.000000,0.000000,4156.922852,4179.487305,3931.794922,4097.436035,4160.512695,16147.000000,3.000000,,,,0.000000,4.000000,4.000000,4.000000,4.000000,4.000000,,,,,,,,,,,,,,,,,,,,,,,,,
1577422998.518403,96.000000,0.000000,4192.820313,4203.589844,3967.692383,4112.820313,4205.128418,450.000000,3.000000,,,,0.000000,4.000000,4.000000,4.000000,4.000000,4.000000,,,,,,,,,,,,,,,,,,,,,,,,,
1577422998.526100,97.000000,0.000000,4231.282227,4207.692383,3985.641113,4115.384766,4236.410156,450.000000,3.000000,,,,0.000000,4.000000,4.000000,4.000000,4.000000,4.000000,,,,,,,,,,,,,,,,,,,,,,,,,
1577422998.533897,98.000000,0.000000,4281.538574,4207.179688,3996.410156,4105.641113,4258.461426,450.000000,3.000000,,,,0.000000,4.000000,4.000000,4.000000,4.000000,4.000000,1.875017,5.176372,4.968041,3.788858,2.112089,1.132581,1.648681,2.761357,2.353462,1.220947,63.629700,11.642531,5.351154,2.818832,1.345403,4.253145,2.079950,4.267356,3.175212,1.498498,1.805773,4.308308,4.802869,3.927416,1.838022
1577422998.541594,99.000000,0.000000,4327.692383,4209.743652,4003.589844,4087.692383,4282.563965,16147.000000,3.000000,,,,0.000000,4.000000,4.000000,4.000000,4.000000,4.000000,,,,,,,,,,,,,,,,,,,,,,,,,
1577422998.549391,100.000000,0.000000,4355.897461,4211.794922,3995.384521,4065.641113,4297.436035,450.000000,3.000000,,,,0.000000,4.000000,4.000000,4.000000,4.000000,4.000000,,,,,,,,,,,,,,,,,,,,,,,,,
1577422998.557088,101.000000,0.000000,4380.512695,4203.077148,3984.102539,4050.256348,4298.974121,450.000000,3.000000,,,,0.000000,4.000000,4.000000,4.000000,4.000000,4.000000,,,,,,,,,,,,,,,,,,,,,,,,,
1577422998.564885,102.000000,0.000000,4431.794922,4201.538574,4003.589844,4055.384521,4325.641113,450.000000,3.000000,,,,0.000000,4.000000,4.000000,4.000000,4.000000,4.000000,,,,,,,,,,,,,,,,,,,,,,,,,
1577422998.572583,103.000000,0.000000,4463.077148,4205.128418,4018.974365,4042.051270,4340.512695,16147.000000,3.000000,,,,0.000000,4.000000,4.000000,4.000000,4.000000,4.000000,,,,,,,,,,,,,,,,,,,,,,,,,
1577422998.580380,104.000000,0.000000,4461.025879,4205.128418,4022.564209,4025.128174,4337.436035,450.000000,3.000000,,,,0.000000,4.000000,4.000000,4.000000,4.000000,4.000000,,,,,,,,,,,,,,,,,,,,,,,,,
1577422998.588077,105.000000,0.000000,4483.077148,4212.820313,4057.435791,4048.718018,4368.717773,450.000000,3.000000,,,,0.000000,4.000000,4.000000,4.000000,4.000000,4.000000,,,,,,,,,,,,,,,,,,,,,,,,,
1577422998.595874,106.000000,0.000000,4501.538574,4221.025879,4094.871826,4064.102539,4383.077148,450.000000,3.000000,,,,0.000000,4.000000,4.000000,4.000000,4.000000,4.000000,,,,,,,,,,,,,,,,,,,,,,,,,
1577422998.603571,107.000000,0.000000,4487.692383,4230.256348,4102.563965,4053.333252,4364.615234,16147.000000,3.000000,,,,0.000000,4.000000,4.000000,4.000000,4.000000,4.000000,,,,,,,,,,,,,,,,,,,,,,,,,
1577422998.611468,108.000000,0.000000,4448.717773,4226.153809,4095.384521,4036.410156,4341.025879,450.000000,3.000000,,,,0.000000,4.000000,4.000000,4.000000,4.000000,4.000000,,,,,,,,,,,,,,,,,,,,,,,,,
1577422998.619265,109.000000,0.000000,4398.461426,4198.461426,4093.846191,4022.051270,4303.077148,450.000000,3.000000,,,,0.000000,4.000000,4.000000,4.000000,4.000000,4.000000,,,,,,,,,,,,,,,,,,,,,,,,,
1577422998.627162,110.000000,0.000000,4350.256348,4178.974121,4098.974121,4015.384521,4268.717773,450.000000,3.000000,,,,0.000000,4.000000,4.000000,4.000000,4.000000,4.000000,,,,,,,,,,,,,,,,,,,,,,,,,
1577422998.634960,111.000000,0.000000,4292.307617,4180.512695,4092.307617,3999.487061,4235.384766,16147.000000,3.000000,,,,0.000000,4.000000,4.000000,4.000000,4.000000,4.000000,,,,,,,,,,,,,,,,,,,,,,,,,
1577422998.642857,112.000000,0.000000,4262.051270,4194.358887,4092.820557,3999.487061,4214.871582,450.000000,3.000000,,,,0.000000,4.000000,4.000000,4.000000,4.000000,4.000000,,,,,,,,,,,,,,,,,,,,,,,,,
1577422998.650654,113.000000,0.000000,4272.307617,4208.205078,4114.871582,4032.820557,4221.025879,450.000000,3.000000,,,,0.000000,4.000000,4.000000,4.000000,4.000000,4.000000,,,,,,,,,,,,,,,,,,,,,,,,,
1577422998.658551,114.000000,0.000000,4254.358887,4207.692383,4116.922852,4040.512939,4211.794922,450.000000,3.000000,,,,0.000000,4.000000,4.000000,4.000000,4.000000,4.000000,2.180370,6.863629,6.289053,3.992244,2.982663,1.305930,1.927461,2.972314,2.346499,1.824494,55.665295,14.825888,6.253636,2.808415,1.861183,4.819918,2.462060,5.283128,3.337759,2.271971,2.194222,5.507871,6.308183,3.910379,2.479489
1577422998.666348,115.000000,0.000000,4223.077148,4208.205078,4109.230957,4030.256348,4195.897461,16147.000000,3.000000,,,,0.000000,4.000000,4.000000,4.000000,4.000000,4.000000,,,,,,,,,,,,,,,,,,,,,,,,,
1577422998.674245,116.000000,0.000000,4209.230957,4208.205078,4112.307617,4042.564209,4190.256348,450.000000,3.000000,,,,0.000000,4.000000,4.000000,4.000000,4.000000,4.000000,,,,,,,,,,,,,,,,,,,,,,,,,
1577422998.682042,117.000000,0.000000,4170.769043,4192.820313,4092.820557,4031.281982,4158.461426,450.000000,3.000000,,,,0.000000,4.000000,4.000000,4.000000,4.000000,4.000000,,,,,,,,,,,,,,,,,,,,,,,,,
1577422998.689939,118.000000,0.000000,4156.410156,4205.641113,4084.102539,4028.205078,4147.179688,450.000000,3.000000,,,,0.000000,4.000000,4.000000,4.000000,4.000000,4.000000,,,,,,,,,,,,,,,,,,,,,,,,,
1577422998.697736,119.000000,0.000000,4192.820313,4229.743652,4107.692383,4074.871826,4184.102539,16147.000000,3.000000,,,,0.000000,4.000000,4.000000,4.000000,4.000000,4.000000,,,,,,,,,,,,,,,,,,,,,,,,,
1577422998.705433,120.000000,0.000000,4182.563965,4213.333496,4104.102539,4084.102539,4180.000000,450.000000,3.000000,,,,0.000000,4.000000,4.000000,4.000000,4.000000,4.000000,,,,,,,,,,,,,,,,,,,,,,,,,
1577422998.713230,121.000000,0.000000,4127.179688,4184.102539,4069.230713,4042.051270,4125.641113,450.000000,3.000000,,,,0.000000,4.000000,4.000000,4.000000,4.000000,4.000000,,,,,,,,,,,,,,,,,,,,,,,,,
1577422998.720927,122.000000,0.000000,4123.077148,4173.846191,4065.641113,4052.820557,4120.000000,450.000000,3.000000,,,,0.000000,4.000000,4.000000,4.000000,4.000000,4.000000,,,,,,,,,,,,,,,,,,,,,,,,,
1577422998.728724,123.000000,0.000000,4156.410156,4171.794922,4092.307617,4102.051270,4157.436035,16147.000000,3.000000,,,,0.000000,4.000000,4.000000,4.000000,4.000000,4.000000,,,,,,,,,,,,,,,,,,,,,,,,,
1577422998.736421,124.000000,0.000000,4148.717773,4155.384766,4090.769287,4090.769287,4153.333496,450.000000,3.000000,,,,0.000000,4.000000,4.000000,4.000000,4.000000,4.000000,,,,,,,,,,,,,,,,,,,,,,,,,
1577422998.744318,125.000000,0.000000,4136.922852,4158.461426,4086.666748,4071.794922,4140.000000,450.000000,3.000000,,,,0.000000,4.000000,4.000000,4.000000,4.000000,4.000000,,,,,,,,,,,,,,,,,,,,,,,,,
1577422998.752115,126.000000,0.000000,4153.846191,4177.948730,4098.974121,4093.846191,4154.871582,450.000000,3.000000,,,,0.000000,4.000000,4.000000,4.000000,4.000000,4.000000,,,,,,,,,,,,,,,,,,,,,,,,,
1577422998.760012,127.000000,0.000000,4149.230957,4167.179688,4090.769287,4092.820557,4156.410156,233.000000,3.000000,,,,0.000000,4.000000,4.000000,4.000000,4.000000,4.000000,,,,,,,,,,,,,,,,,,,,,,,,,
1577422998.767810,0.000000,0.000000,4140.000000,4156.922852,4079.487061,4078.974365,4148.205078,450.000000,3.000000,,,,0.000000,4.000000,4.000000,4.000000,4.000000,4.000000,,,,,,,,,,,,,,,,,,,,,,,,,
1577422998.775707,1.000000,0.000000,4140.000000,4157.436035,4075.384521,4076.923096,4137.436035,450.000000,3.000000,,,,0.000000,4.000000,4.000000,4.000000,4.000000,4.000000,,,,,,,,,,,,,,,,,,,,,,,,,
1577422998.783504,2.000000,0.000000,4139.487305,4161.538574,4075.897461,4079.487061,4138.974121,16193.000000,3.000000,,,,0.000000,4.000000,4.000000,4.000000,4.000000,4.000000,4.087540,9.082315,7.907202,4.418960,5.080976,1.799583,2.415464,3.220147,2.309242,3.371593,45.312252,17.690754,7.132023,3.130031,3.116715,5.226002,3.203069,6.375514,3.919807,4.335732,3.310529,7.252553,8.112859,4.239990,4.181632
1577422998.791401,3.000000,0.000000,4148.205078,4177.948730,4084.102539,4093.846191,4159.487305,450.000000,3.000000,,,,0.000000,4.000000,4.000000,4.000000,4.000000,4.000000,,,,,,,,,,,,,,,,,,,,,,,,,
1577422998.799198,4.000000,0.000000,4145.641113,4175.897461,4073.846191,4094.358887,4151.794922,16181.000000,3.000000,,,,0.000000,4.000000,4.000000,4.000000,4.000000,4.000000,,,,,,,,,,,,,,,,,,,,,,,,,
1577422998.807096,5.000000,0.000000,4141.025879,4158.974121,4071.794922,4089.230713,4135.384766,450.000000,3.000000,,,,0.000000,4.000000,4.000000,4.000000,4.000000,4.000000,,,,,,,,,,,,,,,,,,,,,,,,,
1577422998.814893,6.000000,0.000000,4154.871582,4160.512695,4090.769287,4099.487305,4150.256348,16156.000000,3.000000,,,,0.000000,4.000000,4.000000,4.000000,4.000000,4.000000,,,,,,,,,,,,,,,,,,,,,,,,,
1577422998.822790,7.000000,0.000000,4149.743652,4159.487305,4077.435791,4092.820557,4145.128418,450.000000,3.000000,,,,0.000000,4.000000,4.000000,4.000000,4.000000,4.000000,,,,,,,,,,,,,,,,,,,,,,,,,
1577422998.830587,8.000000,0.000000,4144.615234,4168.205078,4073.333252,4095.384521,4139.487305,450.000000,3.000000,,,,0.000000,4.000000,4.000000,4.000000,4.000000,4.000000,,,,,,,,,,,,,,,,,,,,,,,,,
1577422998.838484,9.000000,0.000000,4164.615234,4183.589844,4097.948730,4119.487305,4168.717773,16158.000000,3.000000,,,,0.000000,4.000000,4.000000,4.000000,4.000000,4.000000,,,,,,,,,,,,,,,,,,,,,,,,,
1577422998.846282,10.000000,0.000000,4156.922852,4165.128418,4078.974365,4118.461426,4162.563965,450.000000,3.000000,,,,0.000000,4.000000,4.000000,4.000000,4.000000,4.000000,,,,,,,,,,,,,,,,,,,,,,,,,
1577422998.854178,11.000000,0.000000,4135.897461,4159.487305,4034.871826,4103.077148,4126.153809,16196.000000,3.000000,,,,0.000000,4.000000,4.000000,4.000000,4.000000,4.000000,,,,,,,,,,,,,,,,,,,,,,,,,
1577422998.861975,12.000000,0.000000,4134.871582,4181.025879,4015.384521,4100.512695,4125.641113,450.000000,3.000000,,,,0.000000,4.000000,4.000000,4.000000,4.000000,4.000000,,,,,,,,,,,,,,,,,,,,,,,,,
1577422998.869772,13.000000,0.000000,4113.846191,4169.230957,3976.923096,4083.076904,4114.358887,450.000000,3.000000,,,,0.000000,4.000000,4.000000,4.000000,4.000000,4.000000,,,,,,,,,,,,,,,,,,,,,,,,,
1577422998.877470,14.000000,0.000000,4087.692383,4141.538574,3918.974365,4062.564209,4081.025635,450.000000,3.000000,,,,0.000000,4.000000,4.000000,4.000000,4.000000,4.000000,,,,,,,,,,,,,,,,,,,,,,,,,
1577422998.885366,15.000000,0.000000,4119.487305,4163.077148,3918.974365,4094.871826,4113.846191,16196.000000,3.000000,,,,0.000000,4.000000,4.000000,4.000000,4.000000,4.000000,,,,,,,,,,,,,,,,,,,,,,,,,
1577422998.893163,16.000000,0.000000,4168.717773,4208.717773,3943.589844,4136.410156,4172.307617,0.000000,3.000000,,,,0.000000,4.000000,4.000000,4.000000,4.000000,4.000000,,,,,,,,,,,,,,,,,,,,,,,,,
1577422998.900861,17.000000,0.000000,4164.102539,4189.230957,3911.794922,4114.871582,4164.615234,0.000000,3.000000,,,,0.000000,4.000000,4.000000,4.000000,4.000000,4.000000,,,,,,,,,,,,,,,,,,,,,,,,,
1577422998.908658,18.000000,0.000000,4153.333496,4101.538574,3884.102539,4090.256348,4148.717773,0.000000,3.000000,,,,0.000000,4.000000,4.000000,4.000000,4.000000,4.000000,12.651075,11.809118,9.540097,4.954545,8.439630,2.749554,3.072762,3.454646,2.292631,5.903340,34.489265,19.882952,7.839050,3.637731,5.123199,5.637235,4.129069,7.354553,4.767027,7.791508,6.784330,9.230525,9.931222,4.759080,6.985926
1577422998.916355,19.000000,0.000000,4160.512695,4027.692383,3891.794922,4092.820557,4154.358887,0.000000,3.000000,,,,0.000000,4.000000,4.000000,4.000000,4.000000,4.000000,,,,,,,,,,,,,,,,,,,,,,,,,
1577422998.924252,20.000000,0.000000,4151.282227,4020.512939,3887.692383,4084.102539,4140.000000,0.000000,3.000000,,,,0.000000,4.000000,4.000000,4.000000,4.000000,4.000000,,,,,,,,,,,,,,,,,,,,,,,,,
1577422998.932049,21.000000,0.000000,4165.641113,4048.718018,3909.743652,4093.846191,4145.128418,0.000000,3.000000,,,,0.000000,4.000000,4.000000,4.000000,4.000000,4.000000,,,,,,,,,,,,,,,,,,,,,,,,,
1577422998.939946,22.000000,0.000000,4187.692383,4016.923096,3948.718018,4106.666504,4160.000000,0.000000,3.000000,,,,0.000000,4.000000,4.000000,4.000000,4.000000,4.000000,,,,,,,,,,,,,,,,,,,,,,,,,
1577422998.947743,23.000000,0.000000,4179.487305,3957.435791,3966.666748,4098.974121,4156.922852,0.000000,3.000000,,,,0.000000,4.000000,4.000000,4.000000,4.000000,4.000000,,,,,,,,,,,,,,,,,,,,,,,,,
1577422998.955541,24.000000,0.000000,4193.333496,3961.025635,4007.179443,4114.358887,4170.256348,0.000000,3.000000,,,,0.000000,4.000000,4.000000,4.000000,4.000000,4.000000,,,,,,,,,,,,,,,,,,,,,,,,,
1577422998.963238,25.000000,0.000000,4218.974121,3984.615479,4059.487061,4131.794922,4187.179688,0.000000,3.000000,,,,0.000000,4.000000,4.000000,4.000000,4.000000,4.000000,,,,,,,,,,,,,,,,,,,,,,,,,
1577422998.971035,26.000000,0.000000,4194.871582,3976.410156,4082.564209,4107.179688,4173.333496,0.000000,3.000000,,,,0.000000,4.000000,4.000000,4.000000,4.000000,4.000000,,,,,,,,,,,,,,,,,,,,,,,,,
1577422998.978732,27.000000,0.000000,4172.820313,3981.025635,4111.282227,4080.512939,4158.461426,0.000000,3.000000,,,,0.000000,4.000000,4.000000,4.000000,4.000000,4.000000,,,,,,,,,,,,,,,,,,,,,,,,,
1577422998.986529,28.000000,0.000000,4214.358887,4013.846191,4173.846191,4104.102539,4194.871582,0.000000,3.000000,,,,0.000000,4.000000,4.000000,4.000000,4.000000,4.000000,,,,,,,,,,,,,,,,,,,,,,,,,
1577422998.994226,29.000000,0.000000,4248.717773,3996.923096,4225.128418,4134.871582,4228.717773,0.000000,3.000000,,,,0.000000,4.000000,4.000000,4.000000,4.000000,4.000000,,,,,,,,,,,,,,,,,,,,,,,,,
1577422999.002023,30.000000,0.000000,4206.666504,3910.769287,4207.692383,4106.666504,4187.692383,0.000000,3.000000,,,,0.000000,4.000000,4.000000,4.000000,4.000000,4.000000,,,,,,,,,,,,,,,,,,,,,,,,,
1577422999.009720,31.000000,0.000000,4169.743652,3863.076904,4168.717773,4078.974365,4154.358887,0.000000,3.000000,,,,0.000000,4.000000,4.000000,4.000000,4.000000,4.000000,,,,,,,,,,,,,,,,,,,,,,,,,
1577422999.017517,32.000000,0.000000,4174.358887,3878.461426,4162.563965,4089.743652,4165.128418,0.000000,3.000000,,,,0.000000,4.000000,4.000000,4.000000,4.000000,4.000000,,,,,,,,,,,,,,,,,,,,,,,,,
1577422999.025214,33.000000,0.000000,4181.025879,3885.128174,4161.538574,4088.205078,4172.307617,0.000000,3.000000,,,,0.000000,4.000000,4.000000,4.000000,4.000000,4.000000,,,,,,,,,,,,,,,,,,,,,,,,,
1577422999.033111,34.000000,0.000000,4206.666504,3891.281982,4157.948730,4095.897461,4191.794922,0.000000,3.000000,,,,0.000000,4.000000,4.000000,4.000000,4.000000,4.000000,33.249790,14.806695,10.753750,5.423446,12.424519,4.197096,3.806729,3.541573,2.332177,8.930718,24.799206,20.903704,8.219837,4.108455,7.501955,6.223802,4.947803,7.984346,5.609681,12.033959,14.476414,10.914495,11.344250,5.228935,10.364542
1577422999.040909,35.000000,0.000000,4218.461426,3916.923096,4148.205078,4121.538574,4210.256348,0.000000,3.000000,,,,0.000000,4.000000,4.000000,4.000000,4.000000,4.000000,,,,,,,,,,,,,,,,,,,,,,,,,
1577422999.048806,36.000000,0.000000,4202.563965,3930.256348,4114.358887,4124.615234,4203.077148,0.000000,3.000000,,,,0.000000,4.000000,4.000000,4.000000,4.000000,4.000000,,,,,,,,,,,,,,,,,,,,,,,,,
1577422999.056603,37.000000,0.000000,4190.256348,3919.487061,4063.589844,4102.051270,4184.102539,0.000000,3.000000,,,,0.000000,4.000000,4.000000,4.000000,4.000000,4.000000,,,,,,,,,,,,,,,,,,,,,,,,,
1577422999.064500,38.000000,0.000000,4181.025879,3911.794922,4032.820557,4088.205078,4171.794922,0.000000,3.000000,,,,0.000000,4.000000,4.000000,4.000000,4.000000,4.000000,,,,,,,,,,,,,,,,,,,,,,,,,
1577422999.072297,39.000000,0.000000,4186.666504,3947.179443,4038.974365,4115.897461,4184.615234,0.000000,3.000000,,,,0.000000,4.000000,4.000000,4.000000,4.000000,4.000000,,,,,,,,,,,,,,,,,,,,,,,,,
1577422999.080194,40.000000,0.000000,4182.563965,3970.769287,4028.718018,4136.922852,4181.538574,0.000000,3.000000,,,,0.000000,4.000000,4.000000,4.000000,4.000000,4.000000,,,,,,,,,,,,,,,,,,,,,,,,,
1577422999.087991,41.000000,0.000000,4169.743652,3958.974365,4004.615479,4126.153809,4163.077148,0.000000,3.000000,,,,0.000000,4.000000,4.000000,4.000000,4.000000,4.000000,,,,,,,,,,,,,,,,,,,,,,,,,
1577422999.095688,42.000000,0.000000,4155.384766,3954.871826,3991.281982,4102.563965,4147.692383,0.000000,3.000000,,,,0.000000,4.000000,4.000000,4.000000,4.000000,4.000000,,,,,,,,,,,,,,,,,,,,,,,,,
1577422999.103485,43.000000,0.000000,4142.051270,3966.666748,3975.897461,4087.179443,4135.897461,0.000000,3.000000,,,,0.000000,4.000000,4.000000,4.000000,4.000000,4.000000,,,,,,,,,,,,,,,,,,,,,,,,,
1577422999.111182,44.000000,0.000000,4157.948730,3992.820557,3998.974365,4109.743652,4157.436035,0.000000,3.000000,,,,0.000000,4.000000,4.000000,4.000000,4.000000,4.000000,,,,,,,,,,,,,,,,,,,,,,,,,
1577422999.118979,45.000000,0.000000,4187.179688,4016.410156,4055.897461,4149.743652,4200.512695,0.000000,3.000000,,,,0.000000,4.000000,4.000000,4.000000,4.000000,4.000000,,,,,,,,,,,,,,,,,,,,,,,,,
1577422999.126676,46.000000,0.000000,4200.000000,4023.589844,4077.435791,4161.025879,4210.256348,0.000000,3.000000,,,,0.000000,4.000000,4.000000,4.000000,4.000000,4.000000,,,,,,,,,,,,,,,,,,,,,,,,,
1577422999.134473,47.000000,0.000000,4187.692383,4024.615479,4074.871826,4144.615234,4182.563965,0.000000,3.000000,,,,0.000000,4.000000,4.000000,4.000000,4.000000,4.000000,,,,,,,,,,,,,,,,,,,,,,,,,
1577422999.142170,48.000000,0.000000,4172.307617,4027.692383,4091.794922,4137.948730,4171.794922,0.000000,3.000000,,,,0.000000,4.000000,4.000000,4.000000,4.000000,4.000000,,,,,,,,,,,,,,,,,,,,,,,,,
1577422999.149967,49.000000,0.000000,4153.846191,4018.974365,4100.512695,4129.743652,4167.179688,0.000000,3.000000,,,,0.000000,4.000000,4.000000,4.000000,4.000000,4.000000,,,,,,,,,,,,,,,,,,,,,,,,,
1577422999.157664,50.000000,0.000000,4149.743652,4022.051270,4096.922852,4116.922852,4161.025879,0.000000,3.000000,,,,0.000000,4.000000,4.000000,4.000000,4.000000,4.000000,67.459404,17.607719,11.154111,5.656649,15.893155,6.298282,4.546541,3.374668,2.468619,11.590362,18.728853,20.814604,8.170321,4.338212,9.578416,6.895426,5.374011,8.051213,6.161788,15.885531,27.438204,11.749076,11.961269,5.439299,13.351821
1577422999.165461,51.000000,0.000000,4200.512695,4057.435791,4129.230957,4136.922852,4193.846191,0.000000,3.000000,,,,0.000000,4.000000,4.000000,4.000000,4.000000,4.000000,,,,,,,,,,,,,,,,,,,,,,,,,
1577422999.173158,52.000000,0.000000,4263.589844,4071.794922,4152.307617,4150.256348,4229.743652,0.000000,3.000000,,,,0.000000,4.000000,4.000000,4.000000,4.000000,4.000000,,,,,,,,,,,,,,,,,,,,,,,,,
1577422999.181056,53.000000,0.000000,4306.666504,4060.000000,4126.153809,4118.461426,4244.615234,0.000000,3.000000,,,,0.000000,4.000000,4.000000,4.000000,4.000000,4.000000,,,,,,,,,,,,,,,,,,,,,,,,,
1577422999.188853,54.000000,0.000000,4373.333496,4077.948730,4114.358887,4094.871826,4281.025879,0.000000,3.000000,,,,0.000000,4.000000,4.000000,4.000000,4.000000,4.000000,,,,,,,,,,,,,,,,,,,,,,,,,
1577422999.196750,55.000000,0.000000,4436.410156,4095.897461,4126.153809,4103.077148,4328.205078,0.000000,3.000000,,,,0.000000,4.000000,4.000000,4.000000,4.000000,4.000000,,,,,,,,,,,,,,,,,,,,,,,,,
1577422999.204547,56.000000,0.000000,4440.000000,4083.076904,4121.025879,4098.461426,4337.948730,0.000000,3.000000,,,,0.000000,4.000000,4.000000,4.000000,4.000000,4.000000,,,,,,,,,,,,,,,,,,,,,,,,,
1577422999.212444,57.000000,0.000000,4463.077148,4095.384521,4129.743652,4106.666504,4350.769043,0.000000,3.000000,,,,0.000000,4.000000,4.000000,4.000000,4.000000,4.000000,,,,,,,,,,,,,,,,,,,,,,,,,
1577422999.220242,58.000000,0.000000,4514.871582,4115.897461,4149.743652,4128.205078,4377.948730,0.000000,3.000000,,,,0.000000,4.000000,4.000000,4.000000,4.000000,4.000000,,,,,,,,,,,,,,,,,,,,,,,,,
1577422999.228139,59.000000,0.000000,4508.717773,4105.128418,4145.641113,4115.897461,4374.358887,0.000000,3.000000,,,,0.000000,4.000000,4.000000,4.000000,4.000000,4.000000,,,,,,,,,,,,,,,,,,,,,,,,,
1577422999.235936,60.000000,0.000000,4482.563965,4102.051270,4140.000000,4097.436035,4363.077148,0.000000,3.000000,,,,0.000000,4.000000,4.000000,4.000000,4.000000,4.000000,,,,,,,,,,,,,,,,,,,,,,,,,
1577422999.243833,61.000000,0.000000,4478.461426,4115.384766,4149.743652,4101.025879,4358.461426,0.000000,3.000000,,,,0.000000,4.000000,4.000000,4.000000,4.000000,4.000000,,,,,,,,,,,,,,,,,,,,,,,,,
1577422999.251630,62.000000,0.000000,4442.563965,4102.563965,4143.077148,4086.666748,4327.692383,0.000000,3.000000,,,,0.000000,4.000000,4.000000,4.000000,4.000000,4.000000,,,,,,,,,,,,,,,,,,,,,,,,,
1577422999.259527,63.000000,0.000000,4376.922852,4077.948730,4113.333496,4055.897461,4282.563965,0.000000,3.000000,,,,0.000000,4.000000,4.000000,4.000000,4.000000,4.000000,,,,,,,,,,,,,,,,,,,,,,,,,
1577422999.267324,64.000000,0.000000,4349.230957,4094.871826,4121.538574,4084.615479,4275.384766,450.000000,3.000000,,,,0.000000,4.000000,4.000000,4.000000,4.000000,4.000000,,,,,,,,,,,,,,,,,,,,,,,,,
1577422999.275121,65.000000,0.000000,4336.922852,4112.307617,4143.589844,4127.179688,4275.384766,450.000000,3.000000,,,,0.000000,4.000000,4.000000,4.000000,4.000000,4.000000,,,,,,,,,,,,,,,,,,,,,,,,,
1577422999.282918,66.000000,0.000000,4280.000000,4086.666748,4112.307617,4099.487305,4227.692383,16212.000000,3.000000,,,,0.000000,4.000000,4.000000,4.000000,4.000000,4.000000,108.590309,19.672407,10.654600,5.581919,17.687624,8.828315,5.509484,3.121079,2.759064,13.037876,24.130323,19.559362,7.730167,4.266808,10.671702,7.550383,5.260111,7.508137,6.261490,18.093819,43.407879,11.465071,11.688738,5.321448,14.960581
1577422999.290615,67.000000,0.000000,4223.077148,4081.538574,4082.564209,4074.871826,4185.641113,450.000000,3.000000,,,,0.000000,4.000000,4.000000,4.000000,4.000000,4.000000,,,,,,,,,,,,,,,,,,,,,,,,,
1577422999.298412,68.000000,0.000000,4205.641113,4097.436035,4082.051270,4094.358887,4175.384766,16203.000000,3.000000,,,,0.000000,4.000000,4.000000,4.000000,4.000000,4.000000,,,,,,,,,,,,,,,,,,,,,,,,,
1577422999.306109,69.000000,0.000000,4184.102539,4080.000000,4054.871826,4100.512695,4160.000000,450.000000,3.000000,,,,0.000000,4.000000,4.000000,4.000000,4.000000,4.000000,,,,,,,,,,,,,,,,,,,,,,,,,
1577422999.313906,70.000000,0.000000,4147.179688,4063.589844,4016.923096,4082.051270,4133.333496,16170.000000,3.000000,,,,0.000000,4.000000,4.000000,4.000000,4.000000,4.000000,,,,,,,,,,,,,,,,,,,,,,,,,
1577422999.321603,71.000000,0.000000,4142.563965,4074.871826,4010.256348,4084.102539,4127.179688,450.000000,3.000000,,,,0.000000,4.000000,4.000000,4.000000,4.000000,4.000000,,,,,,,,,,,,,,,,,,,,,,,,,
1577422999.329500,72.000000,0.000000,4159.487305,4090.769287,4021.538574,4117.436035,4145.641113,450.000000,3.000000,,,,0.000000,4.000000,4.000000,4.000000,4.000000,4.000000,,,,,,,,,,,,,,,,,,,,,,,,,
1577422999.337297,73.000000,0.000000,4140.512695,4088.718018,4015.897461,4116.922852,4131.794922,16172.000000,3.000000,,,,0.000000,4.000000,4.000000,4.000000,4.000000,4.000000,,,,,,,,,,,,,,,,,,,,,,,,,
1577422999.345195,74.000000,0.000000,4087.179443,4052.820557,3975.384521,4071.794922,4080.000000,450.000000,3.000000,,,,0.000000,4.000000,4.000000,4.000000,4.000000,4.000000,,,,,,,,,,,,,,,,,,,,,,,,,
1577422999.352992,75.000000,0.000000,4072.820557,4043.076904,3950.769287,4062.564209,4071.281982,16204.000000,3.000000,,,,0.000000,4.000000,4.000000,4.000000,4.000000,4.000000,,,,,,,,,,,,,,,,,,,,,,,,,
1577422999.360889,76.000000,0.000000,4092.307617,4066.153809,3966.153809,4082.051270,4092.820557,450.000000,3.000000,,,,0.000000,4.000000,4.000000,4.000000,4.000000,4.000000,,,,,,,,,,,,,,,,,,,,,,,,,
1577422999.368686,77.000000,0.000000,4092.307617,4067.692383,3980.512939,4090.769287,4095.897461,450.000000,3.000000,,,,0.000000,4.000000,4.000000,4.000000,4.000000,4.000000,,,,,,,,,,,,,,,,,,,,,,,,,
1577422999.376583,78.000000,0.000000,4089.743652,4075.384521,3987.692383,4101.538574,4098.974121,450.000000,3.000000,,,,0.000000,4.000000,4.000000,4.000000,4.000000,4.000000,,,,,,,,,,,,,,,,,,,,,,,,,
1577422999.384381,79.000000,0.000000,4091.281982,4088.718018,3984.615479,4093.333252,4103.077148,16204.000000,3.000000,,,,0.000000,4.000000,4.000000,4.000000,4.000000,4.000000,,,,,,,,,,,,,,,,,,,,,,,,,
1577422999.392178,80.000000,0.000000,4097.948730,4082.564209,3989.230713,4095.384521,4110.256348,450.000000,3.000000,,,,0.000000,4.000000,4.000000,4.000000,4.000000,4.000000,,,,,,,,,,,,,,,,,,,,,,,,,
1577422999.399875,81.000000,0.000000,4109.743652,4085.641113,4007.692383,4129.230957,4124.615234,450.000000,3.000000,,,,0.000000,4.000000,4.000000,4.000000,4.000000,4.000000,,,,,,,,,,,,,,,,,,,,,,,,,
1577422999.407772,82.000000,0.000000,4092.307617,4078.974365,3992.307617,4124.615234,4106.153809,450.000000,3.000000,,,,0.000000,4.000000,4.000000,4.000000,4.000000,4.000000,146.141190,20.584522,9.485587,5.272207,17.164968,12.079067,6.960256,3.131631,3.237851,12.824703,47.860558,17.214466,7.063080,3.998888,10.402544,7.729548,4.625165,6.491074,5.935365,17.898230,58.419525,10.069456,10.755257,4.967612,14.631050
1577422999.415569,83.000000,0.000000,4072.820557,4058.461426,3966.153809,4101.538574,4072.307617,16204.000000,3.000000,,,,0.000000,4.000000,4.000000,4.000000,4.000000,4.000000,,,,,,,,,,,,,,,,,,,,,,,,,
1577422999.423367,84.000000,0.000000,4070.256348,4062.051270,3968.205078,4094.358887,4063.076904,450.000000,3.000000,,,,0.000000,4.000000,4.000000,4.000000,4.000000,4.000000,,,,,,,,,,,,,,,,,,,,,,,,,
1577422999.431064,85.000000,0.000000,4107.179688,4102.051270,4012.307617,4113.846191,4104.102539,450.000000,3.000000,,,,0.000000,4.000000,4.000000,4.000000,4.000000,4.000000,,,,,,,,,,,,,,,,,,,,,,,,,
1577422999.438861,86.000000,0.000000,4139.487305,4114.871582,4047.692383,4140.512695,4134.871582,450.000000,3.000000,,,,0.000000,4.000000,4.000000,4.000000,4.000000,4.000000,,,,,,,,,,,,,,,,,,,,,,,,,
1577422999.446558,87.000000,0.000000,4103.077148,4082.564209,4023.076904,4111.794922,4096.922852,16204.000000,3.000000,,,,0.000000,4.000000,4.000000,4.000000,4.000000,4.000000,,,,,,,,,,,,,,,,,,,,,,,,,
1577422999.454455,88.000000,0.000000,4073.333252,4075.897461,4005.128174,4074.871826,4069.743652,450.000000,3.000000,,,,0.000000,4.000000,4.000000,4.000000,4.000000,4.000000,,,,,,,,,,,,,,,,,,,,,,,,,
1577422999.462252,89.000000,0.000000,4082.564209,4093.846191,4013.333252,4087.692383,4080.512939,450.000000,3.000000,,,,0.000000,4.000000,4.000000,4.000000,4.000000,4.000000,,,,,,,,,,,,,,,,,,,,,,,,,
1577422999.470049,90.000000,0.000000,4091.794922,4117.436035,4022.564209,4110.256348,4091.794922,450.000000,3.000000,,,,0.000000,4.000000,4.000000,4.000000,4.000000,4.000000,,,,,,,,,,,,,,,,,,,,,,,,,
1577422999.477746,91.000000,0.000000,4084.102539,4128.717773,4034.358887,4102.051270,4080.000000,16204.000000,3.000000,,,,0.000000,4.000000,4.000000,4.000000,4.000000,4.000000,,,,,,,,,,,,,,,,,,,,,,,,,
1577422999.485443,92.000000,0.000000,4082.051270,4128.717773,4051.794922,4103.077148,4066.153809,450.000000,3.000000,,,,0.000000,4.000000,4.000000,4.000000,4.000000,4.000000,,,,,,,,,,,,,,,,,,,,,,,,,
1577422999.493340,93.000000,0.000000,4087.692383,4146.666504,4060.512939,4118.974121,4069.743652,450.000000,3.000000,,,,0.000000,4.000000,4.000000,4.000000,4.000000,4.000000,,,,,,,,,,,,,,,,,,,,,,,,,
1577422999.501137,94.000000,0.000000,4057.435791,4146.153809,4042.051270,4093.846191,4049.230713,450.000000,3.000000,,,,0.000000,4.000000,4.000000,4.000000,4.000000,4.000000,,,,,,,,,,,,,,,,,,,,,,,,,
1577422999.508935,95.000000,0.000000,4051.281982,4145.128418,4053.846191,4083.589844,4048.205078,16204.000000,3.000000,,,,0.000000,4.000000,4.000000,4.000000,4.000000,4.000000,,,,,,,,,,,,,,,,,,,,,,,,,
1577422999.516632,96.000000,0.000000,4091.281982,4174.358887,4098.461426,4118.461426,4083.589844,450.000000,3.000000,,,,0.000000,4.000000,4.000000,4.000000,4.000000,4.000000,,,,,,,,,,,,,,,,,,,,,,,,,
1577422999.524429,97.000000,0.000000,4101.025879,4172.820313,4112.307617,4131.282227,4088.718018,450.000000,3.000000,,,,0.000000,4.000000,4.000000,4.000000,4.000000,4.000000,,,,,,,,,,,,,,,,,,,,,,,,,
1577422999.532126,98.000000,0.000000,4074.871826,4148.717773,4113.333496,4111.794922,4067.179443,450.000000,3.000000,,,,0.000000,4.000000,4.000000,4.000000,4.000000,4.000000,173.078629,20.361595,8.197639,4.900120,14.519221,14.981978,8.961643,3.677156,3.871838,11.099485,91.565575,14.102910,6.338982,3.721518,8.882130,7.307671,3.685225,5.261656,5.384177,15.407128,69.654381,8.097928,9.638126,4.557150,12.499764
1577422999.539923,99.000000,0.000000,4074.871826,4163.589844,4129.743652,4111.794922,4069.743652,16204.000000,3.000000,,,,0.000000,4.000000,4.000000,4.000000,4.000000,4.000000,,,,,,,,,,,,,,,,,,,,,,,,,
1577422999.547620,100.000000,0.000000,4110.256348,4187.179688,4146.153809,4143.077148,4101.025879,450.000000,3.000000,,,,0.000000,4.000000,4.000000,4.000000,4.000000,4.000000,,,,,,,,,,,,,,,,,,,,,,,,,
1577422999.555417,101.000000,0.000000,4114.871582,4171.282227,4142.051270,4148.717773,4106.153809,450.000000,3.000000,,,,0.000000,4.000000,4.000000,4.000000,4.000000,4.000000,,,,,,,,,,,,,,,,,,,,,,,,,
1577422999.563114,102.000000,0.000000,4089.230713,4162.051270,4130.769043,4123.589844,4088.718018,450.000000,3.000000,,,,0.000000,4.000000,4.000000,4.000000,4.000000,4.000000,,,,,,,,,,,,,,,,,,,,,,,,,
1577422999.570911,103.000000,0.000000,4101.538574,4181.538574,4139.487305,4129.743652,4097.948730,16204.000000,3.000000,,,,0.000000,4.000000,4.000000,4.000000,4.000000,4.000000,,,,,,,,,,,,,,,,,,,,,,,,,
1577422999.578608,104.000000,0.000000,4104.615234,4182.051270,4128.205078,4131.282227,4094.358887,450.000000,3.000000,,,,0.000000,4.000000,4.000000,4.000000,4.000000,4.000000,,,,,,,,,,,,,,,,,,,,,,,,,
1577422999.586405,105.000000,0.000000,4100.000000,4196.410156,4107.692383,4118.974121,4089.743652,450.000000,3.000000,,,,0.000000,4.000000,4.000000,4.000000,4.000000,4.000000,,,,,,,,,,,,,,,,,,,,,,,,,
1577422999.594102,106.000000,0.000000,4137.436035,4230.769043,4120.512695,4140.000000,4118.461426,450.000000,3.000000,,,,0.000000,4.000000,4.000000,4.000000,4.000000,4.000000,,,,,,,,,,,,,,,,,,,,,,,,,
1577422999.601999,107.000000,0.000000,4137.436035,4222.051270,4117.948730,4139.487305,4112.820313,16204.000000,3.000000,,,,0.000000,4.000000,4.000000,4.000000,4.000000,4.000000,,,,,,,,,,,,,,,,,,,,,,,,,
1577422999.609797,108.000000,0.000000,4120.512695,4220.000000,4111.282227,4126.153809,4097.436035,450.000000,3.000000,,,,0.000000,4.000000,4.000000,4.000000,4.000000,4.000000,,,,,,,,,,,,,,,,,,,,,,,,,
1577422999.617694,109.000000,0.000000,4151.794922,4249.743652,4135.384766,4147.692383,4125.128418,450.000000,3.000000,,,,0.000000,4.000000,4.000000,4.000000,4.000000,4.000000,,,,,,,,,,,,,,,,,,,,,,,,,
1577422999.625491,110.000000,0.000000,4136.410156,4227.179688,4126.666504,4150.256348,4111.794922,450.000000,3.000000,,,,0.000000,4.000000,4.000000,4.000000,4.000000,4.000000,,,,,,,,,,,,,,,,,,,,,,,,,
1577422999.633388,111.000000,0.000000,4174.358887,4291.282227,4165.641113,4178.461426,4151.282227,16204.000000,3.000000,,,,0.000000,4.000000,4.000000,4.000000,4.000000,4.000000,,,,,,,,,,,,,,,,,,,,,,,,,
1577422999.641185,112.000000,0.000000,4158.461426,4306.153809,4141.538574,4113.333496,4130.769043,450.000000,3.000000,,,,0.000000,4.000000,4.000000,4.000000,4.000000,4.000000,,,,,,,,,,,,,,,,,,,,,,,,,
1577422999.649082,113.000000,0.000000,4053.333252,4211.794922,4103.077148,4132.307617,4048.205078,450.000000,3.000000,,,,0.000000,4.000000,4.000000,4.000000,4.000000,4.000000,,,,,,,,,,,,,,,,,,,,,,,,,
1577422999.656879,114.000000,0.000000,4356.410156,4445.641113,4324.615234,4332.307617,4318.461426,450.000000,3.000000,,,,0.000000,4.000000,4.000000,4.000000,4.000000,4.000000,190.811096,19.508461,7.324760,4.634497,10.691831,17.314253,11.185905,4.758618,4.552737,8.525059,147.921753,10.775243,5.672392,3.613897,6.662335,6.418406,2.745240,4.103705,4.876468,11.547705,77.427231,6.301702,8.776380,4.263356,9.338206
1577422999.664776,115.000000,0.000000,4320.512695,4373.333496,4190.256348,4060.512939,4222.563965,16204.000000,3.000000,,,,0.000000,4.000000,4.000000,4.000000,4.000000,4.000000,,,,,,,,,,,,,,,,,,,,,,,,,
1577422999.672573,116.000000,0.000000,4174.358887,4212.307617,4110.769043,4076.410156,4113.846191,450.000000,3.000000,,,,0.000000,4.000000,4.000000,4.000000,4.000000,4.000000,,,,,,,,,,,,,,,,,,,,,,,,,
1577422999.680470,117.000000,0.000000,4508.717773,4415.897461,4328.205078,4338.461426,4434.871582,450.000000,3.000000,,,,0.000000,4.000000,4.000000,4.000000,4.000000,4.000000,,,,,,,,,,,,,,,,,,,,,,,,,
1577422999.688267,118.000000,0.000000,4453.846191,4293.846191,4168.717773,4084.615479,4316.410156,450.000000,3.000000,,,,0.000000,4.000000,4.000000,4.000000,4.000000,4.000000,,,,,,,,,,,,,,,,,,,,,,,,,
1577422999.695964,119.000000,0.000000,4469.743652,4290.256348,4189.743652,4166.153809,4335.384766,16204.000000,3.000000,,,,0.000000,4.000000,4.000000,4.000000,4.000000,4.000000,,,,,,,,,,,,,,,,,,,,,,,,,
1577422999.703761,120.000000,0.000000,4588.717773,4383.589844,4248.205078,4248.717773,4455.384766,450.000000,3.000000,,,,0.000000,4.000000,4.000000,4.000000,4.000000,4.000000,,,,,,,,,,,,,,,,,,,,,,,,,
1577422999.711458,121.000000,0.000000,4446.153809,4270.769043,4123.589844,4110.256348,4320.512695,450.000000,3.000000,,,,0.000000,4.000000,4.000000,4.000000,4.000000,4.000000,,,,,,,,,,,,,,,,,,,,,,,,,
1577422999.719255,122.000000,0.000000,4486.153809,4298.974121,4168.205078,4174.871582,4372.307617,450.000000,3.000000,,,,0.000000,4.000000,4.000000,4.000000,4.000000,4.000000,,,,,,,,,,,,,,,,,,,,,,,,,
1577422999.726952,123.000000,0.000000,4500.512695,4294.358887,4164.102539,4155.897461,4387.692383,16204.000000,3.000000,,,,0.000000,4.000000,4.000000,4.000000,4.000000,4.000000,,,,,,,,,,,,,,,,,,,,,,,,,
1577422999.734849,124.000000,0.000000,4484.102539,4282.563965,4159.487305,4155.384766,4376.410156,450.000000,3.000000,,,,0.000000,4.000000,4.000000,4.000000,4.000000,4.000000,,,,,,,,,,,,,,,,,,,,,,,,,
1577422999.742646,125.000000,0.000000,4469.743652,4295.897461,4164.102539,4161.538574,4369.743652,450.000000,3.000000,,,,0.000000,4.000000,4.000000,4.000000,4.000000,4.000000,,,,,,,,,,,,,,,,,,,,,,,,,
1577422999.750543,126.000000,0.000000,4426.153809,4295.897461,4162.051270,4151.282227,4341.538574,450.000000,3.000000,,,,0.000000,4.000000,4.000000,4.000000,4.000000,4.000000,,,,,,,,,,,,,,,,,,,,,,,,,
1577422999.758341,127.000000,0.000000,4409.743652,4295.897461,4176.410156,4176.410156,4328.205078,233.000000,3.000000,,,,0.000000,4.000000,4.000000,4.000000,4.000000,4.000000,,,,,,,,,,,,,,,,,,,,,,,,,
1577422999.766238,0.000000,0.000000,4377.436035,4282.563965,4166.666504,4173.846191,4302.051270,450.000000,3.000000,,,,0.000000,4.000000,4.000000,4.000000,4.000000,4.000000,,,,,,,,,,,,,,,,,,,,,,,,,
1577422999.774035,1.000000,0.000000,4316.410156,4262.563965,4143.077148,4143.077148,4266.153809,450.000000,3.000000,,,,0.000000,4.000000,4.000000,4.000000,4.000000,4.000000,,,,,,,,,,,,,,,,,,,,,,,,,
1577422999.781932,2.000000,0.000000,4275.384766,4244.102539,4127.179688,4126.666504,4241.025879,16185.000000,3.000000,,,,0.000000,4.000000,4.000000,4.000000,4.000000,4.000000,205.148651,18.801313,7.063578,4.535708,6.945678,18.328854,12.973048,6.004934,5.105552,5.967541,203.567963,7.794556,5.040028,3.734802,4.484426,5.294362,2.074704,3.185210,4.582762,7.640465,83.501091,5.316903,8.311139,4.145164,6.204170
1577422999.789729,3.000000,0.000000,4249.230957,4235.897461,4108.205078,4113.333496,4212.307617,450.000000,3.000000,,,,0.000000,4.000000,4.000000,4.000000,4.000000,4.000000,,,,,,,,,,,,,,,,,,,,,,,,,
1577422999.797627,4.000000,0.000000,4240.000000,4251.794922,4108.717773,4118.974121,4198.974121,16164.000000,3.000000,,,,0.000000,4.000000,4.000000,4.000000,4.000000,4.000000,,,,,,,,,,,,,,,,,,,,,,,,,
1577422999.805424,5.000000,0.000000,4254.358887,4269.230957,4130.256348,4147.179688,4219.487305,450.000000,3.000000,,,,0.000000,4.000000,4.000000,4.000000,4.000000,4.000000,,,,,,,,,,,,,,,,,,,,,,,,,
1577422999.813321,6.000000,0.000000,4236.410156,4251.794922,4118.974121,4141.025879,4207.179688,16105.000000,3.000000,,,,0.000000,4.000000,4.000000,4.000000,4.000000,4.000000,,,,,,,,,,,,,,,,,,,,,,,,,
1577422999.821118,7.000000,0.000000,4216.410156,4244.102539,4094.871826,4124.615234,4185.641113,450.000000,3.000000,,,,0.000000,4.000000,4.000000,4.000000,4.000000,4.000000,,,,,,,,,,,,,,,,,,,,,,,,,
1577422999.828915,8.000000,0.000000,4223.077148,4255.384766,4083.076904,4122.563965,4182.563965,450.000000,3.000000,,,,0.000000,4.000000,4.000000,4.000000,4.000000,4.000000,,,,,,,,,,,,,,,,,,,,,,,,,
1577422999.836613,9.000000,0.000000,4232.307617,4257.436035,4082.564209,4127.179688,4167.692383,16111.000000,3.000000,,,,0.000000,4.000000,4.000000,4.000000,4.000000,4.000000,,,,,,,,,,,,,,,,,,,,,,,,,
1577422999.844509,10.000000,0.000000,4247.692383,4258.461426,4086.153809,4127.692383,4156.922852,450.000000,3.000000,,,,0.000000,4.000000,4.000000,4.000000,4.000000,4.000000,,,,,,,,,,,,,,,,,,,,,,,,,
1577422999.852306,11.000000,0.000000,4242.563965,4266.153809,4084.102539,4114.358887,4141.538574,16199.000000,3.000000,,,,0.000000,4.000000,4.000000,4.000000,4.000000,4.000000,,,,,,,,,,,,,,,,,,,,,,,,,
1577422999.860004,12.000000,0.000000,4250.256348,4296.922852,4107.179688,4132.307617,4145.128418,450.000000,3.000000,,,,0.000000,4.000000,4.000000,4.000000,4.000000,4.000000,,,,,,,,,,,,,,,,,,,,,,,,,
1577422999.867801,13.000000,0.000000,4269.230957,4310.769043,4122.563965,4144.102539,4152.820313,450.000000,3.000000,,,,0.000000,4.000000,4.000000,4.000000,4.000000,4.000000,,,,,,,,,,,,,,,,,,,,,,,,,
1577422999.875498,14.000000,0.000000,4243.589844,4301.538574,4105.128418,4121.025879,4122.563965,450.000000,3.000000,,,,0.000000,4.000000,4.000000,4.000000,4.000000,4.000000,,,,,,,,,,,,,,,,,,,,,,,,,
1577422999.883395,15.000000,0.000000,4208.717773,4328.717773,4103.077148,4111.794922,4096.922852,16199.000000,3.000000,,,,0.000000,4.000000,4.000000,4.000000,4.000000,4.000000,,,,,,,,,,,,,,,,,,,,,,,,,
1577422999.891192,16.000000,0.000000,4202.051270,4366.153809,4126.153809,4116.922852,4085.641113,0.000000,3.000000,,,,0.000000,4.000000,4.000000,4.000000,4.000000,4.000000,,,,,,,,,,,,,,,,,,,,,,,,,
1577422999.898989,17.000000,0.000000,4180.512695,4358.461426,4129.230957,4097.436035,4045.128174,0.000000,3.000000,,,,0.000000,4.000000,4.000000,4.000000,4.000000,4.000000,,,,,,,,,,,,,,,,,,,,,,,,,
1577422999.906686,18.000000,0.000000,4118.974121,4335.384766,4110.769043,4058.974365,3984.615479,0.000000,3.000000,,,,0.000000,4.000000,4.000000,4.000000,4.000000,4.000000,224.334778,19.248722,7.254069,4.564915,4.378454,17.980049,13.615090,6.872981,5.357422,4.152766,241.985184,5.615715,4.382914,4.014691,2.990344,4.278043,1.781408,2.512524,4.517637,4.901575,91.243790,5.446968,8.065579,4.146205,4.032294
1577422999.914583,19.000000,0.000000,4103.589844,4375.384766,4141.538574,4084.615479,3987.692383,0.000000,3.000000,,,,0.000000,4.000000,4.000000,4.000000,4.000000,4.000000,,,,,,,,,,,,,,,,,,,,,,,,,
1577422999.922381,20.000000,0.000000,4142.051270,4427.179688,4190.256348,4132.820313,4032.820557,0.000000,3.000000,,,,0.000000,4.000000,4.000000,4.000000,4.000000,4.000000,,,,,,,,,,,,,,,,,,,,,,,,,
1577422999.930278,21.000000,0.000000,4110.256348,4405.128418,4183.077148,4105.641113,3993.846191,0.000000,3.000000,,,,0.000000,4.000000,4.000000,4.000000,4.000000,4.000000,,,,,,,,,,,,,,,,,,,,,,,,,
1577422999.938075,22.000000,0.000000,4056.410156,4402.051270,4187.179688,4077.948730,3943.589844,0.000000,3.000000,,,,0.000000,4.000000,4.000000,4.000000,4.000000,4.000000,,,,,,,,,,,,,,,,,,,,,,,,,
1577422999.945872,23.000000,0.000000,4071.281982,4443.077148,4222.563965,4089.743652,3963.589844,0.000000,3.000000,,,,0.000000,4.000000,4.000000,4.000000,4.000000,4.000000,,,,,,,,,,,,,,,,,,,,,,,,,
1577422999.953569,24.000000,0.000000,4084.102539,4423.589844,4245.128418,4110.256348,3976.410156,0.000000,3.000000,,,,0.000000,4.000000,4.000000,4.000000,4.000000,4.000000,,,,,,,,,,,,,,,,,,,,,,,,,
1577422999.961366,25.000000,0.000000,4082.564209,4395.897461,4278.461426,4122.563965,3988.718018,0.000000,3.000000,,,,0.000000,4.000000,4.000000,4.000000,4.000000,4.000000,,,,,,,,,,,,,,,,,,,,,,,,,
1577422999.969064,26.000000,0.000000,4085.128174,4403.077148,4302.563965,4106.153809,4001.538574,0.000000,3.000000,,,,0.000000,4.000000,4.000000,4.000000,4.000000,4.000000,,,,,,,,,,,,,,,,,,,,,,,,,
1577422999.976861,27.000000,0.000000,4088.718018,4392.820313,4313.333496,4113.846191,3997.435791,0.000000,3.000000,,,,0.000000,4.000000,4.000000,4.000000,4.000000,4.000000,,,,,,,,,,,,,,,,,,,,,,,,,
1577422999.984558,28.000000,0.000000,4092.307617,4374.358887,4325.641113,4131.282227,4001.025635,0.000000,3.000000,,,,0.000000,4.000000,4.000000,4.000000,4.000000,4.000000,,,,,,,,,,,,,,,,,,,,,,,,,
1577422999.992355,29.000000,0.000000,4055.384521,4340.512695,4307.179688,4103.077148,3975.897461,0.000000,3.000000,,,,0.000000,4.000000,4.000000,4.000000,4.000000,4.000000,,,,,,,,,,,,,,,,,,,,,,,,,
1577423000.000052,30.000000,0.000000,4045.641113,4312.820313,4296.922852,4101.025879,3965.641113,0.000000,3.000000,,,,0.000000,4.000000,4.000000,4.000000,4.000000,4.000000,,,,,,,,,,,,,,,,,,,,,,,,,
1577423000.007849,31.000000,0.000000,4058.974365,4296.922852,4283.589844,4106.153809,3978.461426,0.000000,3.000000,,,,0.000000,4.000000,4.000000,4.000000,4.000000,4.000000,,,,,,,,,,,,,,,,,,,,,,,,,
1577423000.015546,32.000000,0.000000,4046.666748,4268.205078,4251.794922,4089.230713,3978.974365,0.000000,3.000000,,,,0.000000,4.000000,4.000000,4.000000,4.000000,4.000000,,,,,,,,,,,,,,,,,,,,,,,,,
1577423000.023443,33.000000,0.000000,4061.025635,4248.205078,4245.128418,4088.718018,3996.923096,0.000000,3.000000,,,,0.000000,4.000000,4.000000,4.000000,4.000000,4.000000,,,,,,,,,,,,,,,,,,,,,,,,,
1577423000.031240,34.000000,0.000000,4069.743652,4237.948730,4235.897461,4098.974121,4012.307617,0.000000,3.000000,,,,0.000000,4.000000,4.000000,4.000000,4.000000,4.000000,255.221558,20.770971,7.619673,4.608848,3.558921,17.358477,12.789323,6.973621,5.211317,3.432088,251.663773,4.438247,3.659608,4.284152,2.512539,3.622077,1.784484,2.016648,4.538130,4.044120,103.990753,6.362805,7.749263,4.132599,3.331680
1577423000.039137,35.000000,0.000000,4067.179443,4244.615234,4209.743652,4112.307617,4021.025635,0.000000,3.000000,,,,0.000000,4.000000,4.000000,4.000000,4.000000,4.000000,,,,,,,,,,,,,,,,,,,,,,,,,
1577423000.046934,36.000000,0.000000,4083.589844,4240.512695,4189.743652,4110.769043,4028.718018,0.000000,3.000000,,,,0.000000,4.000000,4.000000,4.000000,4.000000,4.000000,,,,,,,,,,,,,,,,,,,,,,,,,
1577423000.054831,37.000000,0.000000,4087.692383,4216.410156,4177.436035,4106.153809,4020.512939,0.000000,3.000000,,,,0.000000,4.000000,4.000000,4.000000,4.000000,4.000000,,,,,,,,,,,,,,,,,,,,,,,,,
1577423000.062628,38.000000,0.000000,4069.230713,4208.717773,4156.410156,4093.333252,4005.641113,0.000000,3.000000,,,,0.000000,4.000000,4.000000,4.000000,4.000000,4.000000,,,,,,,,,,,,,,,,,,,,,,,,,
1577423000.070425,39.000000,0.000000,4082.564209,4228.205078,4148.717773,4088.718018,4021.538574,0.000000,3.000000,,,,0.000000,4.000000,4.000000,4.000000,4.000000,4.000000,,,,,,,,,,,,,,,,,,,,,,,,,
1577423000.078222,40.000000,0.000000,4135.384766,4261.025879,4177.436035,4133.846191,4073.846191,0.000000,3.000000,,,,0.000000,4.000000,4.000000,4.000000,4.000000,4.000000,,,,,,,,,,,,,,,,,,,,,,,,,
1577423000.085919,41.000000,0.000000,4136.410156,4252.307617,4167.692383,4148.205078,4081.025635,0.000000,3.000000,,,,0.000000,4.000000,4.000000,4.000000,4.000000,4.000000,,,,,,,,,,,,,,,,,,,,,,,,,
1577423000.093716,42.000000,0.000000,4081.538574,4224.615234,4106.666504,4103.077148,4035.384521,0.000000,3.000000,,,,0.000000,4.000000,4.000000,4.000000,4.000000,4.000000,,,,,,,,,,,,,,,,,,,,,,,,,
1577423000.101413,43.000000,0.000000,4081.025635,4253.333496,4098.974121,4098.461426,4035.897461,0.000000,3.000000,,,,0.000000,4.000000,4.000000,4.000000,4.000000,4.000000,,,,,,,,,,,,,,,,,,,,,,,,,
1577423000.109210,44.000000,0.000000,4107.692383,4281.025879,4110.256348,4110.256348,4060.512939,0.000000,3.000000,,,,0.000000,4.000000,4.000000,4.000000,4.000000,4.000000,,,,,,,,,,,,,,,,,,,,,,,,,
1577423000.116907,45.000000,0.000000,4085.641113,4295.384766,4082.564209,4088.718018,4048.205078,0.000000,3.000000,,,,0.000000,4.000000,4.000000,4.000000,4.000000,4.000000,,,,,,,,,,,,,,,,,,,,,,,,,
1577423000.124704,46.000000,0.000000,4076.410156,4357.948730,4074.358887,4077.435791,4038.974365,0.000000,3.000000,,,,0.000000,4.000000,4.000000,4.000000,4.000000,4.000000,,,,,,,,,,,,,,,,,,,,,,,,,
1577423000.132402,47.000000,0.000000,4113.846191,4409.230957,4105.128418,4102.051270,4061.538574,0.000000,3.000000,,,,0.000000,4.000000,4.000000,4.000000,4.000000,4.000000,,,,,,,,,,,,,,,,,,,,,,,,,
1577423000.140199,48.000000,0.000000,4136.410156,4413.333496,4130.769043,4129.743652,4082.564209,0.000000,3.000000,,,,0.000000,4.000000,4.000000,4.000000,4.000000,4.000000,,,,,,,,,,,,,,,,,,,,,,,,,
1577423000.147896,49.000000,0.000000,4084.615479,4391.794922,4098.974121,4091.794922,4043.076904,0.000000,3.000000,,,,0.000000,4.000000,4.000000,4.000000,4.000000,4.000000,,,,,,,,,,,,,,,,,,,,,,,,,
1577423000.155693,50.000000,0.000000,4037.948730,4365.641113,4067.179443,4049.230713,4000.512939,0.000000,3.000000,,,,0.000000,4.000000,4.000000,4.000000,4.000000,4.000000,295.527618,22.680996,7.916476,4.562921,4.388982,18.505896,10.646600,6.227437,4.706463,3.719976,232.288452,4.266271,2.920135,4.382315,2.996290,3.323616,1.921640,1.617622,4.476683,5.063173,120.005119,7.443814,7.191957,4.009057,4.059369
1577423000.163390,51.000000,0.000000,4060.000000,4362.051270,4086.153809,4065.128174,4020.000000,0.000000,3.000000,,,,0.000000,4.000000,4.000000,4.000000,4.000000,4.000000,,,,,,,,,,,,,,,,,,,,,,,,,
1577423000.171287,52.000000,0.000000,4049.743652,4364.615234,4080.000000,4060.000000,4024.615479,0.000000,3.000000,,,,0.000000,4.000000,4.000000,4.000000,4.000000,4.000000,,,,,,,,,,,,,,,,,,,,,,,,,
1577423000.179084,53.000000,0.000000,4062.564209,4382.563965,4083.589844,4069.230713,4042.051270,0.000000,3.000000,,,,0.000000,4.000000,4.000000,4.000000,4.000000,4.000000,,,,,,,,,,,,,,,,,,,,,,,,,
1577423000.186881,54.000000,0.000000,4123.077148,4390.256348,4105.128418,4096.922852,4086.666748,0.000000,3.000000,,,,0.000000,4.000000,4.000000,4.000000,4.000000,4.000000,,,,,,,,,,,,,,,,,,,,,,,,,
1577423000.194578,55.000000,0.000000,4124.102539,4360.512695,4089.743652,4088.718018,4087.692383,0.000000,3.000000,,,,0.000000,4.000000,4.000000,4.000000,4.000000,4.000000,,,,,,,,,,,,,,,,,,,,,,,,,
1577423000.202476,56.000000,0.000000,4113.333496,4355.384766,4073.333252,4082.564209,4081.025635,0.000000,3.000000,,,,0.000000,4.000000,4.000000,4.000000,4.000000,4.000000,,,,,,,,,,,,,,,,,,,,,,,,,
1577423000.210273,57.000000,0.000000,4129.743652,4355.384766,4067.692383,4087.179443,4084.615479,0.000000,3.000000,,,,0.000000,4.000000,4.000000,4.000000,4.000000,4.000000,,,,,,,,,,,,,,,,,,,,,,,,,
1577423000.218170,58.000000,0.000000,4118.461426,4312.307617,4045.128174,4074.871826,4072.307617,0.000000,3.000000,,,,0.000000,4.000000,4.000000,4.000000,4.000000,4.000000,,,,,,,,,,,,,,,,,,,,,,,,,
1577423000.225967,59.000000,0.000000,4091.794922,4277.436035,4022.564209,4049.743652,4062.051270,0.000000,3.000000,,,,0.000000,4.000000,4.000000,4.000000,4.000000,4.000000,,,,,,,,,,,,,,,,,,,,,,,,,
1577423000.233864,60.000000,0.000000,4118.974121,4316.410156,4041.538574,4066.666748,4082.051270,0.000000,3.000000,,,,0.000000,4.000000,4.000000,4.000000,4.000000,4.000000,,,,,,,,,,,,,,,,,,,,,,,,,
1577423000.241661,61.000000,0.000000,4156.922852,4376.922852,4063.076904,4104.615234,4107.692383,0.000000,3.000000,,,,0.000000,4.000000,4.000000,4.000000,4.000000,4.000000,,,,,,,,,,,,,,,,,,,,,,,,,
1577423000.249558,62.000000,0.000000,4122.051270,4368.205078,4044.102539,4081.025635,4081.538574,0.000000,3.000000,,,,0.000000,4.000000,4.000000,4.000000,4.000000,4.000000,,,,,,,,,,,,,,,,,,,,,,,,,
1577423000.257355,63.000000,0.000000,4089.230713,4353.333496,4045.641113,4060.000000,4057.435791,0.000000,3.000000,,,,0.000000,4.000000,4.000000,4.000000,4.000000,4.000000,,,,,,,,,,,,,,,,,,,,,,,,,
1577423000.265152,64.000000,0.000000,4109.230957,4373.846191,4069.230713,4076.923096,4075.897461,450.000000,3.000000,,,,0.000000,4.000000,4.000000,4.000000,4.000000,4.000000,,,,,,,,,,,,,,,,,,,,,,,,,
1577423000.272949,65.000000,0.000000,4101.538574,4364.102539,4061.538574,4060.000000,4060.000000,450.000000,3.000000,,,,0.000000,4.000000,4.000000,4.000000,4.000000,4.000000,,,,,,,,,,,,,,,,,,,,,,,,,
1577423000.280746,66.000000,0.000000,4098.461426,4361.538574,4073.846191,4038.974365,4046.153809,16193.000000,3.000000,,,,0.000000,4.000000,4.000000,4.000000,4.000000,4.000000,334.341400,24.172506,8.057767,4.379522,6.257253,24.227528,7.940384,4.948566,4.002072,4.630359,192.536850,4.982817,2.300583,4.229474,4.082979,3.202946,2.072752,1.306156,4.246180,7.323881,134.245407,8.259790,6.474090,3.775780,5.718454
1577423000.288543,67.000000,0.000000,4150.256348,4407.179688,4137.948730,4074.358887,4090.769287,450.000000,3.000000,,,,0.000000,4.000000,4.000000,4.000000,4.000000,4.000000,,,,,,,,,,,,,,,,,,,,,,,,,
1577423000.296340,68.000000,0.000000,4168.717773,4434.358887,4181.538574,4107.692383,4109.743652,16183.000000,3.000000,,,,0.000000,4.000000,4.000000,4.000000,4.000000,4.000000,,,,,,,,,,,,,,,,,,,,,,,,,
1577423000.304037,69.000000,0.000000,4148.717773,4422.563965,4183.589844,4088.205078,4083.589844,450.000000,3.000000,,,,0.000000,4.000000,4.000000,4.000000,4.000000,4.000000,,,,,,,,,,,,,,,,,,,,,,,,,
1577423000.311734,70.000000,0.000000,4138.461426,4416.410156,4204.102539,4071.794922,4062.051270,16113.000000,3.000000,,,,0.000000,4.000000,4.000000,4.000000,4.000000,4.000000,,,,,,,,,,,,,,,,,,,,,,,,,
1577423000.319531,71.000000,0.000000,4151.282227,4442.563965,4276.410156,4097.436035,4079.487061,450.000000,3.000000,,,,0.000000,4.000000,4.000000,4.000000,4.000000,4.000000,,,,,,,,,,,,,,,,,,,,,,,,,
1577423000.327228,72.000000,0.000000,4157.436035,4452.307617,4337.948730,4088.205078,4088.205078,450.000000,3.000000,,,,0.000000,4.000000,4.000000,4.000000,4.000000,4.000000,,,,,,,,,,,,,,,,,,,,,,,,,
1577423000.335125,73.000000,0.000000,4150.256348,4437.948730,4378.461426,4069.230713,4067.179443,16089.000000,3.000000,,,,0.000000,4.000000,4.000000,4.000000,4.000000,4.000000,,,,,,,,,,,,,,,,,,,,,,,,,
1577423000.342923,74.000000,0.000000,4159.487305,4444.102539,4424.102539,4086.666748,4071.794922,450.000000,3.000000,,,,0.000000,4.000000,4.000000,4.000000,4.000000,4.000000,,,,,,,,,,,,,,,,,,,,,,,,,
1577423000.350820,75.000000,0.000000,4155.897461,4445.128418,4441.538574,4080.000000,4062.564209,16204.000000,3.000000,,,,0.000000,4.000000,4.000000,4.000000,4.000000,4.000000,,,,,,,,,,,,,,,,,,,,,,,,,
1577423000.358617,76.000000,0.000000,4178.461426,4462.563965,4491.282227,4097.436035,4074.871826,450.000000,3.000000,,,,0.000000,4.000000,4.000000,4.000000,4.000000,4.000000,,,,,,,,,,,,,,,,,,,,,,,,,
1577423000.366514,77.000000,0.000000,4195.384766,4475.897461,4528.205078,4106.153809,4095.384521,450.000000,3.000000,,,,0.000000,4.000000,4.000000,4.000000,4.000000,4.000000,,,,,,,,,,,,,,,,,,,,,,,,,
1577423000.374311,78.000000,0.000000,4135.897461,4438.974121,4473.333496,4059.487061,4044.102539,450.000000,3.000000,,,,0.000000,4.000000,4.000000,4.000000,4.000000,4.000000,,,,,,,,,,,,,,,,,,,,,,,,,
1577423000.382109,79.000000,0.000000,4150.256348,4456.410156,4464.102539,4072.307617,4061.025635,16204.000000,3.000000,,,,0.000000,4.000000,4.000000,4.000000,4.000000,4.000000,,,,,,,,,,,,,,,,,,,,,,,,,
1577423000.389806,80.000000,0.000000,4186.666504,4472.820313,4472.820313,4092.307617,4105.128418,450.000000,3.000000,,,,0.000000,4.000000,4.000000,4.000000,4.000000,4.000000,,,,,,,,,,,,,,,,,,,,,,,,,
1577423000.397603,81.000000,0.000000,4163.077148,4446.153809,4439.487305,4091.281982,4087.692383,450.000000,3.000000,,,,0.000000,4.000000,4.000000,4.000000,4.000000,4.000000,,,,,,,,,,,,,,,,,,,,,,,,,
1577423000.405300,82.000000,0.000000,4180.000000,4459.487305,4420.512695,4106.666504,4091.281982,450.000000,3.000000,,,,0.000000,4.000000,4.000000,4.000000,4.000000,4.000000,355.483887,24.771458,7.980900,4.128895,8.405535,37.583073,5.472119,3.636158,3.355568,5.725695,146.055222,6.239028,1.892293,3.882077,5.321448,3.053060,2.195600,1.090496,3.900314,9.928044,139.801865,8.763659,5.738527,3.554153,7.647454
1577423000.413197,83.000000,0.000000,4158.974121,4437.948730,4375.384766,4085.641113,4076.410156,16204.000000,3.000000,,,,0.000000,4.000000,4.000000,4.000000,4.000000,4.000000,,,,,,,,,,,,,,,,,,,,,,,,,
1577423000.420994,84.000000,0.000000,4135.384766,4416.922852,4341.538574,4080.512939,4068.718018,450.000000,3.000000,,,,0.000000,4.000000,4.000000,4.000000,4.000000,4.000000,,,,,,,,,,,,,,,,,,,,,,,,,
1577423000.428891,85.000000,0.000000,4146.666504,4424.102539,4325.128418,4076.410156,4073.846191,450.000000,3.000000,,,,0.000000,4.000000,4.000000,4.000000,4.000000,4.000000,,,,,,,,,,,,,,,,,,,,,,,,,
1577423000.436688,86.000000,0.000000,4143.077148,4410.256348,4302.563965,4081.538574,4075.384521,450.000000,3.000000,,,,0.000000,4.000000,4.000000,4.000000,4.000000,4.000000,,,,,,,,,,,,,,,,,,,,,,,,,
1577423000.444585,87.000000,0.000000,4174.871582,4422.563965,4303.077148,4119.487305,4108.717773,16204.000000,3.000000,,,,0.000000,4.000000,4.000000,4.000000,4.000000,4.000000,,,,,,,,,,,,,,,,,,,,,,,,,
1577423000.452382,88.000000,0.000000,4183.077148,4425.641113,4274.358887,4105.128418,4102.563965,450.000000,3.000000,,,,0.000000,4.000000,4.000000,4.000000,4.000000,4.000000,,,,,,,,,,,,,,,,,,,,,,,,,
1577423000.460079,89.000000,0.000000,4160.512695,4396.410156,4230.769043,4088.205078,4082.051270,450.000000,3.000000,,,,0.000000,4.000000,4.000000,4.000000,4.000000,4.000000,,,,,,,,,,,,,,,,,,,,,,,,,
1577423000.467876,90.000000,0.000000,4150.769043,4373.333496,4202.563965,4091.794922,4085.128174,450.000000,3.000000,,,,0.000000,4.000000,4.000000,4.000000,4.000000,4.000000,,,,,,,,,,,,,,,,,,,,,,,,,
1577423000.475673,91.000000,0.000000,4155.897461,4376.922852,4189.230957,4087.692383,4098.461426,16204.000000,3.000000,,,,0.000000,4.000000,4.000000,4.000000,4.000000,4.000000,,,,,,,,,,,,,,,,,,,,,,,,,
1577423000.483370,92.000000,0.000000,4170.256348,4389.743652,4191.282227,4096.922852,4116.922852,450.000000,3.000000,,,,0.000000,4.000000,4.000000,4.000000,4.000000,4.000000,,,,,,,,,,,,,,,,,,,,,,,,,
1577423000.491067,93.000000,0.000000,4178.461426,4387.692383,4195.897461,4125.128418,4125.128418,450.000000,3.000000,,,,0.000000,4.000000,4.000000,4.000000,4.000000,4.000000,,,,,,,,,,,,,,,,,,,,,,,,,
1577423000.498864,94.000000,0.000000,4177.436035,4374.871582,4188.205078,4126.153809,4117.436035,450.000000,3.000000,,,,0.000000,4.000000,4.000000,4.000000,4.000000,4.000000,,,,,,,,,,,,,,,,,,,,,,,,,
1577423000.506562,95.000000,0.000000,4159.487305,4357.948730,4169.230957,4099.487305,4098.974121,16204.000000,3.000000,,,,0.000000,4.000000,4.000000,4.000000,4.000000,4.000000,,,,,,,,,,,,,,,,,,,,,,,,,
1577423000.514359,96.000000,0.000000,4166.153809,4367.179688,4182.563965,4110.256348,4111.282227,450.000000,3.000000,,,,0.000000,4.000000,4.000000,4.000000,4.000000,4.000000,,,,,,,,,,,,,,,,,,,,,,,,,
1577423000.522056,97.000000,0.000000,4153.846191,4362.563965,4173.846191,4081.538574,4093.846191,450.000000,3.000000,,,,0.000000,4.000000,4.000000,4.000000,4.000000,4.000000,,,,,,,,,,,,,,,,,,,,,,,,,
1577423000.529853,98.000000,0.000000,4144.102539,4348.205078,4160.000000,4056.410156,4074.871826,450.000000,3.000000,,,,0.000000,4.000000,4.000000,4.000000,4.000000,4.000000,346.776031,24.402294,7.612377,3.940677,10.144217,58.315285,3.859949,2.788849,3.023121,6.631904,103.898849,7.487195,1.671658,3.476893,6.308026,2.828544,2.298856,0.946736,3.592831,12.009958,133.194778,9.059756,5.045967,3.479973,9.209997
1577423000.537550,99.000000,0.000000,4210.769043,4380.000000,4223.589844,4123.077148,4135.384766,16204.000000,3.000000,,,,0.000000,4.000000,4.000000,4.000000,4.000000,4.000000,,,,,,,,,,,,,,,,,,,,,,,,,
1577423000.545347,100.000000,0.000000,4236.410156,4393.846191,4275.897461,4149.230957,4164.615234,450.000000,3.000000,,,,0.000000,4.000000,4.000000,4.000000,4.000000,4.000000,,,,,,,,,,,,,,,,,,,,,,,,,
1577423000.553044,101.000000,0.000000,4191.282227,4366.153809,4265.128418,4110.256348,4131.794922,450.000000,3.000000,,,,0.000000,4.000000,4.000000,4.000000,4.000000,4.000000,,,,,,,,,,,,,,,,,,,,,,,,,
1577423000.560841,102.000000,0.000000,4164.615234,4346.153809,4246.666504,4095.384521,4111.282227,450.000000,3.000000,,,,0.000000,4.000000,4.000000,4.000000,4.000000,4.000000,,,,,,,,,,,,,,,,,,,,,,,,,
1577423000.568538,103.000000,0.000000,4159.487305,4341.025879,4255.384766,4095.384521,4111.282227,16204.000000,3.000000,,,,0.000000,4.000000,4.000000,4.000000,4.000000,4.000000,,,,,,,,,,,,,,,,,,,,,,,,,
1577423000.576335,104.000000,0.000000,4158.974121,4353.846191,4288.717773,4079.487061,4112.820313,450.000000,3.000000,,,,0.000000,4.000000,4.000000,4.000000,4.000000,4.000000,,,,,,,,,,,,,,,,,,,,,,,,,
1577423000.584032,105.000000,0.000000,4162.051270,4368.717773,4323.077148,4074.358887,4113.333496,450.000000,3.000000,,,,0.000000,4.000000,4.000000,4.000000,4.000000,4.000000,,,,,,,,,,,,,,,,,,,,,,,,,
1577423000.591929,106.000000,0.000000,4155.897461,4353.846191,4337.948730,4077.435791,4105.641113,450.000000,3.000000,,,,0.000000,4.000000,4.000000,4.000000,4.000000,4.000000,,,,,,,,,,,,,,,,,,,,,,,,,
1577423000.599726,107.000000,0.000000,4150.769043,4347.692383,4355.384766,4051.794922,4095.384521,16204.000000,3.000000,,,,0.000000,4.000000,4.000000,4.000000,4.000000,4.000000,,,,,,,,,,,,,,,,,,,,,,,,,
1577423000.607624,108.000000,0.000000,4154.871582,4358.974121,4397.948730,4023.076904,4100.000000,450.000000,3.000000,,,,0.000000,4.000000,4.000000,4.000000,4.000000,4.000000,,,,,,,,,,,,,,,,,,,,,,,,,
1577423000.615421,109.000000,0.000000,4155.897461,4358.461426,4446.666504,4016.410156,4105.128418,450.000000,3.000000,,,,0.000000,4.000000,4.000000,4.000000,4.000000,4.000000,,,,,,,,,,,,,,,,,,,,,,,,,
1577423000.623318,110.000000,0.000000,4165.641113,4371.794922,4490.769043,4016.923096,4120.000000,450.000000,3.000000,,,,0.000000,4.000000,4.000000,4.000000,4.000000,4.000000,,,,,,,,,,,,,,,,,,,,,,,,,
1577423000.631115,111.000000,0.000000,4207.179688,4401.538574,4541.538574,4041.025635,4166.153809,16204.000000,3.000000,,,,0.000000,4.000000,4.000000,4.000000,4.000000,4.000000,,,,,,,,,,,,,,,,,,,,,,,,,
1577423000.639012,112.000000,0.000000,4236.922852,4402.051270,4577.436035,4065.641113,4195.384766,450.000000,3.000000,,,,0.000000,4.000000,4.000000,4.000000,4.000000,4.000000,,,,,,,,,,,,,,,,,,,,,,,,,
1577423000.646809,113.000000,0.000000,4207.692383,4377.436035,4561.538574,4040.512939,4169.743652,450.000000,3.000000,,,,0.000000,4.000000,4.000000,4.000000,4.000000,4.000000,,,,,,,,,,,,,,,,,,,,,,,,,
1577423000.654706,114.000000,0.000000,4183.589844,4370.769043,4540.000000,4012.820557,4152.307617,450.000000,3.000000,,,,0.000000,4.000000,4.000000,4.000000,4.000000,4.000000,306.674530,23.274336,6.949338,3.943277,10.917780,85.976372,3.228067,2.628258,3.129658,7.030799,77.899979,8.380694,1.565920,3.155586,6.727399,2.504512,2.422751,0.852612,3.456788,12.861568,114.780190,9.268296,4.425857,3.631358,9.886486
1577423000.662503,115.000000,0.000000,4178.974121,4347.692383,4522.051270,3988.718018,4152.820313,16204.000000,3.000000,,,,0.000000,4.000000,4.000000,4.000000,4.000000,4.000000,,,,,,,,,,,,,,,,,,,,,,,,,
1577423000.670400,116.000000,0.000000,4187.692383,4342.051270,4501.538574,3970.769287,4148.205078,450.000000,3.000000,,,,0.000000,4.000000,4.000000,4.000000,4.000000,4.000000,,,,,,,,,,,,,,,,,,,,,,,,,
1577423000.678197,117.000000,0.000000,4229.743652,4390.256348,4513.333496,3995.897461,4176.410156,450.000000,3.000000,,,,0.000000,4.000000,4.000000,4.000000,4.000000,4.000000,,,,,,,,,,,,,,,,,,,,,,,,,
1577423000.685894,118.000000,0.000000,4230.256348,4384.102539,4503.077148,3998.974365,4184.102539,450.000000,3.000000,,,,0.000000,4.000000,4.000000,4.000000,4.000000,4.000000,,,,,,,,,,,,,,,,,,,,,,,,,
1577423000.693691,119.000000,0.000000,4204.615234,4351.282227,4469.743652,3982.051270,4158.461426,16204.000000,3.000000,,,,0.000000,4.000000,4.000000,4.000000,4.000000,4.000000,,,,,,,,,,,,,,,,,,,,,,,,,
1577423000.701388,120.000000,0.000000,4229.230957,4369.743652,4461.025879,3978.974365,4169.230957,450.000000,3.000000,,,,0.000000,4.000000,4.000000,4.000000,4.000000,4.000000,,,,,,,,,,,,,,,,,,,,,,,,,
1577423000.709185,121.000000,0.000000,4225.128418,4364.102539,4433.846191,3956.923096,4165.128418,450.000000,3.000000,,,,0.000000,4.000000,4.000000,4.000000,4.000000,4.000000,,,,,,,,,,,,,,,,,,,,,,,,,
1577423000.716882,122.000000,0.000000,4212.820313,4351.282227,4412.820313,3958.974365,4158.461426,450.000000,3.000000,,,,0.000000,4.000000,4.000000,4.000000,4.000000,4.000000,,,,,,,,,,,,,,,,,,,,,,,,,
1577423000.724679,123.000000,0.000000,4259.487305,4382.051270,4428.717773,4004.615479,4201.025879,16204.000000,3.000000,,,,0.000000,4.000000,4.000000,4.000000,4.000000,4.000000,,,,,,,,,,,,,,,,,,,,,,,,,
1577423000.732376,124.000000,0.000000,4272.307617,4398.974121,4425.128418,4014.871826,4208.717773,450.000000,3.000000,,,,0.000000,4.000000,4.000000,4.000000,4.000000,4.000000,,,,,,,,,,,,,,,,,,,,,,,,,
1577423000.740274,125.000000,0.000000,4230.769043,4385.641113,4388.717773,3978.461426,4171.282227,450.000000,3.000000,,,,0.000000,4.000000,4.000000,4.000000,4.000000,4.000000,,,,,,,,,,,,,,,,,,,,,,,,,
1577423000.748071,126.000000,0.000000,4206.153809,4362.051270,4352.307617,3953.333252,4148.717773,450.000000,3.000000,,,,0.000000,4.000000,4.000000,4.000000,4.000000,4.000000,,,,,,,,,,,,,,,,,,,,,,,,,
1577423000.755968,127.000000,0.000000,4222.563965,4360.000000,4352.307617,3970.256348,4159.487305,233.000000,3.000000,,,,0.000000,4.000000,4.000000,4.000000,4.000000,4.000000,,,,,,,,,,,,,,,,,,,,,,,,,
1577423000.763765,0.000000,0.000000,4238.461426,4374.871582,4366.153809,3977.435791,4172.307617,450.000000,3.000000,,,,0.000000,4.000000,4.000000,4.000000,4.000000,4.000000,,,,,,,,,,,,,,,,,,,,,,,,,
1577423000.771662,1.000000,0.000000,4232.307617,4373.333496,4359.487305,3961.538574,4164.102539,450.000000,3.000000,,,,0.000000,4.000000,4.000000,4.000000,4.000000,4.000000,,,,,,,,,,,,,,,,,,,,,,,,,
1577423000.779460,2.000000,0.000000,4234.871582,4368.205078,4355.384766,3967.179443,4163.589844,16193.000000,3.000000,,,,0.000000,4.000000,4.000000,4.000000,4.000000,4.000000,247.301575,21.134647,6.090959,4.215895,10.485785,113.347603,3.308287,3.056123,3.622030,6.751765,76.726875,8.784732,1.524415,3.015472,6.452941,2.180695,2.600247,0.814631,3.557992,12.179599,90.169655,9.196600,3.885085,3.993087,9.451743
1577423000.787357,3.000000,0.000000,4226.666504,4370.256348,4346.153809,3963.589844,4158.974121,450.000000,3.000000,,,,0.000000,4.000000,4.000000,4.000000,4.000000,4.000000,,,,,,,,,,,,,,,,,,,,,,,,,
1577423000.795154,4.000000,0.000000,4218.974121,4374.871582,4337.948730,3958.461426,4148.717773,16167.000000,3.000000,,,,0.000000,4.000000,4.000000,4.000000,4.000000,4.000000,,,,,,,,,,,,,,,,,,,,,,,,,
1577423000.803051,5.000000,0.000000,4223.589844,4365.641113,4333.846191,3964.615479,4148.205078,450.000000,3.000000,,,,0.000000,4.000000,4.000000,4.000000,4.000000,4.000000,,,,,,,,,,,,,,,,,,,,,,,,,
1577423000.810848,6.000000,0.000000,4221.025879,4356.410156,4324.102539,3967.179443,4149.743652,16098.000000,3.000000,,,,0.000000,4.000000,4.000000,4.000000,4.000000,4.000000,,,,,,,,,,,,,,,,,,,,,,,,,
1577423000.818745,7.000000,0.000000,4216.922852,4364.102539,4313.333496,3970.769287,4146.153809,450.000000,3.000000,,,,0.000000,4.000000,4.000000,4.000000,4.000000,4.000000,,,,,,,,,,,,,,,,,,,,,,,,,
1577423000.826542,8.000000,0.000000,4219.487305,4358.974121,4301.025879,3962.051270,4135.384766,450.000000,3.000000,,,,0.000000,4.000000,4.000000,4.000000,4.000000,4.000000,,,,,,,,,,,,,,,,,,,,,,,,,
1577423000.834439,9.000000,0.000000,4232.307617,4370.769043,4315.384766,3972.820557,4146.153809,16111.000000,3.000000,,,,0.000000,4.000000,4.000000,4.000000,4.000000,4.000000,,,,,,,,,,,,,,,,,,,,,,,,,
1577423000.842236,10.000000,0.000000,4245.128418,4389.743652,4325.641113,3995.897461,4163.077148,450.000000,3.000000,,,,0.000000,4.000000,4.000000,4.000000,4.000000,4.000000,,,,,,,,,,,,,,,,,,,,,,,,,
1577423000.849933,11.000000,0.000000,4238.974121,4358.974121,4297.436035,3995.897461,4153.846191,16232.000000,3.000000,,,,0.000000,4.000000,4.000000,4.000000,4.000000,4.000000,,,,,,,,,,,,,,,,,,,,,,,,,
1577423000.857730,12.000000,0.000000,4222.051270,4326.666504,4260.000000,3988.718018,4144.102539,450.000000,3.000000,,,,0.000000,4.000000,4.000000,4.000000,4.000000,4.000000,,,,,,,,,,,,,,,,,,,,,,,,,
1577423000.865527,13.000000,0.000000,4207.179688,4332.307617,4219.487305,3972.820557,4135.384766,450.000000,3.000000,,,,0.000000,4.000000,4.000000,4.000000,4.000000,4.000000,,,,,,,,,,,,,,,,,,,,,,,,,
1577423000.873224,14.000000,0.000000,4205.128418,4329.230957,4194.871582,3971.794922,4117.436035,450.000000,3.000000,,,,0.000000,4.000000,4.000000,4.000000,4.000000,4.000000,,,,,,,,,,,,,,,,,,,,,,,,,
1577423000.880921,15.000000,0.000000,4224.102539,4317.948730,4200.512695,3994.358887,4121.538574,16232.000000,3.000000,,,,0.000000,4.000000,4.000000,4.000000,4.000000,4.000000,,,,,,,,,,,,,,,,,,,,,,,,,
1577423000.888718,16.000000,0.000000,4215.384766,4311.794922,4180.512695,3982.564209,4111.794922,0.000000,3.000000,,,,0.000000,4.000000,4.000000,4.000000,4.000000,4.000000,,,,,,,,,,,,,,,,,,,,,,,,,
1577423000.896416,17.000000,0.000000,4188.717773,4307.692383,4148.205078,3964.615479,4086.153809,0.000000,3.000000,,,,0.000000,4.000000,4.000000,4.000000,4.000000,4.000000,,,,,,,,,,,,,,,,,,,,,,,,,
1577423000.904213,18.000000,0.000000,4196.410156,4311.282227,4156.410156,3985.128174,4104.615234,0.000000,3.000000,,,,0.000000,4.000000,4.000000,4.000000,4.000000,4.000000,182.756378,18.506048,5.157948,4.729304,9.028498,133.983948,3.631264,3.712434,4.301857,5.864360,100.506989,8.804132,1.521353,3.080337,5.606621,2.058999,2.800265,0.840091,3.888365,10.208127,65.394676,8.923228,3.386113,4.455822,8.077185
1577423000.911910,19.000000,0.000000,4206.153809,4312.307617,4172.307617,4005.128174,4126.153809,0.000000,3.000000,,,,0.000000,4.000000,4.000000,4.000000,4.000000,4.000000,,,,,,,,,,,,,,,,,,,,,,,,,
1577423000.919807,20.000000,0.000000,4217.436035,4319.487305,4182.563965,4011.281982,4130.769043,0.000000,3.000000,,,,0.000000,4.000000,4.000000,4.000000,4.000000,4.000000,,,,,,,,,,,,,,,,,,,,,,,,,
1577423000.927604,21.000000,0.000000,4223.589844,4310.769043,4186.153809,4008.205078,4132.820313,0.000000,3.000000,,,,0.000000,4.000000,4.000000,4.000000,4.000000,4.000000,,,,,,,,,,,,,,,,,,,,,,,,,
1577423000.935401,22.000000,0.000000,4207.692383,4291.794922,4185.641113,4013.846191,4125.128418,0.000000,3.000000,,,,0.000000,4.000000,4.000000,4.000000,4.000000,4.000000,,,,,,,,,,,,,,,,,,,,,,,,,
1577423000.943098,23.000000,0.000000,4196.922852,4300.000000,4187.692383,4014.358887,4116.410156,0.000000,3.000000,,,,0.000000,4.000000,4.000000,4.000000,4.000000,4.000000,,,,,,,,,,,,,,,,,,,,,,,,,
1577423000.950895,24.000000,0.000000,4216.922852,4307.692383,4199.487305,4030.256348,4139.487305,0.000000,3.000000,,,,0.000000,4.000000,4.000000,4.000000,4.000000,4.000000,,,,,,,,,,,,,,,,,,,,,,,,,
1577423000.958592,25.000000,0.000000,4246.153809,4303.589844,4210.769043,4065.641113,4181.538574,0.000000,3.000000,,,,0.000000,4.000000,4.000000,4.000000,4.000000,4.000000,,,,,,,,,,,,,,,,,,,,,,,,,
1577423000.966389,26.000000,0.000000,4224.615234,4296.410156,4189.743652,4052.307617,4169.743652,0.000000,3.000000,,,,0.000000,4.000000,4.000000,4.000000,4.000000,4.000000,,,,,,,,,,,,,,,,,,,,,,,,,
1577423000.974087,27.000000,0.000000,4193.333496,4286.666504,4178.461426,4045.128174,4143.077148,0.000000,3.000000,,,,0.000000,4.000000,4.000000,4.000000,4.000000,4.000000,,,,,,,,,,,,,,,,,,,,,,,,,
1577423000.981884,28.000000,0.000000,4211.794922,4290.769043,4177.948730,4065.641113,4158.461426,0.000000,3.000000,,,,0.000000,4.000000,4.000000,4.000000,4.000000,4.000000,,,,,,,,,,,,,,,,,,,,,,,,,
1577423000.989581,29.000000,0.000000,4216.410156,4289.230957,4146.666504,4046.666748,4156.410156,0.000000,3.000000,,,,0.000000,4.000000,4.000000,4.000000,4.000000,4.000000,,,,,,,,,,,,,,,,,,,,,,,,,
1577423000.997378,30.000000,0.000000,4196.922852,4270.769043,4123.077148,4032.307617,4135.897461,0.000000,3.000000,,,,0.000000,4.000000,4.000000,4.000000,4.000000,4.000000,,,,,,,,,,,,,,,,,,,,,,,,,
1577423001.005075,31.000000,0.000000,4199.487305,4263.077148,4127.692383,4049.743652,4149.230957,0.000000,3.000000,,,,0.000000,4.000000,4.000000,4.000000,4.000000,4.000000,,,,,,,,,,,,,,,,,,,,,,,,,
1577423001.012972,32.000000,0.000000,4218.461426,4289.230957,4131.794922,4069.230713,4181.025879,0.000000,3.000000,,,,0.000000,4.000000,4.000000,4.000000,4.000000,4.000000,,,,,,,,,,,,,,,,,,,,,,,,,
1577423001.020769,33.000000,0.000000,4241.025879,4307.692383,4132.307617,4082.564209,4204.102539,0.000000,3.000000,,,,0.000000,4.000000,4.000000,4.000000,4.000000,4.000000,,,,,,,,,,,,,,,,,,,,,,,,,
1577423001.028566,34.000000,0.000000,4224.615234,4263.589844,4114.358887,4067.692383,4180.000000,0.000000,3.000000,,,,0.000000,4.000000,4.000000,4.000000,4.000000,4.000000,122.585838,15.800803,4.350675,5.376201,7.048233,139.947769,3.848482,4.169186,4.926537,4.651864,143.153671,8.783154,1.601691,3.314960,4.488229,2.227649,2.991010,0.950958,4.378952,7.609365,44.043831,8.528955,2.974685,4.892653,6.234307
1577423001.036264,35.000000,0.000000,4196.922852,4242.563965,4094.871826,4055.897461,4146.666504,0.000000,3.000000,,,,0.000000,4.000000,4.000000,4.000000,4.000000,4.000000,,,,,,,,,,,,,,,,,,,,,,,,,
1577423001.044160,36.000000,0.000000,4213.846191,4275.897461,4101.025879,4068.718018,4162.051270,0.000000,3.000000,,,,0.000000,4.000000,4.000000,4.000000,4.000000,4.000000,,,,,,,,,,,,,,,,,,,,,,,,,
1577423001.051957,37.000000,0.000000,4210.256348,4269.743652,4094.358887,4057.948730,4172.820313,0.000000,3.000000,,,,0.000000,4.000000,4.000000,4.000000,4.000000,4.000000,,,,,,,,,,,,,,,,,,,,,,,,,
1577423001.059854,38.000000,0.000000,4228.717773,4261.025879,4112.820313,4071.281982,4198.461426,0.000000,3.000000,,,,0.000000,4.000000,4.000000,4.000000,4.000000,4.000000,,,,,,,,,,,,,,,,,,,,,,,,,
1577423001.067651,39.000000,0.000000,4263.077148,4271.794922,4135.384766,4101.538574,4218.461426,0.000000,3.000000,,,,0.000000,4.000000,4.000000,4.000000,4.000000,4.000000,,,,,,,,,,,,,,,,,,,,,,,,,
1577423001.075448,40.000000,0.000000,4225.641113,4263.589844,4102.051270,4072.820557,4173.333496,0.000000,3.000000,,,,0.000000,4.000000,4.000000,4.000000,4.000000,4.000000,,,,,,,,,,,,,,,,,,,,,,,,,
1577423001.083245,41.000000,0.000000,4199.487305,4273.846191,4093.333252,4048.718018,4157.436035,0.000000,3.000000,,,,0.000000,4.000000,4.000000,4.000000,4.000000,4.000000,,,,,,,,,,,,,,,,,,,,,,,,,
1577423001.090942,42.000000,0.000000,4235.897461,4296.410156,4136.410156,4091.794922,4204.102539,0.000000,3.000000,,,,0.000000,4.000000,4.000000,4.000000,4.000000,4.000000,,,,,,,,,,,,,,,,,,,,,,,,,
1577423001.098739,43.000000,0.000000,4250.769043,4287.692383,4143.077148,4114.358887,4215.384766,0.000000,3.000000,,,,0.000000,4.000000,4.000000,4.000000,4.000000,4.000000,,,,,,,,,,,,,,,,,,,,,,,,,
1577423001.106437,44.000000,0.000000,4222.051270,4270.256348,4102.563965,4068.205078,4180.000000,0.000000,3.000000,,,,0.000000,4.000000,4.000000,4.000000,4.000000,4.000000,,,,,,,,,,,,,,,,,,,,,,,,,
1577423001.114234,45.000000,0.000000,4213.846191,4274.358887,4092.820557,4055.897461,4181.025879,0.000000,3.000000,,,,0.000000,4.000000,4.000000,4.000000,4.000000,4.000000,,,,,,,,,,,,,,,,,,,,,,,,,
1577423001.121931,46.000000,0.000000,4216.410156,4266.666504,4091.794922,4060.000000,4187.692383,0.000000,3.000000,,,,0.000000,4.000000,4.000000,4.000000,4.000000,4.000000,,,,,,,,,,,,,,,,,,,,,,,,,
1577423001.129828,47.000000,0.000000,4229.230957,4268.205078,4091.281982,4048.205078,4190.256348,0.000000,3.000000,,,,0.000000,4.000000,4.000000,4.000000,4.000000,4.000000,,,,,,,,,,,,,,,,,,,,,,,,,
1577423001.137625,48.000000,0.000000,4285.128418,4311.794922,4134.358887,4095.897461,4242.563965,0.000000,3.000000,,,,0.000000,4.000000,4.000000,4.000000,4.000000,4.000000,,,,,,,,,,,,,,,,,,,,,,,,,
1577423001.145522,49.000000,0.000000,4294.871582,4309.743652,4130.769043,4109.743652,4257.948730,0.000000,3.000000,,,,0.000000,4.000000,4.000000,4.000000,4.000000,4.000000,,,,,,,,,,,,,,,,,,,,,,,,,
1577423001.153319,50.000000,0.000000,4247.692383,4264.102539,4087.692383,4058.461426,4214.871582,0.000000,3.000000,,,,0.000000,4.000000,4.000000,4.000000,4.000000,4.000000,72.979828,13.142865,3.822114,5.995739,5.131547,130.778976,3.846442,4.208665,5.309417,3.469616,191.225067,9.027162,1.861180,3.637201,3.430782,2.611927,3.156707,1.163062,4.906279,5.151972,27.565945,7.991617,2.740592,5.197666,4.468090
1577423001.161217,51.000000,0.000000,4236.922852,4267.179688,4083.076904,4043.076904,4200.000000,0.000000,3.000000,,,,0.000000,4.000000,4.000000,4.000000,4.000000,4.000000,,,,,,,,,,,,,,,,,,,,,,,,,
1577423001.169014,52.000000,0.000000,4228.205078,4270.769043,4060.000000,4031.794922,4192.820313,0.000000,3.000000,,,,0.000000,4.000000,4.000000,4.000000,4.000000,4.000000,,,,,,,,,,,,,,,,,,,,,,,,,
1577423001.176911,53.000000,0.000000,4225.641113,4264.615234,4048.718018,4032.307617,4195.384766,0.000000,3.000000,,,,0.000000,4.000000,4.000000,4.000000,4.000000,4.000000,,,,,,,,,,,,,,,,,,,,,,,,,
1577423001.184708,54.000000,0.000000,4271.794922,4293.333496,4090.256348,4074.358887,4233.846191,0.000000,3.000000,,,,0.000000,4.000000,4.000000,4.000000,4.000000,4.000000,,,,,,,,,,,,,,,,,,,,,,,,,
1577423001.192605,55.000000,0.000000,4284.615234,4292.307617,4090.769287,4087.692383,4244.102539,0.000000,3.000000,,,,0.000000,4.000000,4.000000,4.000000,4.000000,4.000000,,,,,,,,,,,,,,,,,,,,,,,,,
1577423001.200403,56.000000,0.000000,4269.230957,4276.922852,4069.230713,4070.256348,4231.282227,0.000000,3.000000,,,,0.000000,4.000000,4.000000,4.000000,4.000000,4.000000,,,,,,,,,,,,,,,,,,,,,,,,,
1577423001.208300,57.000000,0.000000,4282.051270,4286.153809,4068.718018,4053.333252,4230.256348,0.000000,3.000000,,,,0.000000,4.000000,4.000000,4.000000,4.000000,4.000000,,,,,,,,,,,,,,,,,,,,,,,,,
1577423001.216097,58.000000,0.000000,4285.128418,4285.128418,4051.281982,4048.718018,4229.230957,0.000000,3.000000,,,,0.000000,4.000000,4.000000,4.000000,4.000000,4.000000,,,,,,,,,,,,,,,,,,,,,,,,,
1577423001.223994,59.000000,0.000000,4267.179688,4274.871582,4029.743652,4045.641113,4226.153809,0.000000,3.000000,,,,0.000000,4.000000,4.000000,4.000000,4.000000,4.000000,,,,,,,,,,,,,,,,,,,,,,,,,
1577423001.231791,60.000000,0.000000,4271.794922,4272.820313,4031.794922,4040.000000,4225.128418,0.000000,3.000000,,,,0.000000,4.000000,4.000000,4.000000,4.000000,4.000000,,,,,,,,,,,,,,,,,,,,,,,,,
1577423001.239688,61.000000,0.000000,4297.436035,4286.666504,4047.179443,4060.000000,4236.922852,0.000000,3.000000,,,,0.000000,4.000000,4.000000,4.000000,4.000000,4.000000,,,,,,,,,,,,,,,,,,,,,,,,,
1577423001.247485,62.000000,0.000000,4283.077148,4276.922852,4039.487061,4065.128174,4233.846191,0.000000,3.000000,,,,0.000000,4.000000,4.000000,4.000000,4.000000,4.000000,,,,,,,,,,,,,,,,,,,,,,,,,
1577423001.255282,63.000000,0.000000,4261.025879,4255.897461,4026.153809,4055.384521,4222.051270,0.000000,3.000000,,,,0.000000,4.000000,4.000000,4.000000,4.000000,4.000000,,,,,,,,,,,,,,,,,,,,,,,,,
1577423001.263079,64.000000,0.000000,4282.563965,4271.282227,4035.897461,4069.743652,4237.436035,450.000000,3.000000,,,,0.000000,4.000000,4.000000,4.000000,4.000000,4.000000,,,,,,,,,,,,,,,,,,,,,,,,,
1577423001.270776,65.000000,0.000000,4270.256348,4273.846191,4026.666748,4066.666748,4231.282227,450.000000,3.000000,,,,0.000000,4.000000,4.000000,4.000000,4.000000,4.000000,,,,,,,,,,,,,,,,,,,,,,,,,
1577423001.278573,66.000000,0.000000,4251.794922,4257.948730,4011.281982,4057.948730,4214.358887,16228.000000,3.000000,,,,0.000000,4.000000,4.000000,4.000000,4.000000,4.000000,37.349201,10.691915,3.567770,6.400389,3.689810,106.326813,3.674077,3.806434,5.331821,2.570481,230.654541,9.686526,2.325805,3.939990,2.646276,3.083229,3.304727,1.436743,5.329782,3.364763,16.121569,7.327113,2.699018,5.310064,3.154932
1577423001.286270,67.000000,0.000000,4294.871582,4273.846191,4029.743652,4086.153809,4232.307617,450.000000,3.000000,,,,0.000000,4.000000,4.000000,4.000000,4.000000,4.000000,,,,,,,,,,,,,,,,,,,,,,,,,
1577423001.294067,68.000000,0.000000,4317.948730,4298.461426,4049.743652,4104.102539,4243.077148,16218.000000,3.000000,,,,0.000000,4.000000,4.000000,4.000000,4.000000,4.000000,,,,,,,,,,,,,,,,,,,,,,,,,
1577423001.301764,69.000000,0.000000,4279.487305,4280.000000,4032.820557,4071.281982,4218.974121,450.000000,3.000000,,,,0.000000,4.000000,4.000000,4.000000,4.000000,4.000000,,,,,,,,,,,,,,,,,,,,,,,,,
1577423001.309661,70.000000,0.000000,4260.000000,4250.256348,4016.923096,4049.743652,4198.974121,16117.000000,3.000000,,,,0.000000,4.000000,4.000000,4.000000,4.000000,4.000000,,,,,,,,,,,,,,,,,,,,,,,,,
1577423001.317458,71.000000,0.000000,4285.641113,4261.538574,4029.230713,4072.307617,4216.410156,450.000000,3.000000,,,,0.000000,4.000000,4.000000,4.000000,4.000000,4.000000,,,,,,,,,,,,,,,,,,,,,,,,,
1577423001.325256,72.000000,0.000000,4274.871582,4268.205078,4021.025635,4058.974365,4215.384766,450.000000,3.000000,,,,0.000000,4.000000,4.000000,4.000000,4.000000,4.000000,,,,,,,,,,,,,,,,,,,,,,,,,
1577423001.332953,73.000000,0.000000,4267.692383,4276.410156,4028.205078,4057.435791,4210.769043,16171.000000,3.000000,,,,0.000000,4.000000,4.000000,4.000000,4.000000,4.000000,,,,,,,,,,,,,,,,,,,,,,,,,
1577423001.340850,74.000000,0.000000,4312.307617,4306.153809,4072.307617,4107.692383,4251.794922,450.000000,3.000000,,,,0.000000,4.000000,4.000000,4.000000,4.000000,4.000000,,,,,,,,,,,,,,,,,,,,,,,,,
1577423001.348647,75.000000,0.000000,4303.589844,4286.666504,4063.589844,4093.333252,4240.000000,16198.000000,3.000000,,,,0.000000,4.000000,4.000000,4.000000,4.000000,4.000000,,,,,,,,,,,,,,,,,,,,,,,,,
1577423001.356544,76.000000,0.000000,4267.692383,4258.974121,4045.641113,4062.564209,4201.538574,450.000000,3.000000,,,,0.000000,4.000000,4.000000,4.000000,4.000000,4.000000,,,,,,,,,,,,,,,,,,,,,,,,,
1577423001.364342,77.000000,0.000000,4281.025879,4281.538574,4059.487061,4077.435791,4214.871582,450.000000,3.000000,,,,0.000000,4.000000,4.000000,4.000000,4.000000,4.000000,,,,,,,,,,,,,,,,,,,,,,,,,
1577423001.372239,78.000000,0.000000,4306.666504,4304.102539,4073.333252,4094.871826,4233.333496,450.000000,3.000000,,,,0.000000,4.000000,4.000000,4.000000,4.000000,4.000000,,,,,,,,,,,,,,,,,,,,,,,,,
1577423001.380036,79.000000,0.000000,4316.922852,4303.589844,4098.461426,4107.179688,4246.153809,16198.000000,3.000000,,,,0.000000,4.000000,4.000000,4.000000,4.000000,4.000000,,,,,,,,,,,,,,,,,,,,,,,,,
1577423001.387833,80.000000,0.000000,4301.025879,4300.512695,4098.461426,4090.769287,4233.846191,450.000000,3.000000,,,,0.000000,4.000000,4.000000,4.000000,4.000000,4.000000,,,,,,,,,,,,,,,,,,,,,,,,,
1577423001.395530,81.000000,0.000000,4274.358887,4302.563965,4074.358887,4072.307617,4195.897461,450.000000,3.000000,,,,0.000000,4.000000,4.000000,4.000000,4.000000,4.000000,,,,,,,,,,,,,,,,,,,,,,,,,
1577423001.403327,82.000000,0.000000,4274.358887,4294.358887,4074.871826,4083.076904,4194.871582,450.000000,3.000000,,,,0.000000,4.000000,4.000000,4.000000,4.000000,4.000000,16.423218,8.396461,3.481543,6.485355,2.841963,75.307938,3.394156,3.081883,4.988242,2.026306,248.697510,10.571757,2.918684,4.152223,2.171182,3.531943,3.412699,1.703750,5.576736,2.378922,9.471552,6.511390,2.785860,5.275170,2.397571
1577423001.411024,83.000000,0.000000,4265.641113,4277.948730,4079.487061,4084.102539,4200.000000,16198.000000,3.000000,,,,0.000000,4.000000,4.000000,4.000000,4.000000,4.000000,,,,,,,,,,,,,,,,,,,,,,,,,
1577423001.418921,84.000000,0.000000,4268.717773,4301.538574,4082.051270,4090.769287,4207.179688,450.000000,3.000000,,,,0.000000,4.000000,4.000000,4.000000,4.000000,4.000000,,,,,,,,,,,,,,,,,,,,,,,,,
1577423001.426718,85.000000,0.000000,4275.897461,4316.410156,4075.897461,4094.871826,4215.897461,450.000000,3.000000,,,,0.000000,4.000000,4.000000,4.000000,4.000000,4.000000,,,,,,,,,,,,,,,,,,,,,,,,,
1577423001.434615,86.000000,0.000000,4251.794922,4277.436035,4050.256348,4082.051270,4199.487305,450.000000,3.000000,,,,0.000000,4.000000,4.000000,4.000000,4.000000,4.000000,,,,,,,,,,,,,,,,,,,,,,,,,
1577423001.442412,87.000000,0.000000,4276.410156,4290.769043,4068.205078,4105.641113,4225.641113,16198.000000,3.000000,,,,0.000000,4.000000,4.000000,4.000000,4.000000,4.000000,,,,,,,,,,,,,,,,,,,,,,,,,
1577423001.450109,88.000000,0.000000,4301.538574,4330.256348,4093.846191,4128.205078,4248.205078,450.000000,3.000000,,,,0.000000,4.000000,4.000000,4.000000,4.000000,4.000000,,,,,,,,,,,,,,,,,,,,,,,,,
1577423001.457906,89.000000,0.000000,4262.051270,4303.077148,4063.076904,4104.615234,4207.692383,450.000000,3.000000,,,,0.000000,4.000000,4.000000,4.000000,4.000000,4.000000,,,,,,,,,,,,,,,,,,,,,,,,,
1577423001.465703,90.000000,0.000000,4241.025879,4272.307617,4032.307617,4088.718018,4189.230957,450.000000,3.000000,,,,0.000000,4.000000,4.000000,4.000000,4.000000,4.000000,,,,,,,,,,,,,,,,,,,,,,,,,
1577423001.473401,91.000000,0.000000,4270.256348,4294.871582,4055.384521,4123.589844,4215.897461,16198.000000,3.000000,,,,0.000000,4.000000,4.000000,4.000000,4.000000,4.000000,,,,,,,,,,,,,,,,,,,,,,,,,
1577423001.481298,92.000000,0.000000,4274.358887,4311.282227,4062.051270,4136.410156,4217.436035,450.000000,3.000000,,,,0.000000,4.000000,4.000000,4.000000,4.000000,4.000000,,,,,,,,,,,,,,,,,,,,,,,,,
1577423001.489095,93.000000,0.000000,4250.256348,4284.102539,4031.281982,4108.205078,4194.358887,450.000000,3.000000,,,,0.000000,4.000000,4.000000,4.000000,4.000000,4.000000,,,,,,,,,,,,,,,,,,,,,,,,,
1577423001.496893,94.000000,0.000000,4282.051270,4293.846191,4048.718018,4133.846191,4220.000000,450.000000,3.000000,,,,0.000000,4.000000,4.000000,4.000000,4.000000,4.000000,,,,,,,,,,,,,,,,,,,,,,,,,
1577423001.504690,95.000000,0.000000,4303.589844,4313.846191,4065.641113,4153.333496,4246.153809,16198.000000,3.000000,,,,0.000000,4.000000,4.000000,4.000000,4.000000,4.000000,,,,,,,,,,,,,,,,,,,,,,,,,
1577423001.512388,96.000000,0.000000,4244.102539,4276.410156,4033.333252,4119.487305,4205.641113,450.000000,3.000000,,,,0.000000,4.000000,4.000000,4.000000,4.000000,4.000000,,,,,,,,,,,,,,,,,,,,,,,,,
1577423001.520185,97.000000,0.000000,4209.230957,4256.922852,4007.692383,4104.102539,4173.333496,450.000000,3.000000,,,,0.000000,4.000000,4.000000,4.000000,4.000000,4.000000,,,,,,,,,,,,,,,,,,,,,,,,,
1577423001.527882,98.000000,0.000000,4234.871582,4278.461426,4007.692383,4114.358887,4194.871582,450.000000,3.000000,,,,0.000000,4.000000,4.000000,4.000000,4.000000,4.000000,7.304337,6.555223,3.449171,6.267509,2.453304,45.064911,3.047035,2.243467,4.392689,1.753113,239.963409,11.283106,3.452062,4.259479,1.907902,3.743004,3.437535,1.873880,5.640741,1.982202,6.390839,5.701334,2.889465,5.205883,2.059978
1577423001.535679,99.000000,0.000000,4271.282227,4293.333496,4035.384521,4146.666504,4238.461426,16198.000000,3.000000,,,,0.000000,4.000000,4.000000,4.000000,4.000000,4.000000,,,,,,,,,,,,,,,,,,,,,,,,,
1577423001.543376,100.000000,0.000000,4269.743652,4284.102539,4045.641113,4150.769043,4241.025879,450.000000,3.000000,,,,0.000000,4.000000,4.000000,4.000000,4.000000,4.000000,,,,,,,,,,,,,,,,,,,,,,,,,
1577423001.551173,101.000000,0.000000,4225.128418,4268.717773,4013.333252,4113.846191,4191.282227,450.000000,3.000000,,,,0.000000,4.000000,4.000000,4.000000,4.000000,4.000000,,,,,,,,,,,,,,,,,,,,,,,,,
1577423001.558870,102.000000,0.000000,4249.230957,4288.205078,4027.692383,4135.384766,4205.641113,450.000000,3.000000,,,,0.000000,4.000000,4.000000,4.000000,4.000000,4.000000,,,,,,,,,,,,,,,,,,,,,,,,,
1577423001.566667,103.000000,0.000000,4284.102539,4289.230957,4042.564209,4158.974121,4244.102539,16198.000000,3.000000,,,,0.000000,4.000000,4.000000,4.000000,4.000000,4.000000,,,,,,,,,,,,,,,,,,,,,,,,,
1577423001.574364,104.000000,0.000000,4227.179688,4254.871582,3997.435791,4114.358887,4205.128418,450.000000,3.000000,,,,0.000000,4.000000,4.000000,4.000000,4.000000,4.000000,,,,,,,,,,,,,,,,,,,,,,,,,
1577423001.582161,105.000000,0.000000,4246.666504,4281.025879,4016.410156,4113.333496,4214.871582,450.000000,3.000000,,,,0.000000,4.000000,4.000000,4.000000,4.000000,4.000000,,,,,,,,,,,,,,,,,,,,,,,,,
1577423001.589858,106.000000,0.000000,4323.589844,4306.153809,4069.230713,4151.282227,4261.538574,450.000000,3.000000,,,,0.000000,4.000000,4.000000,4.000000,4.000000,4.000000,,,,,,,,,,,,,,,,,,,,,,,,,
1577423001.597655,107.000000,0.000000,4298.974121,4268.717773,4051.281982,4143.589844,4237.948730,16198.000000,3.000000,,,,0.000000,4.000000,4.000000,4.000000,4.000000,4.000000,,,,,,,,,,,,,,,,,,,,,,,,,
1577423001.605352,108.000000,0.000000,4251.794922,4254.358887,4027.179443,4117.948730,4211.794922,450.000000,3.000000,,,,0.000000,4.000000,4.000000,4.000000,4.000000,4.000000,,,,,,,,,,,,,,,,,,,,,,,,,
1577423001.613249,109.000000,0.000000,4273.846191,4281.538574,4055.384521,4135.897461,4242.563965,450.000000,3.000000,,,,0.000000,4.000000,4.000000,4.000000,4.000000,4.000000,,,,,,,,,,,,,,,,,,,,,,,,,
1577423001.621046,110.000000,0.000000,4302.051270,4296.410156,4083.076904,4160.512695,4272.820313,450.000000,3.000000,,,,0.000000,4.000000,4.000000,4.000000,4.000000,4.000000,,,,,,,,,,,,,,,,,,,,,,,,,
1577423001.628943,111.000000,0.000000,4284.102539,4270.769043,4067.692383,4141.538574,4253.846191,16198.000000,3.000000,,,,0.000000,4.000000,4.000000,4.000000,4.000000,4.000000,,,,,,,,,,,,,,,,,,,,,,,,,
1577423001.636740,112.000000,0.000000,4268.205078,4260.512695,4067.179443,4128.717773,4236.922852,450.000000,3.000000,,,,0.000000,4.000000,4.000000,4.000000,4.000000,4.000000,,,,,,,,,,,,,,,,,,,,,,,,,
1577423001.644637,113.000000,0.000000,4263.589844,4269.230957,4075.384521,4118.461426,4230.769043,450.000000,3.000000,,,,0.000000,4.000000,4.000000,4.000000,4.000000,4.000000,,,,,,,,,,,,,,,,,,,,,,,,,
1577423001.652434,114.000000,0.000000,4266.153809,4265.128418,4083.589844,4123.589844,4248.205078,450.000000,3.000000,,,,0.000000,4.000000,4.000000,4.000000,4.000000,4.000000,4.523200,5.162904,3.331613,5.866923,2.315418,22.868067,2.658778,1.516803,3.740879,1.626812,207.998993,11.357569,3.709883,4.296972,1.738338,3.672851,3.342143,1.899007,5.573715,1.859316,5.127639,4.926647,2.884310,5.206832,1.936082
1577423001.660331,115.000000,0.000000,4302.051270,4276.410156,4114.358887,4161.025879,4293.846191,16198.000000,3.000000,,,,0.000000,4.000000,4.000000,4.000000,4.000000,4.000000,,,,,,,,,,,,,,,,,,,,,,,,,
1577423001.668128,116.000000,0.000000,4302.563965,4273.846191,4096.410156,4144.615234,4282.051270,450.000000,3.000000,,,,0.000000,4.000000,4.000000,4.000000,4.000000,4.000000,,,,,,,,,,,,,,,,,,,,,,,,,
1577423001.675825,117.000000,0.000000,4269.230957,4255.384766,4055.897461,4108.717773,4246.153809,450.000000,3.000000,,,,0.000000,4.000000,4.000000,4.000000,4.000000,4.000000,,,,,,,,,,,,,,,,,,,,,,,,,
1577423001.683622,118.000000,0.000000,4308.205078,4260.000000,4069.230713,4128.205078,4278.461426,450.000000,3.000000,,,,0.000000,4.000000,4.000000,4.000000,4.000000,4.000000,,,,,,,,,,,,,,,,,,,,,,,,,
1577423001.691319,119.000000,0.000000,4365.128418,4250.256348,4066.666748,4126.666504,4306.666504,16198.000000,3.000000,,,,0.000000,4.000000,4.000000,4.000000,4.000000,4.000000,,,,,,,,,,,,,,,,,,,,,,,,,
1577423001.699116,120.000000,0.000000,4416.410156,4244.102539,4045.128174,4101.538574,4311.794922,450.000000,3.000000,,,,0.000000,4.000000,4.000000,4.000000,4.000000,4.000000,,,,,,,,,,,,,,,,,,,,,,,,,
1577423001.706813,121.000000,0.000000,4538.461426,4286.153809,4084.615479,4130.256348,4399.487305,450.000000,3.000000,,,,0.000000,4.000000,4.000000,4.000000,4.000000,4.000000,,,,,,,,,,,,,,,,,,,,,,,,,
1577423001.714610,122.000000,0.000000,4683.077148,4309.230957,4141.538574,4190.769043,4530.769043,450.000000,3.000000,,,,0.000000,4.000000,4.000000,4.000000,4.000000,4.000000,,,,,,,,,,,,,,,,,,,,,,,,,
1577423001.722307,123.000000,0.000000,4746.666504,4285.128418,4138.461426,4193.333496,4579.487305,16198.000000,3.000000,,,,0.000000,4.000000,4.000000,4.000000,4.000000,4.000000,,,,,,,,,,,,,,,,,,,,,,,,,
1577423001.730204,124.000000,0.000000,4737.436035,4266.153809,4112.820313,4149.230957,4570.769043,450.000000,3.000000,,,,0.000000,4.000000,4.000000,4.000000,4.000000,4.000000,,,,,,,,,,,,,,,,,,,,,,,,,
1577423001.738002,125.000000,0.000000,4744.615234,4267.179688,4121.025879,4145.128418,4591.282227,450.000000,3.000000,,,,0.000000,4.000000,4.000000,4.000000,4.000000,4.000000,,,,,,,,,,,,,,,,,,,,,,,,,
1577423001.745799,126.000000,0.000000,4752.820313,4261.025879,4134.871582,4155.897461,4611.794922,450.000000,3.000000,,,,0.000000,4.000000,4.000000,4.000000,4.000000,4.000000,,,,,,,,,,,,,,,,,,,,,,,,,
1577423001.753496,127.000000,0.000000,4733.333496,4262.051270,4143.077148,4168.717773,4616.922852,233.000000,3.000000,,,,0.000000,4.000000,4.000000,4.000000,4.000000,4.000000,,,,,,,,,,,,,,,,,,,,,,,,,
1577423001.761393,0.000000,0.000000,4709.743652,4276.922852,4149.230957,4186.153809,4622.051270,450.000000,3.000000,,,,0.000000,4.000000,4.000000,4.000000,4.000000,4.000000,,,,,,,,,,,,,,,,,,,,,,,,,
1577423001.769190,1.000000,0.000000,4638.974121,4246.666504,4108.205078,4149.743652,4563.077148,450.000000,3.000000,,,,0.000000,4.000000,4.000000,4.000000,4.000000,4.000000,,,,,,,,,,,,,,,,,,,,,,,,,
1577423001.777087,2.000000,0.000000,4572.307617,4221.538574,4090.769287,4137.436035,4508.205078,16241.000000,3.000000,,,,0.000000,4.000000,4.000000,4.000000,4.000000,4.000000,3.447867,4.190154,3.168544,5.451157,2.340679,9.888535,2.243985,1.037359,3.209730,1.595800,162.115387,10.559594,3.561201,4.301858,1.633956,3.330663,3.098155,1.780562,5.431640,1.849420,4.534764,4.211154,2.741015,5.309940,1.933295
1577423001.784885,3.000000,0.000000,4551.794922,4248.205078,4125.641113,4171.794922,4510.769043,450.000000,3.000000,,,,0.000000,4.000000,4.000000,4.000000,4.000000,4.000000,,,,,,,,,,,,,,,,,,,,,,,,,
1577423001.792782,4.000000,0.000000,4501.538574,4258.461426,4123.589844,4166.666504,4470.256348,16219.000000,3.000000,,,,0.000000,4.000000,4.000000,4.000000,4.000000,4.000000,,,,,,,,,,,,,,,,,,,,,,,,,
1577423001.800579,5.000000,0.000000,4460.000000,4264.102539,4129.743652,4174.871582,4444.615234,450.000000,3.000000,,,,0.000000,4.000000,4.000000,4.000000,4.000000,4.000000,,,,,,,,,,,,,,,,,,,,,,,,,
1577423001.808476,6.000000,0.000000,4457.948730,4275.897461,4161.025879,4203.077148,4457.948730,16167.000000,3.000000,,,,0.000000,4.000000,4.000000,4.000000,4.000000,4.000000,,,,,,,,,,,,,,,,,,,,,,,,,
1577423001.816273,7.000000,0.000000,4430.769043,4273.846191,4148.205078,4184.615234,4425.641113,450.000000,3.000000,,,,0.000000,4.000000,4.000000,4.000000,4.000000,4.000000,,,,,,,,,,,,,,,,,,,,,,,,,
1577423001.824170,8.000000,0.000000,4376.922852,4268.205078,4117.436035,4140.512695,4374.871582,450.000000,3.000000,,,,0.000000,4.000000,4.000000,4.000000,4.000000,4.000000,,,,,,,,,,,,,,,,,,,,,,,,,
1577423001.831967,9.000000,0.000000,4351.282227,4274.358887,4133.333496,4132.307617,4354.871582,16218.000000,3.000000,,,,0.000000,4.000000,4.000000,4.000000,4.000000,4.000000,,,,,,,,,,,,,,,,,,,,,,,,,
1577423001.839864,10.000000,0.000000,4358.974121,4286.666504,4167.692383,4154.358887,4361.025879,450.000000,3.000000,,,,0.000000,4.000000,4.000000,4.000000,4.000000,4.000000,,,,,,,,,,,,,,,,,,,,,,,,,
1577423001.847761,11.000000,0.000000,4323.589844,4265.641113,4141.538574,4133.333496,4333.846191,16191.000000,3.000000,,,,0.000000,4.000000,4.000000,4.000000,4.000000,4.000000,,,,,,,,,,,,,,,,,,,,,,,,,
1577423001.855558,12.000000,0.000000,4286.666504,4256.410156,4129.230957,4124.102539,4312.820313,450.000000,3.000000,,,,0.000000,4.000000,4.000000,4.000000,4.000000,4.000000,,,,,,,,,,,,,,,,,,,,,,,,,
1577423001.863355,13.000000,0.000000,4316.922852,4286.153809,4161.538574,4157.436035,4342.563965,450.000000,3.000000,,,,0.000000,4.000000,4.000000,4.000000,4.000000,4.000000,,,,,,,,,,,,,,,,,,,,,,,,,
1577423001.871053,14.000000,0.000000,4325.641113,4286.666504,4157.436035,4159.487305,4339.487305,450.000000,3.000000,,,,0.000000,4.000000,4.000000,4.000000,4.000000,4.000000,,,,,,,,,,,,,,,,,,,,,,,,,
1577423001.878850,15.000000,0.000000,4294.358887,4263.077148,4136.410156,4149.230957,4311.794922,16191.000000,3.000000,,,,0.000000,4.000000,4.000000,4.000000,4.000000,4.000000,,,,,,,,,,,,,,,,,,,,,,,,,
1577423001.886547,16.000000,0.000000,4274.358887,4255.384766,4125.128418,4138.461426,4290.769043,0.000000,3.000000,,,,0.000000,4.000000,4.000000,4.000000,4.000000,4.000000,,,,,,,,,,,,,,,,,,,,,,,,,
1577423001.894444,17.000000,0.000000,4264.102539,4261.025879,4112.820313,4134.358887,4267.179688,0.000000,3.000000,,,,0.000000,4.000000,4.000000,4.000000,4.000000,4.000000,,,,,,,,,,,,,,,,,,,,,,,,,
1577423001.902241,18.000000,0.000000,4257.948730,4257.436035,4101.025879,4137.948730,4262.051270,0.000000,3.000000,,,,0.000000,4.000000,4.000000,4.000000,4.000000,4.000000,4.539356,3.943691,3.088981,5.170690,2.540053,4.166084,1.835783,0.797214,2.881891,1.661312,112.937157,8.946074,3.047512,4.288990,1.633394,2.944705,2.742571,1.575621,5.244257,1.942526,5.216043,3.672651,2.509630,5.473159,2.061682
1577423001.910138,19.000000,0.000000,4256.410156,4253.846191,4094.358887,4133.333496,4271.794922,0.000000,3.000000,,,,0.000000,4.000000,4.000000,4.000000,4.000000,4.000000,,,,,,,,,,,,,,,,,,,,,,,,,
1577423001.917935,20.000000,0.000000,4271.794922,4281.538574,4096.922852,4147.692383,4291.794922,0.000000,3.000000,,,,0.000000,4.000000,4.000000,4.000000,4.000000,4.000000,,,,,,,,,,,,,,,,,,,,,,,,,
1577423001.925833,21.000000,0.000000,4269.743652,4292.307617,4082.051270,4150.256348,4289.743652,0.000000,3.000000,,,,0.000000,4.000000,4.000000,4.000000,4.000000,4.000000,,,,,,,,,,,,,,,,,,,,,,,,,
1577423001.933630,22.000000,0.000000,4228.205078,4256.410156,4059.487061,4132.820313,4249.743652,0.000000,3.000000,,,,0.000000,4.000000,4.000000,4.000000,4.000000,4.000000,,,,,,,,,,,,,,,,,,,,,,,,,
1577423001.941427,23.000000,0.000000,4214.358887,4252.820313,4062.051270,4135.384766,4240.000000,0.000000,3.000000,,,,0.000000,4.000000,4.000000,4.000000,4.000000,4.000000,,,,,,,,,,,,,,,,,,,,,,,,,
1577423001.949124,24.000000,0.000000,4213.333496,4269.743652,4065.641113,4137.948730,4252.307617,0.000000,3.000000,,,,0.000000,4.000000,4.000000,4.000000,4.000000,4.000000,,,,,,,,,,,,,,,,,,,,,,,,,
1577423001.956921,25.000000,0.000000,4198.974121,4258.461426,4060.512939,4128.205078,4245.128418,0.000000,3.000000,,,,0.000000,4.000000,4.000000,4.000000,4.000000,4.000000,,,,,,,,,,,,,,,,,,,,,,,,,
1577423001.964618,26.000000,0.000000,4204.615234,4241.025879,4058.461426,4119.487305,4245.641113,0.000000,3.000000,,,,0.000000,4.000000,4.000000,4.000000,4.000000,4.000000,,,,,,,,,,,,,,,,,,,,,,,,,
1577423001.972415,27.000000,0.000000,4217.948730,4248.717773,4069.743652,4140.512695,4263.589844,0.000000,3.000000,,,,0.000000,4.000000,4.000000,4.000000,4.000000,4.000000,,,,,,,,,,,,,,,,,,,,,,,,,
1577423001.980112,28.000000,0.000000,4226.666504,4285.128418,4096.922852,4172.820313,4285.128418,0.000000,3.000000,,,,0.000000,4.000000,4.000000,4.000000,4.000000,4.000000,,,,,,,,,,,,,,,,,,,,,,,,,
1577423001.987909,29.000000,0.000000,4213.846191,4276.410156,4081.538574,4155.384766,4272.820313,0.000000,3.000000,,,,0.000000,4.000000,4.000000,4.000000,4.000000,4.000000,,,,,,,,,,,,,,,,,,,,,,,,,
1577423001.995606,30.000000,0.000000,4193.333496,4237.436035,4053.846191,4148.717773,4243.589844,0.000000,3.000000,,,,0.000000,4.000000,4.000000,4.000000,4.000000,4.000000,,,,,,,,,,,,,,,,,,,,,,,,,
1577423002.003403,31.000000,0.000000,4183.077148,4244.615234,4055.897461,4160.512695,4241.538574,0.000000,3.000000,,,,0.000000,4.000000,4.000000,4.000000,4.000000,4.000000,,,,,,,,,,,,,,,,,,,,,,,,,
1577423002.011101,32.000000,0.000000,4145.128418,4246.153809,4027.179443,4119.487305,4216.410156,0.000000,3.000000,,,,0.000000,4.000000,4.000000,4.000000,4.000000,4.000000,,,,,,,,,,,,,,,,,,,,,,,,,
1577423002.018997,33.000000,0.000000,4148.205078,4243.077148,4020.000000,4112.820313,4208.717773,0.000000,3.000000,,,,0.000000,4.000000,4.000000,4.000000,4.000000,4.000000,,,,,,,,,,,,,,,,,,,,,,,,,
1577423002.026794,34.000000,0.000000,4186.153809,4256.410156,4061.538574,4152.820313,4244.615234,0.000000,3.000000,,,,0.000000,4.000000,4.000000,4.000000,4.000000,4.000000,15.703358,5.714359,3.244125,5.132571,2.896038,2.381475,1.513386,0.696063,2.733501,1.804219,70.908020,6.952586,2.358895,4.259287,1.756174,2.675463,2.365377,1.366624,5.026352,2.131494,10.358797,3.895812,2.316537,5.644335,2.323806
1577423002.034691,35.000000,0.000000,4184.102539,4263.589844,4085.128174,4168.205078,4252.307617,0.000000,3.000000,,,,0.000000,4.000000,4.000000,4.000000,4.000000,4.000000,,,,,,,,,,,,,,,,,,,,,,,,,
1577423002.042488,36.000000,0.000000,4191.282227,4264.615234,4082.564209,4171.282227,4248.717773,0.000000,3.000000,,,,0.000000,4.000000,4.000000,4.000000,4.000000,4.000000,,,,,,,,,,,,,,,,,,,,,,,,,
1577423002.050285,37.000000,0.000000,4189.230957,4236.922852,4065.128174,4161.025879,4247.692383,0.000000,3.000000,,,,0.000000,4.000000,4.000000,4.000000,4.000000,4.000000,,,,,,,,,,,,,,,,,,,,,,,,,
1577423002.058082,38.000000,0.000000,4149.743652,4214.871582,4045.641113,4134.871582,4233.333496,0.000000,3.000000,,,,0.000000,4.000000,4.000000,4.000000,4.000000,4.000000,,,,,,,,,,,,,,,,,,,,,,,,,
1577423002.065779,39.000000,0.000000,4130.769043,4230.769043,4021.538574,4107.179688,4211.794922,0.000000,3.000000,,,,0.000000,4.000000,4.000000,4.000000,4.000000,4.000000,,,,,,,,,,,,,,,,,,,,,,,,,
1577423002.073576,40.000000,0.000000,4164.102539,4254.358887,4023.589844,4122.563965,4223.589844,0.000000,3.000000,,,,0.000000,4.000000,4.000000,4.000000,4.000000,4.000000,,,,,,,,,,,,,,,,,,,,,,,,,
1577423002.081274,41.000000,0.000000,4193.846191,4255.897461,4041.538574,4142.051270,4242.563965,0.000000,3.000000,,,,0.000000,4.000000,4.000000,4.000000,4.000000,4.000000,,,,,,,,,,,,,,,,,,,,,,,,,
1577423002.089071,42.000000,0.000000,4148.205078,4218.461426,4000.000000,4091.281982,4197.948730,0.000000,3.000000,,,,0.000000,4.000000,4.000000,4.000000,4.000000,4.000000,,,,,,,,,,,,,,,,,,,,,,,,,
1577423002.096768,43.000000,0.000000,4117.948730,4211.282227,3974.871826,4074.871826,4174.358887,0.000000,3.000000,,,,0.000000,4.000000,4.000000,4.000000,4.000000,4.000000,,,,,,,,,,,,,,,,,,,,,,,,,
1577423002.104565,44.000000,0.000000,4148.205078,4236.410156,3997.948730,4100.000000,4198.974121,0.000000,3.000000,,,,0.000000,4.000000,4.000000,4.000000,4.000000,4.000000,,,,,,,,,,,,,,,,,,,,,,,,,
1577423002.112262,45.000000,0.000000,4141.025879,4220.000000,3984.102539,4072.820557,4182.563965,0.000000,3.000000,,,,0.000000,4.000000,4.000000,4.000000,4.000000,4.000000,,,,,,,,,,,,,,,,,,,,,,,,,
1577423002.120059,46.000000,0.000000,4160.512695,4232.307617,4001.025635,4082.051270,4195.384766,0.000000,3.000000,,,,0.000000,4.000000,4.000000,4.000000,4.000000,4.000000,,,,,,,,,,,,,,,,,,,,,,,,,
1577423002.127756,47.000000,0.000000,4226.666504,4274.871582,4050.256348,4131.282227,4254.358887,0.000000,3.000000,,,,0.000000,4.000000,4.000000,4.000000,4.000000,4.000000,,,,,,,,,,,,,,,,,,,,,,,,,
1577423002.135553,48.000000,0.000000,4214.358887,4253.846191,4030.769287,4113.846191,4243.589844,0.000000,3.000000,,,,0.000000,4.000000,4.000000,4.000000,4.000000,4.000000,,,,,,,,,,,,,,,,,,,,,,,,,
1577423002.143250,49.000000,0.000000,4172.307617,4228.717773,4004.102539,4069.743652,4206.153809,0.000000,3.000000,,,,0.000000,4.000000,4.000000,4.000000,4.000000,4.000000,,,,,,,,,,,,,,,,,,,,,,,,,
1577423002.151047,50.000000,0.000000,4192.307617,4244.615234,4025.641113,4066.153809,4224.615234,0.000000,3.000000,,,,0.000000,4.000000,4.000000,4.000000,4.000000,4.000000,48.649597,11.203123,3.797764,5.352838,3.340990,1.960323,1.346866,0.636215,2.687034,1.978636,41.131134,5.189388,1.769116,4.198345,1.981605,2.578635,2.068393,1.245362,4.783523,2.382968,25.285114,5.705506,2.340412,5.803005,2.687203
1577423002.158744,51.000000,0.000000,4214.358887,4250.256348,4032.307617,4067.692383,4239.487305,0.000000,3.000000,,,,0.000000,4.000000,4.000000,4.000000,4.000000,4.000000,,,,,,,,,,,,,,,,,,,,,,,,,
1577423002.166641,52.000000,0.000000,4188.717773,4232.307617,4004.615479,4038.974365,4200.512695,0.000000,3.000000,,,,0.000000,4.000000,4.000000,4.000000,4.000000,4.000000,,,,,,,,,,,,,,,,,,,,,,,,,
1577423002.174439,53.000000,0.000000,4178.461426,4237.436035,4016.410156,4045.128174,4192.820313,0.000000,3.000000,,,,0.000000,4.000000,4.000000,4.000000,4.000000,4.000000,,,,,,,,,,,,,,,,,,,,,,,,,
1577423002.182336,54.000000,0.000000,4200.000000,4262.051270,4054.358887,4069.743652,4234.358887,0.000000,3.000000,,,,0.000000,4.000000,4.000000,4.000000,4.000000,4.000000,,,,,,,,,,,,,,,,,,,,,,,,,
1577423002.190133,55.000000,0.000000,4209.743652,4263.589844,4048.205078,4058.974365,4248.205078,0.000000,3.000000,,,,0.000000,4.000000,4.000000,4.000000,4.000000,4.000000,,,,,,,,,,,,,,,,,,,,,,,,,
1577423002.198030,56.000000,0.000000,4218.461426,4263.077148,4041.538574,4054.358887,4251.794922,0.000000,3.000000,,,,0.000000,4.000000,4.000000,4.000000,4.000000,4.000000,,,,,,,,,,,,,,,,,,,,,,,,,
1577423002.205827,57.000000,0.000000,4201.025879,4249.230957,4036.410156,4033.333252,4233.846191,0.000000,3.000000,,,,0.000000,4.000000,4.000000,4.000000,4.000000,4.000000,,,,,,,,,,,,,,,,,,,,,,,,,
1577423002.213724,58.000000,0.000000,4175.897461,4228.205078,4017.948730,4008.718018,4197.436035,0.000000,3.000000,,,,0.000000,4.000000,4.000000,4.000000,4.000000,4.000000,,,,,,,,,,,,,,,,,,,,,,,,,
1577423002.221521,59.000000,0.000000,4193.846191,4241.025879,4026.153809,4026.153809,4202.051270,0.000000,3.000000,,,,0.000000,4.000000,4.000000,4.000000,4.000000,4.000000,,,,,,,,,,,,,,,,,,,,,,,,,
1577423002.229418,60.000000,0.000000,4184.615234,4251.282227,4025.128174,4020.000000,4193.333496,0.000000,3.000000,,,,0.000000,4.000000,4.000000,4.000000,4.000000,4.000000,,,,,,,,,,,,,,,,,,,,,,,,,
1577423002.237215,61.000000,0.000000,4168.205078,4260.000000,4025.128174,4013.846191,4178.974121,0.000000,3.000000,,,,0.000000,4.000000,4.000000,4.000000,4.000000,4.000000,,,,,,,,,,,,,,,,,,,,,,,,,
1577423002.244912,62.000000,0.000000,4213.333496,4283.077148,4056.410156,4049.743652,4216.410156,0.000000,3.000000,,,,0.000000,4.000000,4.000000,4.000000,4.000000,4.000000,,,,,,,,,,,,,,,,,,,,,,,,,
1577423002.252709,63.000000,0.000000,4246.153809,4294.871582,4077.948730,4068.205078,4235.897461,0.000000,3.000000,,,,0.000000,4.000000,4.000000,4.000000,4.000000,4.000000,,,,,,,,,,,,,,,,,,,,,,,,,
1577423002.260406,64.000000,0.000000,4221.538574,4294.358887,4068.718018,4047.692383,4205.128418,450.000000,3.000000,,,,0.000000,4.000000,4.000000,4.000000,4.000000,4.000000,,,,,,,,,,,,,,,,,,,,,,,,,
1577423002.268303,65.000000,0.000000,4178.974121,4276.410156,4030.256348,4017.948730,4163.077148,450.000000,3.000000,,,,0.000000,4.000000,4.000000,4.000000,4.000000,4.000000,,,,,,,,,,,,,,,,,,,,,,,,,
1577423002.276101,66.000000,0.000000,4178.461426,4265.641113,4010.256348,4024.102539,4161.025879,16240.000000,3.000000,,,,0.000000,4.000000,4.000000,4.000000,4.000000,4.000000,108.358994,20.711634,4.929872,5.774477,3.764932,1.866737,1.383649,0.589209,2.689801,2.128645,23.871399,4.143440,1.547477,4.104604,2.249658,2.810409,1.921446,1.323150,4.536764,2.637886,52.387524,9.357956,2.783422,5.962939,3.075931
1577423002.283898,67.000000,0.000000,4199.487305,4278.974121,4024.615479,4035.897461,4179.487305,450.000000,3.000000,,,,0.000000,4.000000,4.000000,4.000000,4.000000,4.000000,,,,,,,,,,,,,,,,,,,,,,,,,
1577423002.291595,68.000000,0.000000,4181.538574,4297.436035,4035.384521,4026.153809,4165.128418,16210.000000,3.000000,,,,0.000000,4.000000,4.000000,4.000000,4.000000,4.000000,,,,,,,,,,,,,,,,,,,,,,,,,
1577423002.299392,69.000000,0.000000,4195.384766,4322.563965,4050.256348,4037.948730,4186.153809,450.000000,3.000000,,,,0.000000,4.000000,4.000000,4.000000,4.000000,4.000000,,,,,,,,,,,,,,,,,,,,,,,,,
1577423002.307089,70.000000,0.000000,4237.948730,4337.436035,4066.666748,4053.333252,4220.000000,16141.000000,3.000000,,,,0.000000,4.000000,4.000000,4.000000,4.000000,4.000000,,,,,,,,,,,,,,,,,,,,,,,,,
1577423002.314886,71.000000,0.000000,4230.256348,4335.897461,4081.538574,4066.153809,4200.000000,450.000000,3.000000,,,,0.000000,4.000000,4.000000,4.000000,4.000000,4.000000,,,,,,,,,,,,,,,,,,,,,,,,,
1577423002.322583,72.000000,0.000000,4198.974121,4329.230957,4078.461426,4065.128174,4181.025879,450.000000,3.000000,,,,0.000000,4.000000,4.000000,4.000000,4.000000,4.000000,,,,,,,,,,,,,,,,,,,,,,,,,
1577423002.330480,73.000000,0.000000,4181.025879,4320.512695,4062.051270,4045.128174,4172.820313,16208.000000,3.000000,,,,0.000000,4.000000,4.000000,4.000000,4.000000,4.000000,,,,,,,,,,,,,,,,,,,,,,,,,
1577423002.338278,74.000000,0.000000,4193.846191,4329.743652,4073.333252,4053.846191,4175.384766,450.000000,3.000000,,,,0.000000,4.000000,4.000000,4.000000,4.000000,4.000000,,,,,,,,,,,,,,,,,,,,,,,,,
1577423002.346175,75.000000,0.000000,4205.641113,4340.000000,4092.820557,4070.256348,4189.230957,16194.000000,3.000000,,,,0.000000,4.000000,4.000000,4.000000,4.000000,4.000000,,,,,,,,,,,,,,,,,,,,,,,,,
1577423002.353972,76.000000,0.000000,4201.538574,4345.128418,4108.717773,4080.000000,4198.974121,450.000000,3.000000,,,,0.000000,4.000000,4.000000,4.000000,4.000000,4.000000,,,,,,,,,,,,,,,,,,,,,,,,,
1577423002.361869,77.000000,0.000000,4224.102539,4374.358887,4135.384766,4094.358887,4217.436035,450.000000,3.000000,,,,0.000000,4.000000,4.000000,4.000000,4.000000,4.000000,,,,,,,,,,,,,,,,,,,,,,,,,
1577423002.369666,78.000000,0.000000,4215.897461,4362.563965,4131.794922,4086.153809,4203.589844,450.000000,3.000000,,,,0.000000,4.000000,4.000000,4.000000,4.000000,4.000000,,,,,,,,,,,,,,,,,,,,,,,,,
1577423002.377464,79.000000,0.000000,4186.153809,4332.307617,4119.487305,4082.051270,4178.461426,16194.000000,3.000000,,,,0.000000,4.000000,4.000000,4.000000,4.000000,4.000000,,,,,,,,,,,,,,,,,,,,,,,,,
1577423002.385161,80.000000,0.000000,4188.717773,4344.102539,4131.282227,4081.538574,4189.743652,450.000000,3.000000,,,,0.000000,4.000000,4.000000,4.000000,4.000000,4.000000,,,,,,,,,,,,,,,,,,,,,,,,,
1577423002.393058,81.000000,0.000000,4195.897461,4347.692383,4135.897461,4084.102539,4200.000000,450.000000,3.000000,,,,0.000000,4.000000,4.000000,4.000000,4.000000,4.000000,,,,,,,,,,,,,,,,,,,,,,,,,
1577423002.400855,82.000000,0.000000,4189.230957,4324.102539,4120.512695,4086.153809,4189.743652,450.000000,3.000000,,,,0.000000,4.000000,4.000000,4.000000,4.000000,4.000000,188.140137,32.408112,6.545013,6.302897,4.055814,1.781571,1.619277,0.579797,2.736103,2.215889,14.920721,3.989562,1.851154,4.002652,2.486516,3.286493,1.930915,1.696048,4.329789,2.834437,88.884659,14.175479,3.719110,6.140691,3.395455
1577423002.408752,83.000000,0.000000,4161.538574,4297.948730,4097.948730,4065.641113,4164.615234,16194.000000,3.000000,,,,0.000000,4.000000,4.000000,4.000000,4.000000,4.000000,,,,,,,,,,,,,,,,,,,,,,,,,
1577423002.416549,84.000000,0.000000,4174.871582,4311.282227,4113.846191,4084.615479,4176.410156,450.000000,3.000000,,,,0.000000,4.000000,4.000000,4.000000,4.000000,4.000000,,,,,,,,,,,,,,,,,,,,,,,,,
1577423002.424445,85.000000,0.000000,4225.128418,4331.282227,4152.307617,4128.717773,4228.205078,450.000000,3.000000,,,,0.000000,4.000000,4.000000,4.000000,4.000000,4.000000,,,,,,,,,,,,,,,,,,,,,,,,,
1577423002.432242,86.000000,0.000000,4208.717773,4301.025879,4141.025879,4124.615234,4230.769043,450.000000,3.000000,,,,0.000000,4.000000,4.000000,4.000000,4.000000,4.000000,,,,,,,,,,,,,,,,,,,,,,,,,
1577423002.440139,87.000000,0.000000,4180.512695,4286.153809,4118.461426,4106.666504,4206.666504,16194.000000,3.000000,,,,0.000000,4.000000,4.000000,4.000000,4.000000,4.000000,,,,,,,,,,,,,,,,,,,,,,,,,
1577423002.447936,88.000000,0.000000,4192.820313,4298.461426,4116.410156,4106.153809,4208.205078,450.000000,3.000000,,,,0.000000,4.000000,4.000000,4.000000,4.000000,4.000000,,,,,,,,,,,,,,,,,,,,,,,,,
1577423002.455633,89.000000,0.000000,4182.051270,4292.820313,4102.563965,4109.230957,4204.615234,450.000000,3.000000,,,,0.000000,4.000000,4.000000,4.000000,4.000000,4.000000,,,,,,,,,,,,,,,,,,,,,,,,,
1577423002.463531,90.000000,0.000000,4162.563965,4282.563965,4075.384521,4091.281982,4187.179688,450.000000,3.000000,,,,0.000000,4.000000,4.000000,4.000000,4.000000,4.000000,,,,,,,,,,,,,,,,,,,,,,,,,
1577423002.471328,91.000000,0.000000,4202.051270,4288.717773,4077.948730,4095.897461,4213.333496,16194.000000,3.000000,,,,0.000000,4.000000,4.000000,4.000000,4.000000,4.000000,,,,,,,,,,,,,,,,,,,,,,,,,
1577423002.479125,92.000000,0.000000,4251.282227,4303.077148,4102.051270,4142.563965,4260.512695,450.000000,3.000000,,,,0.000000,4.000000,4.000000,4.000000,4.000000,4.000000,,,,,,,,,,,,,,,,,,,,,,,,,
1577423002.486822,93.000000,0.000000,4226.153809,4277.948730,4063.076904,4125.128418,4239.487305,450.000000,3.000000,,,,0.000000,4.000000,4.000000,4.000000,4.000000,4.000000,,,,,,,,,,,,,,,,,,,,,,,,,
1577423002.494619,94.000000,0.000000,4181.025879,4244.615234,4004.102539,4076.410156,4201.538574,450.000000,3.000000,,,,0.000000,4.000000,4.000000,4.000000,4.000000,4.000000,,,,,,,,,,,,,,,,,,,,,,,,,
1577423002.502316,95.000000,0.000000,4185.641113,4252.820313,3989.743652,4077.435791,4202.051270,16194.000000,3.000000,,,,0.000000,4.000000,4.000000,4.000000,4.000000,4.000000,,,,,,,,,,,,,,,,,,,,,,,,,
1577423002.510113,96.000000,0.000000,4182.051270,4251.282227,3974.871826,4074.871826,4204.102539,450.000000,3.000000,,,,0.000000,4.000000,4.000000,4.000000,4.000000,4.000000,,,,,,,,,,,,,,,,,,,,,,,,,
1577423002.517810,97.000000,0.000000,4192.820313,4260.512695,3978.974365,4089.743652,4231.282227,450.000000,3.000000,,,,0.000000,4.000000,4.000000,4.000000,4.000000,4.000000,,,,,,,,,,,,,,,,,,,,,,,,,
1577423002.525607,98.000000,0.000000,4237.948730,4289.230957,3987.179443,4112.820313,4257.948730,450.000000,3.000000,,,,0.000000,4.000000,4.000000,4.000000,4.000000,4.000000,268.274078,42.908859,8.304730,6.817468,4.144965,1.777575,1.934882,0.643146,2.835066,2.224509,11.436074,4.417539,2.685285,3.933671,2.631334,3.798525,2.064758,2.400504,4.210326,2.927141,125.854546,18.782494,5.044577,6.335760,3.571909
1577423002.533305,99.000000,0.000000,4228.205078,4265.128418,3949.743652,4088.718018,4226.666504,16194.000000,3.000000,,,,0.000000,4.000000,4.000000,4.000000,4.000000,4.000000,,,,,,,,,,,,,,,,,,,,,,,,,
1577423002.541102,100.000000,0.000000,4196.922852,4231.794922,3922.564209,4068.205078,4209.230957,450.000000,3.000000,,,,0.000000,4.000000,4.000000,4.000000,4.000000,4.000000,,,,,,,,,,,,,,,,,,,,,,,,,
1577423002.548799,101.000000,0.000000,4206.666504,4251.282227,3918.974365,4076.410156,4227.692383,450.000000,3.000000,,,,0.000000,4.000000,4.000000,4.000000,4.000000,4.000000,,,,,,,,,,,,,,,,,,,,,,,,,
1577423002.556596,102.000000,0.000000,4229.230957,4277.436035,3924.102539,4102.051270,4238.974121,450.000000,3.000000,,,,0.000000,4.000000,4.000000,4.000000,4.000000,4.000000,,,,,,,,,,,,,,,,,,,,,,,,,
1577423002.564293,103.000000,0.000000,4223.077148,4267.692383,3927.692383,4095.384521,4229.743652,16194.000000,3.000000,,,,0.000000,4.000000,4.000000,4.000000,4.000000,4.000000,,,,,,,,,,,,,,,,,,,,,,,,,
1577423002.572090,104.000000,0.000000,4228.205078,4267.692383,3936.923096,4086.666748,4233.846191,450.000000,3.000000,,,,0.000000,4.000000,4.000000,4.000000,4.000000,4.000000,,,,,,,,,,,,,,,,,,,,,,,,,
1577423002.579787,105.000000,0.000000,4281.025879,4301.538574,3970.256348,4131.794922,4277.948730,450.000000,3.000000,,,,0.000000,4.000000,4.000000,4.000000,4.000000,4.000000,,,,,,,,,,,,,,,,,,,,,,,,,
1577423002.587684,106.000000,0.000000,4290.256348,4294.358887,3962.051270,4126.666504,4278.974121,450.000000,3.000000,,,,0.000000,4.000000,4.000000,4.000000,4.000000,4.000000,,,,,,,,,,,,,,,,,,,,,,,,,
1577423002.595481,107.000000,0.000000,4248.717773,4261.538574,3920.512939,4083.076904,4237.436035,16194.000000,3.000000,,,,0.000000,4.000000,4.000000,4.000000,4.000000,4.000000,,,,,,,,,,,,,,,,,,,,,,,,,
