title:d2, start timestamp:2019-12-27T08:04:23.005590+03:00, stop timestamp:2019-12-27T08:04:52.590652+03:00, headset type:INSIGHT, headset serial:A2D200FB, headset firmware:930, subject name:Qasim, channels:44, sampling rate:eeg_128;pow_8, samples:3798      , version:2.0
Timestamp,EEG.Counter,EEG.Interpolated,EEG.AF3,EEG.T7,EEG.Pz,EEG.T8,EEG.AF4,EEG.RawCq,EEG.Battery,MarkerIndex,MarkerType,MarkerValueInt,EEG.MarkerHardware,CQ.AF3,CQ.T7,CQ.Pz,CQ.T8,CQ.AF4,POW.AF3.Theta,POW.AF3.Alpha,POW.AF3.BetaL,POW.AF3.BetaH,POW.AF3.Gamma,POW.T7.Theta,POW.T7.Alpha,POW.T7.BetaL,POW.T7.BetaH,POW.T7.Gamma,POW.Pz.Theta,POW.Pz.Alpha,POW.Pz.BetaL,POW.Pz.BetaH,POW.Pz.Gamma,POW.T8.Theta,POW.T8.Alpha,POW.T8.BetaL,POW.T8.BetaH,POW.T8.Gamma,POW.AF4.Theta,POW.AF4.Alpha,POW.AF4.BetaL,POW.AF4.BetaH,POW.AF4.Gamma
1577423063.005590,126.000000,0.000000,3918.461426,4003.589844,3912.820557,4122.563965,4027.692383,450.000000,3.000000,,,,0.000000,4.000000,4.000000,4.000000,4.000000,4.000000,,,,,,,,,,,,,,,,,,,,,,,,,
1577423063.013296,127.000000,0.000000,4311.282227,4350.769043,4291.282227,4336.922852,4329.230957,233.000000,3.000000,,,,0.000000,4.000000,4.000000,4.000000,4.000000,4.000000,,,,,,,,,,,,,,,,,,,,,,,,,
1577423063.021102,0.000000,0.000000,4138.974121,4180.512695,4140.512695,3946.153809,4063.076904,450.000000,3.000000,,,,0.000000,4.000000,4.000000,4.000000,4.000000,4.000000,,,,,,,,,,,,,,,,,,,,,,,,,
1577423063.028807,1.000000,0.000000,3993.333252,4072.820557,3994.871826,4050.769287,4038.974365,450.000000,3.000000,,,,0.000000,4.000000,4.000000,4.000000,4.000000,4.000000,,,,,,,,,,,,,,,,,,,,,,,,,
1577423063.036613,2.000000,0.000000,4247.179688,4287.179688,4224.102539,4277.436035,4278.461426,16289.000000,3.000000,,,,0.000000,4.000000,4.000000,4.000000,4.000000,4.000000,,,,,,,,,,,,,,,,,,,,,,,,,
1577423063.044318,3.000000,0.000000,4118.974121,4175.897461,4110.256348,4049.230713,4110.769043,450.000000,3.000000,,,,0.000000,4.000000,4.000000,4.000000,4.000000,4.000000,,,,,,,,,,,,,,,,,,,,,,,,,
1577423063.052122,4.000000,0.000000,4137.436035,4192.307617,4125.128418,4136.922852,4168.717773,16250.000000,3.000000,,,,0.000000,4.000000,4.000000,4.000000,4.000000,4.000000,,,,,,,,,,,,,,,,,,,,,,,,,
1577423063.059827,5.000000,0.000000,4172.307617,4201.538574,4156.410156,4143.589844,4182.051270,450.000000,3.000000,,,,0.000000,4.000000,4.000000,4.000000,4.000000,4.000000,363.818909,64.362961,12.648904,3.413479,3.689087,17.706177,4.266904,0.907938,1.581459,2.533283,25.260740,10.793043,2.603375,1.515955,3.191733,4.231054,3.973807,1.714895,2.279153,4.374720,127.581253,32.472263,4.644781,1.936776,3.325943
1577423063.067631,6.000000,0.000000,4104.615234,4148.205078,4098.974121,4091.794922,4123.589844,16201.000000,3.000000,,,,0.000000,4.000000,4.000000,4.000000,4.000000,4.000000,,,,,,,,,,,,,,,,,,,,,,,,,
1577423063.075336,7.000000,0.000000,4161.538574,4213.846191,4159.487305,4149.743652,4186.153809,450.000000,3.000000,,,,0.000000,4.000000,4.000000,4.000000,4.000000,4.000000,,,,,,,,,,,,,,,,,,,,,,,,,
1577423063.083140,8.000000,0.000000,4143.589844,4214.358887,4156.410156,4117.436035,4157.436035,450.000000,3.000000,,,,0.000000,4.000000,4.000000,4.000000,4.000000,4.000000,,,,,,,,,,,,,,,,,,,,,,,,,
1577423063.090843,9.000000,0.000000,4146.153809,4221.538574,4163.589844,4130.769043,4164.102539,16180.000000,3.000000,,,,0.000000,4.000000,4.000000,4.000000,4.000000,4.000000,,,,,,,,,,,,,,,,,,,,,,,,,
1577423063.098647,10.000000,0.000000,4182.563965,4260.000000,4200.512695,4157.948730,4196.922852,450.000000,3.000000,,,,0.000000,4.000000,4.000000,4.000000,4.000000,4.000000,,,,,,,,,,,,,,,,,,,,,,,,,
1577423063.106351,11.000000,0.000000,4201.025879,4281.538574,4225.128418,4160.512695,4210.769043,16255.000000,3.000000,,,,0.000000,4.000000,4.000000,4.000000,4.000000,4.000000,,,,,,,,,,,,,,,,,,,,,,,,,
1577423063.114154,12.000000,0.000000,4209.230957,4269.230957,4234.358887,4163.077148,4216.922852,450.000000,3.000000,,,,0.000000,4.000000,4.000000,4.000000,4.000000,4.000000,,,,,,,,,,,,,,,,,,,,,,,,,
1577423063.121857,13.000000,0.000000,4186.153809,4238.461426,4220.000000,4148.717773,4195.384766,450.000000,3.000000,,,,0.000000,4.000000,4.000000,4.000000,4.000000,4.000000,,,,,,,,,,,,,,,,,,,,,,,,,
1577423063.129660,14.000000,0.000000,4168.717773,4240.000000,4219.487305,4137.948730,4188.205078,450.000000,3.000000,,,,0.000000,4.000000,4.000000,4.000000,4.000000,4.000000,,,,,,,,,,,,,,,,,,,,,,,,,
1577423063.137363,15.000000,0.000000,4165.128418,4255.384766,4222.051270,4136.922852,4188.717773,16255.000000,3.000000,,,,0.000000,4.000000,4.000000,4.000000,4.000000,4.000000,,,,,,,,,,,,,,,,,,,,,,,,,
1577423063.145165,16.000000,0.000000,4150.769043,4248.717773,4208.717773,4123.077148,4170.256348,0.000000,3.000000,,,,0.000000,4.000000,4.000000,4.000000,4.000000,4.000000,,,,,,,,,,,,,,,,,,,,,,,,,
1577423063.152868,17.000000,0.000000,4163.077148,4248.717773,4224.102539,4127.692383,4179.487305,0.000000,3.000000,,,,0.000000,4.000000,4.000000,4.000000,4.000000,4.000000,,,,,,,,,,,,,,,,,,,,,,,,,
1577423063.160670,18.000000,0.000000,4174.358887,4245.641113,4240.512695,4137.436035,4192.820313,0.000000,3.000000,,,,0.000000,4.000000,4.000000,4.000000,4.000000,4.000000,,,,,,,,,,,,,,,,,,,,,,,,,
1577423063.168372,19.000000,0.000000,4160.512695,4236.922852,4229.230957,4133.846191,4189.230957,0.000000,3.000000,,,,0.000000,4.000000,4.000000,4.000000,4.000000,4.000000,,,,,,,,,,,,,,,,,,,,,,,,,
1577423063.176174,20.000000,0.000000,4157.948730,4244.102539,4230.256348,4135.897461,4190.256348,0.000000,3.000000,,,,0.000000,4.000000,4.000000,4.000000,4.000000,4.000000,,,,,,,,,,,,,,,,,,,,,,,,,
1577423063.183876,21.000000,0.000000,4160.000000,4244.102539,4232.307617,4136.410156,4186.666504,0.000000,3.000000,,,,0.000000,4.000000,4.000000,4.000000,4.000000,4.000000,545.387085,81.467499,13.768234,4.213977,1.840997,16.062557,4.025688,0.865003,1.676684,1.207592,30.616760,10.757396,2.399595,1.539071,1.573818,5.281573,3.757424,1.446343,2.073300,2.098513,192.245926,34.778973,4.443597,2.201931,1.612605
1577423063.191582,22.000000,0.000000,4170.256348,4240.000000,4222.051270,4139.487305,4192.307617,0.000000,3.000000,,,,0.000000,4.000000,4.000000,4.000000,4.000000,4.000000,,,,,,,,,,,,,,,,,,,,,,,,,
1577423063.199388,23.000000,0.000000,4176.410156,4234.358887,4202.563965,4142.563965,4188.205078,0.000000,3.000000,,,,0.000000,4.000000,4.000000,4.000000,4.000000,4.000000,,,,,,,,,,,,,,,,,,,,,,,,,
1577423063.207193,24.000000,0.000000,4174.358887,4237.436035,4190.769043,4148.205078,4179.487305,0.000000,3.000000,,,,0.000000,4.000000,4.000000,4.000000,4.000000,4.000000,,,,,,,,,,,,,,,,,,,,,,,,,
1577423063.214894,25.000000,0.000000,4177.436035,4249.743652,4191.282227,4144.615234,4180.000000,0.000000,3.000000,,,,0.000000,4.000000,4.000000,4.000000,4.000000,4.000000,,,,,,,,,,,,,,,,,,,,,,,,,
1577423063.222695,26.000000,0.000000,4163.077148,4235.897461,4170.769043,4121.538574,4165.128418,0.000000,3.000000,,,,0.000000,4.000000,4.000000,4.000000,4.000000,4.000000,,,,,,,,,,,,,,,,,,,,,,,,,
1577423063.230396,27.000000,0.000000,4156.410156,4227.692383,4152.307617,4115.897461,4162.563965,0.000000,3.000000,,,,0.000000,4.000000,4.000000,4.000000,4.000000,4.000000,,,,,,,,,,,,,,,,,,,,,,,,,
1577423063.238196,28.000000,0.000000,4160.512695,4235.897461,4149.743652,4121.025879,4170.256348,0.000000,3.000000,,,,0.000000,4.000000,4.000000,4.000000,4.000000,4.000000,,,,,,,,,,,,,,,,,,,,,,,,,
1577423063.245896,29.000000,0.000000,4157.948730,4236.922852,4151.282227,4124.102539,4178.461426,0.000000,3.000000,,,,0.000000,4.000000,4.000000,4.000000,4.000000,4.000000,,,,,,,,,,,,,,,,,,,,,,,,,
1577423063.253696,30.000000,0.000000,4181.538574,4247.179688,4169.230957,4143.589844,4205.128418,0.000000,3.000000,,,,0.000000,4.000000,4.000000,4.000000,4.000000,4.000000,,,,,,,,,,,,,,,,,,,,,,,,,
1577423063.261396,31.000000,0.000000,4215.897461,4262.563965,4183.589844,4164.102539,4228.717773,0.000000,3.000000,,,,0.000000,4.000000,4.000000,4.000000,4.000000,4.000000,,,,,,,,,,,,,,,,,,,,,,,,,
1577423063.269195,32.000000,0.000000,4238.461426,4271.794922,4192.307617,4178.974121,4242.563965,0.000000,3.000000,,,,0.000000,4.000000,4.000000,4.000000,4.000000,4.000000,,,,,,,,,,,,,,,,,,,,,,,,,
1577423063.276895,33.000000,0.000000,4232.820313,4266.666504,4185.128418,4177.436035,4232.307617,0.000000,3.000000,,,,0.000000,4.000000,4.000000,4.000000,4.000000,4.000000,,,,,,,,,,,,,,,,,,,,,,,,,
1577423063.284598,34.000000,0.000000,4211.282227,4252.820313,4167.179688,4161.025879,4211.794922,0.000000,3.000000,,,,0.000000,4.000000,4.000000,4.000000,4.000000,4.000000,,,,,,,,,,,,,,,,,,,,,,,,,
1577423063.292402,35.000000,0.000000,4207.692383,4247.179688,4166.666504,4155.384766,4210.769043,0.000000,3.000000,,,,0.000000,4.000000,4.000000,4.000000,4.000000,4.000000,,,,,,,,,,,,,,,,,,,,,,,,,
1577423063.300105,36.000000,0.000000,4201.538574,4237.948730,4157.948730,4142.051270,4203.589844,0.000000,3.000000,,,,0.000000,4.000000,4.000000,4.000000,4.000000,4.000000,,,,,,,,,,,,,,,,,,,,,,,,,
1577423063.307908,37.000000,0.000000,4196.922852,4236.410156,4147.692383,4129.230957,4196.922852,0.000000,3.000000,,,,0.000000,4.000000,4.000000,4.000000,4.000000,4.000000,758.974548,100.444427,16.299131,5.132527,1.696564,13.417659,3.618909,1.171100,1.721562,1.149940,37.551327,10.179321,2.451669,1.596502,1.440749,6.459240,3.406841,1.431950,1.922879,1.668839,260.561798,37.687695,4.992211,2.456806,1.395126
1577423063.315611,38.000000,0.000000,4198.461426,4236.922852,4156.410156,4131.282227,4192.820313,0.000000,3.000000,,,,0.000000,4.000000,4.000000,4.000000,4.000000,4.000000,,,,,,,,,,,,,,,,,,,,,,,,,
1577423063.323414,39.000000,0.000000,4191.794922,4235.384766,4157.948730,4124.615234,4187.179688,0.000000,3.000000,,,,0.000000,4.000000,4.000000,4.000000,4.000000,4.000000,,,,,,,,,,,,,,,,,,,,,,,,,
1577423063.331116,40.000000,0.000000,4196.410156,4250.769043,4162.051270,4118.974121,4195.897461,0.000000,3.000000,,,,0.000000,4.000000,4.000000,4.000000,4.000000,4.000000,,,,,,,,,,,,,,,,,,,,,,,,,
1577423063.338918,41.000000,0.000000,4196.410156,4250.256348,4166.666504,4115.897461,4193.333496,0.000000,3.000000,,,,0.000000,4.000000,4.000000,4.000000,4.000000,4.000000,,,,,,,,,,,,,,,,,,,,,,,,,
1577423063.346621,42.000000,0.000000,4189.743652,4241.538574,4169.743652,4123.077148,4185.128418,0.000000,3.000000,,,,0.000000,4.000000,4.000000,4.000000,4.000000,4.000000,,,,,,,,,,,,,,,,,,,,,,,,,
1577423063.354423,43.000000,0.000000,4204.102539,4254.871582,4182.563965,4144.102539,4199.487305,0.000000,3.000000,,,,0.000000,4.000000,4.000000,4.000000,4.000000,4.000000,,,,,,,,,,,,,,,,,,,,,,,,,
1577423063.362126,44.000000,0.000000,4218.461426,4253.333496,4185.641113,4150.256348,4214.871582,0.000000,3.000000,,,,0.000000,4.000000,4.000000,4.000000,4.000000,4.000000,,,,,,,,,,,,,,,,,,,,,,,,,
1577423063.369928,45.000000,0.000000,4220.512695,4240.512695,4185.128418,4155.384766,4215.384766,0.000000,3.000000,,,,0.000000,4.000000,4.000000,4.000000,4.000000,4.000000,,,,,,,,,,,,,,,,,,,,,,,,,
1577423063.377630,46.000000,0.000000,4223.589844,4249.230957,4195.384766,4169.743652,4214.358887,0.000000,3.000000,,,,0.000000,4.000000,4.000000,4.000000,4.000000,4.000000,,,,,,,,,,,,,,,,,,,,,,,,,
1577423063.385432,47.000000,0.000000,4231.282227,4260.000000,4205.128418,4176.410156,4228.717773,0.000000,3.000000,,,,0.000000,4.000000,4.000000,4.000000,4.000000,4.000000,,,,,,,,,,,,,,,,,,,,,,,,,
1577423063.393133,48.000000,0.000000,4226.666504,4249.230957,4203.589844,4169.743652,4226.153809,0.000000,3.000000,,,,0.000000,4.000000,4.000000,4.000000,4.000000,4.000000,,,,,,,,,,,,,,,,,,,,,,,,,
1577423063.400934,49.000000,0.000000,4198.461426,4230.256348,4182.051270,4146.153809,4196.922852,0.000000,3.000000,,,,0.000000,4.000000,4.000000,4.000000,4.000000,4.000000,,,,,,,,,,,,,,,,,,,,,,,,,
1577423063.408636,50.000000,0.000000,4193.333496,4233.846191,4172.820313,4142.563965,4195.384766,0.000000,3.000000,,,,0.000000,4.000000,4.000000,4.000000,4.000000,4.000000,,,,,,,,,,,,,,,,,,,,,,,,,
1577423063.416437,51.000000,0.000000,4194.871582,4227.179688,4169.230957,4141.538574,4195.384766,0.000000,3.000000,,,,0.000000,4.000000,4.000000,4.000000,4.000000,4.000000,,,,,,,,,,,,,,,,,,,,,,,,,
1577423063.424138,52.000000,0.000000,4165.128418,4196.922852,4140.000000,4112.820313,4167.179688,0.000000,3.000000,,,,0.000000,4.000000,4.000000,4.000000,4.000000,4.000000,,,,,,,,,,,,,,,,,,,,,,,,,
1577423063.431843,53.000000,0.000000,4168.205078,4217.436035,4140.512695,4124.102539,4172.307617,0.000000,3.000000,,,,0.000000,4.000000,4.000000,4.000000,4.000000,4.000000,942.796021,114.575195,19.167114,5.844556,3.328269,10.838141,3.116131,1.838912,1.711480,2.484312,45.558010,9.199330,2.821477,1.695674,2.837989,7.354934,2.986002,1.605026,1.889527,3.108113,312.404724,39.484882,5.981230,2.590175,2.635726
1577423063.439648,54.000000,0.000000,4202.051270,4247.179688,4157.436035,4155.384766,4196.410156,0.000000,3.000000,,,,0.000000,4.000000,4.000000,4.000000,4.000000,4.000000,,,,,,,,,,,,,,,,,,,,,,,,,
1577423063.447352,55.000000,0.000000,4200.000000,4215.897461,4147.692383,4155.897461,4200.512695,0.000000,3.000000,,,,0.000000,4.000000,4.000000,4.000000,4.000000,4.000000,,,,,,,,,,,,,,,,,,,,,,,,,
1577423063.455157,56.000000,0.000000,4175.897461,4184.615234,4128.205078,4146.153809,4182.563965,0.000000,3.000000,,,,0.000000,4.000000,4.000000,4.000000,4.000000,4.000000,,,,,,,,,,,,,,,,,,,,,,,,,
1577423063.462861,57.000000,0.000000,4175.897461,4192.820313,4110.769043,4142.051270,4170.769043,0.000000,3.000000,,,,0.000000,4.000000,4.000000,4.000000,4.000000,4.000000,,,,,,,,,,,,,,,,,,,,,,,,,
1577423063.470665,58.000000,0.000000,4195.897461,4205.128418,4104.615234,4148.717773,4187.692383,0.000000,3.000000,,,,0.000000,4.000000,4.000000,4.000000,4.000000,4.000000,,,,,,,,,,,,,,,,,,,,,,,,,
1577423063.478369,59.000000,0.000000,4196.922852,4198.974121,4100.000000,4145.641113,4191.794922,0.000000,3.000000,,,,0.000000,4.000000,4.000000,4.000000,4.000000,4.000000,,,,,,,,,,,,,,,,,,,,,,,,,
1577423063.486173,60.000000,0.000000,4188.717773,4195.897461,4095.897461,4135.897461,4186.666504,0.000000,3.000000,,,,0.000000,4.000000,4.000000,4.000000,4.000000,4.000000,,,,,,,,,,,,,,,,,,,,,,,,,
1577423063.493877,61.000000,0.000000,4190.256348,4200.000000,4102.051270,4140.512695,4190.256348,0.000000,3.000000,,,,0.000000,4.000000,4.000000,4.000000,4.000000,4.000000,,,,,,,,,,,,,,,,,,,,,,,,,
1577423063.501680,62.000000,0.000000,4189.743652,4200.000000,4106.153809,4148.717773,4188.205078,0.000000,3.000000,,,,0.000000,4.000000,4.000000,4.000000,4.000000,4.000000,,,,,,,,,,,,,,,,,,,,,,,,,
1577423063.509383,63.000000,0.000000,4196.922852,4209.743652,4111.794922,4161.538574,4197.436035,0.000000,3.000000,,,,0.000000,4.000000,4.000000,4.000000,4.000000,4.000000,,,,,,,,,,,,,,,,,,,,,,,,,
1577423063.517186,64.000000,0.000000,4211.282227,4223.077148,4125.641113,4170.769043,4204.615234,450.000000,3.000000,,,,0.000000,4.000000,4.000000,4.000000,4.000000,4.000000,,,,,,,,,,,,,,,,,,,,,,,,,
1577423063.524889,65.000000,0.000000,4209.230957,4215.897461,4128.717773,4162.563965,4189.743652,450.000000,3.000000,,,,0.000000,4.000000,4.000000,4.000000,4.000000,4.000000,,,,,,,,,,,,,,,,,,,,,,,,,
1577423063.532692,66.000000,0.000000,4211.794922,4205.641113,4128.717773,4164.102539,4192.820313,16254.000000,3.000000,,,,0.000000,4.000000,4.000000,4.000000,4.000000,4.000000,,,,,,,,,,,,,,,,,,,,,,,,,
1577423063.540395,67.000000,0.000000,4225.128418,4211.794922,4134.358887,4177.948730,4209.230957,450.000000,3.000000,,,,0.000000,4.000000,4.000000,4.000000,4.000000,4.000000,,,,,,,,,,,,,,,,,,,,,,,,,
1577423063.548197,68.000000,0.000000,4226.666504,4225.128418,4134.871582,4181.538574,4211.794922,16205.000000,3.000000,,,,0.000000,4.000000,4.000000,4.000000,4.000000,4.000000,,,,,,,,,,,,,,,,,,,,,,,,,
1577423063.555899,69.000000,0.000000,4226.153809,4226.666504,4144.615234,4183.589844,4210.256348,450.000000,3.000000,,,,0.000000,4.000000,4.000000,4.000000,4.000000,4.000000,1027.659058,117.554855,21.100243,6.096944,6.452860,9.013043,2.609310,2.812080,1.678054,5.046488,53.068615,8.028275,3.502191,1.837867,5.519984,7.668393,2.633623,1.874134,1.991531,6.105339,329.161469,38.398998,7.022772,2.527554,5.037776
1577423063.563702,70.000000,0.000000,4229.230957,4212.820313,4152.820313,4183.077148,4212.307617,16157.000000,3.000000,,,,0.000000,4.000000,4.000000,4.000000,4.000000,4.000000,,,,,,,,,,,,,,,,,,,,,,,,,
1577423063.571404,71.000000,0.000000,4233.846191,4213.846191,4143.077148,4178.461426,4219.487305,450.000000,3.000000,,,,0.000000,4.000000,4.000000,4.000000,4.000000,4.000000,,,,,,,,,,,,,,,,,,,,,,,,,
1577423063.579205,72.000000,0.000000,4215.384766,4211.794922,4125.641113,4168.205078,4200.512695,450.000000,3.000000,,,,0.000000,4.000000,4.000000,4.000000,4.000000,4.000000,,,,,,,,,,,,,,,,,,,,,,,,,
1577423063.586906,73.000000,0.000000,4186.666504,4195.897461,4115.897461,4154.358887,4176.922852,16172.000000,3.000000,,,,0.000000,4.000000,4.000000,4.000000,4.000000,4.000000,,,,,,,,,,,,,,,,,,,,,,,,,
1577423063.594708,74.000000,0.000000,4190.769043,4198.974121,4121.025879,4157.436035,4188.205078,450.000000,3.000000,,,,0.000000,4.000000,4.000000,4.000000,4.000000,4.000000,,,,,,,,,,,,,,,,,,,,,,,,,
1577423063.602408,75.000000,0.000000,4201.538574,4207.692383,4116.922852,4162.051270,4200.512695,16213.000000,3.000000,,,,0.000000,4.000000,4.000000,4.000000,4.000000,4.000000,,,,,,,,,,,,,,,,,,,,,,,,,
1577423063.610113,76.000000,0.000000,4200.000000,4215.384766,4106.666504,4157.436035,4197.436035,450.000000,3.000000,,,,0.000000,4.000000,4.000000,4.000000,4.000000,4.000000,,,,,,,,,,,,,,,,,,,,,,,,,
1577423063.617918,77.000000,0.000000,4186.153809,4213.333496,4098.974121,4154.871582,4182.563965,450.000000,3.000000,,,,0.000000,4.000000,4.000000,4.000000,4.000000,4.000000,,,,,,,,,,,,,,,,,,,,,,,,,
1577423063.625623,78.000000,0.000000,4182.051270,4204.615234,4097.948730,4166.666504,4179.487305,450.000000,3.000000,,,,0.000000,4.000000,4.000000,4.000000,4.000000,4.000000,,,,,,,,,,,,,,,,,,,,,,,,,
1577423063.633428,79.000000,0.000000,4195.897461,4213.846191,4113.333496,4180.512695,4191.794922,16213.000000,3.000000,,,,0.000000,4.000000,4.000000,4.000000,4.000000,4.000000,,,,,,,,,,,,,,,,,,,,,,,,,
1577423063.641232,80.000000,0.000000,4184.102539,4221.025879,4115.897461,4167.179688,4181.025879,450.000000,3.000000,,,,0.000000,4.000000,4.000000,4.000000,4.000000,4.000000,,,,,,,,,,,,,,,,,,,,,,,,,
1577423063.648932,81.000000,0.000000,4157.436035,4205.128418,4103.589844,4146.153809,4159.487305,450.000000,3.000000,,,,0.000000,4.000000,4.000000,4.000000,4.000000,4.000000,,,,,,,,,,,,,,,,,,,,,,,,,
1577423063.656732,82.000000,0.000000,4150.769043,4192.820313,4105.128418,4144.615234,4153.846191,450.000000,3.000000,,,,0.000000,4.000000,4.000000,4.000000,4.000000,4.000000,,,,,,,,,,,,,,,,,,,,,,,,,
1577423063.664431,83.000000,0.000000,4155.897461,4201.025879,4117.436035,4152.820313,4157.436035,16213.000000,3.000000,,,,0.000000,4.000000,4.000000,4.000000,4.000000,4.000000,,,,,,,,,,,,,,,,,,,,,,,,,
1577423063.672231,84.000000,0.000000,4152.820313,4203.589844,4123.077148,4148.205078,4150.769043,450.000000,3.000000,,,,0.000000,4.000000,4.000000,4.000000,4.000000,4.000000,,,,,,,,,,,,,,,,,,,,,,,,,
1577423063.679930,85.000000,0.000000,4142.563965,4194.871582,4122.563965,4140.000000,4142.563965,450.000000,3.000000,,,,0.000000,4.000000,4.000000,4.000000,4.000000,4.000000,978.211182,106.905106,21.319286,5.839035,10.449450,8.380845,2.187681,3.910204,1.667794,8.355330,58.294319,6.884735,4.378397,2.008288,8.966127,7.365906,2.599059,2.175386,2.194502,10.067305,303.850555,33.783375,7.820117,2.276442,8.114080
1577423063.687730,86.000000,0.000000,4159.487305,4212.307617,4142.563965,4157.948730,4163.077148,450.000000,3.000000,,,,0.000000,4.000000,4.000000,4.000000,4.000000,4.000000,,,,,,,,,,,,,,,,,,,,,,,,,
1577423063.695429,87.000000,0.000000,4184.102539,4240.000000,4158.461426,4176.922852,4182.563965,16213.000000,3.000000,,,,0.000000,4.000000,4.000000,4.000000,4.000000,4.000000,,,,,,,,,,,,,,,,,,,,,,,,,
1577423063.703132,88.000000,0.000000,4163.077148,4229.743652,4138.461426,4154.358887,4161.025879,450.000000,3.000000,,,,0.000000,4.000000,4.000000,4.000000,4.000000,4.000000,,,,,,,,,,,,,,,,,,,,,,,,,
1577423063.710935,89.000000,0.000000,4147.179688,4221.538574,4129.743652,4133.846191,4141.025879,450.000000,3.000000,,,,0.000000,4.000000,4.000000,4.000000,4.000000,4.000000,,,,,,,,,,,,,,,,,,,,,,,,,
1577423063.718738,90.000000,0.000000,4160.512695,4233.333496,4142.563965,4140.000000,4144.615234,450.000000,3.000000,,,,0.000000,4.000000,4.000000,4.000000,4.000000,4.000000,,,,,,,,,,,,,,,,,,,,,,,,,
1577423063.726436,91.000000,0.000000,4168.717773,4243.589844,4157.436035,4152.307617,4157.948730,16213.000000,3.000000,,,,0.000000,4.000000,4.000000,4.000000,4.000000,4.000000,,,,,,,,,,,,,,,,,,,,,,,,,
1577423063.734138,92.000000,0.000000,4173.846191,4254.358887,4173.846191,4162.563965,4165.128418,450.000000,3.000000,,,,0.000000,4.000000,4.000000,4.000000,4.000000,4.000000,,,,,,,,,,,,,,,,,,,,,,,,,
1577423063.741844,93.000000,0.000000,4164.615234,4249.230957,4165.641113,4149.743652,4147.179688,450.000000,3.000000,,,,0.000000,4.000000,4.000000,4.000000,4.000000,4.000000,,,,,,,,,,,,,,,,,,,,,,,,,
1577423063.749650,94.000000,0.000000,4161.538574,4251.282227,4162.563965,4147.179688,4143.077148,450.000000,3.000000,,,,0.000000,4.000000,4.000000,4.000000,4.000000,4.000000,,,,,,,,,,,,,,,,,,,,,,,,,
1577423063.757456,95.000000,0.000000,4173.846191,4265.128418,4179.487305,4162.051270,4154.871582,16213.000000,3.000000,,,,0.000000,4.000000,4.000000,4.000000,4.000000,4.000000,,,,,,,,,,,,,,,,,,,,,,,,,
1577423063.765158,96.000000,0.000000,4163.077148,4257.948730,4174.358887,4154.871582,4145.128418,450.000000,3.000000,,,,0.000000,4.000000,4.000000,4.000000,4.000000,4.000000,,,,,,,,,,,,,,,,,,,,,,,,,
1577423063.772959,97.000000,0.000000,4153.333496,4245.641113,4169.743652,4150.769043,4142.563965,450.000000,3.000000,,,,0.000000,4.000000,4.000000,4.000000,4.000000,4.000000,,,,,,,,,,,,,,,,,,,,,,,,,
1577423063.780660,98.000000,0.000000,4172.307617,4241.538574,4177.436035,4160.512695,4159.487305,450.000000,3.000000,,,,0.000000,4.000000,4.000000,4.000000,4.000000,4.000000,,,,,,,,,,,,,,,,,,,,,,,,,
1577423063.788461,99.000000,0.000000,4193.333496,4243.589844,4180.512695,4170.256348,4169.743652,16213.000000,3.000000,,,,0.000000,4.000000,4.000000,4.000000,4.000000,4.000000,,,,,,,,,,,,,,,,,,,,,,,,,
1577423063.796162,100.000000,0.000000,4192.820313,4243.077148,4180.512695,4169.743652,4165.128418,450.000000,3.000000,,,,0.000000,4.000000,4.000000,4.000000,4.000000,4.000000,,,,,,,,,,,,,,,,,,,,,,,,,
1577423063.803963,101.000000,0.000000,4170.769043,4229.743652,4169.743652,4148.717773,4145.641113,450.000000,3.000000,,,,0.000000,4.000000,4.000000,4.000000,4.000000,4.000000,811.046692,85.693390,19.653162,5.213827,14.253084,8.381079,1.942304,4.832254,1.697220,11.536788,59.971603,5.964564,5.221327,2.153984,12.258989,6.714633,3.074245,2.449955,2.412587,13.956643,245.059067,26.708147,8.160348,1.925505,11.062312
1577423063.811663,102.000000,0.000000,4155.384766,4218.974121,4154.871582,4134.358887,4126.666504,450.000000,3.000000,,,,0.000000,4.000000,4.000000,4.000000,4.000000,4.000000,,,,,,,,,,,,,,,,,,,,,,,,,
1577423063.819463,103.000000,0.000000,4153.333496,4217.948730,4148.717773,4134.871582,4122.563965,16213.000000,3.000000,,,,0.000000,4.000000,4.000000,4.000000,4.000000,4.000000,,,,,,,,,,,,,,,,,,,,,,,,,
1577423063.827164,104.000000,0.000000,4149.230957,4216.410156,4142.563965,4136.410156,4126.666504,450.000000,3.000000,,,,0.000000,4.000000,4.000000,4.000000,4.000000,4.000000,,,,,,,,,,,,,,,,,,,,,,,,,
1577423063.834964,105.000000,0.000000,4147.692383,4212.307617,4132.307617,4134.358887,4127.692383,450.000000,3.000000,,,,0.000000,4.000000,4.000000,4.000000,4.000000,4.000000,,,,,,,,,,,,,,,,,,,,,,,,,
1577423063.842663,106.000000,0.000000,4150.256348,4205.641113,4124.102539,4135.897461,4134.358887,450.000000,3.000000,,,,0.000000,4.000000,4.000000,4.000000,4.000000,4.000000,,,,,,,,,,,,,,,,,,,,,,,,,
1577423063.850463,107.000000,0.000000,4150.769043,4211.282227,4124.615234,4143.589844,4141.538574,16213.000000,3.000000,,,,0.000000,4.000000,4.000000,4.000000,4.000000,4.000000,,,,,,,,,,,,,,,,,,,,,,,,,
1577423063.858162,108.000000,0.000000,4147.692383,4224.102539,4114.871582,4135.384766,4129.743652,450.000000,3.000000,,,,0.000000,4.000000,4.000000,4.000000,4.000000,4.000000,,,,,,,,,,,,,,,,,,,,,,,,,
1577423063.865866,109.000000,0.000000,4145.641113,4217.436035,4097.948730,4121.025879,4129.230957,450.000000,3.000000,,,,0.000000,4.000000,4.000000,4.000000,4.000000,4.000000,,,,,,,,,,,,,,,,,,,,,,,,,
1577423063.873670,110.000000,0.000000,4155.384766,4213.333496,4105.641113,4127.692383,4147.692383,450.000000,3.000000,,,,0.000000,4.000000,4.000000,4.000000,4.000000,4.000000,,,,,,,,,,,,,,,,,,,,,,,,,
1577423063.881374,111.000000,0.000000,4170.769043,4234.358887,4123.077148,4145.128418,4157.436035,16213.000000,3.000000,,,,0.000000,4.000000,4.000000,4.000000,4.000000,4.000000,,,,,,,,,,,,,,,,,,,,,,,,,
1577423063.889178,112.000000,0.000000,4183.589844,4256.922852,4131.794922,4166.153809,4168.717773,450.000000,3.000000,,,,0.000000,4.000000,4.000000,4.000000,4.000000,4.000000,,,,,,,,,,,,,,,,,,,,,,,,,
1577423063.896880,113.000000,0.000000,4178.461426,4247.692383,4132.307617,4167.179688,4163.077148,450.000000,3.000000,,,,0.000000,4.000000,4.000000,4.000000,4.000000,4.000000,,,,,,,,,,,,,,,,,,,,,,,,,
1577423063.904683,114.000000,0.000000,4175.897461,4241.025879,4142.051270,4166.666504,4163.077148,450.000000,3.000000,,,,0.000000,4.000000,4.000000,4.000000,4.000000,4.000000,,,,,,,,,,,,,,,,,,,,,,,,,
1577423063.912386,115.000000,0.000000,4202.563965,4272.307617,4166.153809,4189.743652,4194.358887,16213.000000,3.000000,,,,0.000000,4.000000,4.000000,4.000000,4.000000,4.000000,,,,,,,,,,,,,,,,,,,,,,,,,
1577423063.920188,116.000000,0.000000,4217.436035,4283.589844,4172.820313,4195.384766,4202.051270,450.000000,3.000000,,,,0.000000,4.000000,4.000000,4.000000,4.000000,4.000000,,,,,,,,,,,,,,,,,,,,,,,,,
1577423063.927890,117.000000,0.000000,4212.307617,4264.102539,4170.256348,4180.000000,4187.692383,450.000000,3.000000,,,,0.000000,4.000000,4.000000,4.000000,4.000000,4.000000,587.003662,60.367405,16.504568,4.417724,16.632832,8.721293,1.900092,5.278061,1.740588,13.568345,57.251881,5.346196,5.747053,2.213907,14.322231,6.087744,4.038450,2.643353,2.535997,16.510933,172.895660,19.201120,7.909585,1.580326,12.937365
1577423063.935691,118.000000,0.000000,4198.974121,4264.102539,4174.871582,4170.769043,4175.384766,450.000000,3.000000,,,,0.000000,4.000000,4.000000,4.000000,4.000000,4.000000,,,,,,,,,,,,,,,,,,,,,,,,,
1577423063.943394,119.000000,0.000000,4182.051270,4280.512695,4174.871582,4164.615234,4164.102539,16213.000000,3.000000,,,,0.000000,4.000000,4.000000,4.000000,4.000000,4.000000,,,,,,,,,,,,,,,,,,,,,,,,,
1577423063.951196,120.000000,0.000000,4184.102539,4285.128418,4183.077148,4165.128418,4169.743652,450.000000,3.000000,,,,0.000000,4.000000,4.000000,4.000000,4.000000,4.000000,,,,,,,,,,,,,,,,,,,,,,,,,
1577423063.958897,121.000000,0.000000,4185.128418,4275.897461,4189.230957,4160.512695,4170.256348,450.000000,3.000000,,,,0.000000,4.000000,4.000000,4.000000,4.000000,4.000000,,,,,,,,,,,,,,,,,,,,,,,,,
1577423063.966699,122.000000,0.000000,4172.820313,4278.974121,4175.384766,4144.102539,4157.436035,450.000000,3.000000,,,,0.000000,4.000000,4.000000,4.000000,4.000000,4.000000,,,,,,,,,,,,,,,,,,,,,,,,,
1577423063.974401,123.000000,0.000000,4170.256348,4291.794922,4172.307617,4138.974121,4146.153809,16213.000000,3.000000,,,,0.000000,4.000000,4.000000,4.000000,4.000000,4.000000,,,,,,,,,,,,,,,,,,,,,,,,,
1577423063.982202,124.000000,0.000000,4182.563965,4294.358887,4184.102539,4145.641113,4152.820313,450.000000,3.000000,,,,0.000000,4.000000,4.000000,4.000000,4.000000,4.000000,,,,,,,,,,,,,,,,,,,,,,,,,
1577423063.989903,125.000000,0.000000,4199.487305,4294.358887,4193.333496,4149.743652,4172.820313,450.000000,3.000000,,,,0.000000,4.000000,4.000000,4.000000,4.000000,4.000000,,,,,,,,,,,,,,,,,,,,,,,,,
1577423063.997704,126.000000,0.000000,4190.256348,4289.230957,4191.282227,4140.512695,4166.666504,450.000000,3.000000,,,,0.000000,4.000000,4.000000,4.000000,4.000000,4.000000,,,,,,,,,,,,,,,,,,,,,,,,,
1577423064.005405,127.000000,0.000000,4175.897461,4284.615234,4187.179688,4133.333496,4155.897461,233.000000,3.000000,,,,0.000000,4.000000,4.000000,4.000000,4.000000,4.000000,,,,,,,,,,,,,,,,,,,,,,,,,
1577423064.013205,0.000000,0.000000,4186.153809,4288.205078,4190.256348,4141.025879,4166.666504,450.000000,3.000000,,,,0.000000,4.000000,4.000000,4.000000,4.000000,4.000000,,,,,,,,,,,,,,,,,,,,,,,,,
1577423064.020906,1.000000,0.000000,4189.743652,4282.563965,4188.205078,4143.077148,4170.769043,450.000000,3.000000,,,,0.000000,4.000000,4.000000,4.000000,4.000000,4.000000,,,,,,,,,,,,,,,,,,,,,,,,,
1577423064.028610,2.000000,0.000000,4188.205078,4281.538574,4191.282227,4142.563965,4171.794922,16227.000000,3.000000,,,,0.000000,4.000000,4.000000,4.000000,4.000000,4.000000,,,,,,,,,,,,,,,,,,,,,,,,,
1577423064.036414,3.000000,0.000000,4190.256348,4288.205078,4194.358887,4145.641113,4171.282227,450.000000,3.000000,,,,0.000000,4.000000,4.000000,4.000000,4.000000,4.000000,,,,,,,,,,,,,,,,,,,,,,,,,
1577423064.044118,4.000000,0.000000,4179.487305,4284.615234,4181.025879,4131.282227,4156.410156,16201.000000,3.000000,,,,0.000000,4.000000,4.000000,4.000000,4.000000,4.000000,,,,,,,,,,,,,,,,,,,,,,,,,
1577423064.051922,5.000000,0.000000,4168.717773,4270.256348,4164.615234,4120.000000,4138.461426,450.000000,3.000000,,,,0.000000,4.000000,4.000000,4.000000,4.000000,4.000000,367.246368,37.656635,12.709724,3.630756,16.753531,9.002514,2.007076,5.093645,1.752939,13.748150,50.793667,4.939359,5.740132,2.153097,14.418080,5.733008,5.223102,2.723904,2.493458,16.825760,106.018997,13.071671,7.113587,1.329219,13.084105
1577423064.059625,6.000000,0.000000,4172.820313,4260.000000,4161.538574,4134.871582,4142.563965,16159.000000,3.000000,,,,0.000000,4.000000,4.000000,4.000000,4.000000,4.000000,,,,,,,,,,,,,,,,,,,,,,,,,
1577423064.067429,7.000000,0.000000,4193.846191,4271.794922,4184.615234,4157.436035,4167.692383,450.000000,3.000000,,,,0.000000,4.000000,4.000000,4.000000,4.000000,4.000000,,,,,,,,,,,,,,,,,,,,,,,,,
1577423064.075131,8.000000,0.000000,4194.358887,4281.538574,4205.128418,4152.820313,4176.410156,450.000000,3.000000,,,,0.000000,4.000000,4.000000,4.000000,4.000000,4.000000,,,,,,,,,,,,,,,,,,,,,,,,,
1577423064.082934,9.000000,0.000000,4176.410156,4269.743652,4205.641113,4141.538574,4170.769043,16163.000000,3.000000,,,,0.000000,4.000000,4.000000,4.000000,4.000000,4.000000,,,,,,,,,,,,,,,,,,,,,,,,,
1577423064.090637,10.000000,0.000000,4176.410156,4264.102539,4205.128418,4145.641113,4168.205078,450.000000,3.000000,,,,0.000000,4.000000,4.000000,4.000000,4.000000,4.000000,,,,,,,,,,,,,,,,,,,,,,,,,
1577423064.098440,11.000000,0.000000,4168.205078,4254.871582,4198.461426,4133.846191,4155.897461,16221.000000,3.000000,,,,0.000000,4.000000,4.000000,4.000000,4.000000,4.000000,,,,,,,,,,,,,,,,,,,,,,,,,
1577423064.106142,12.000000,0.000000,4164.102539,4256.410156,4205.128418,4135.897461,4155.897461,450.000000,3.000000,,,,0.000000,4.000000,4.000000,4.000000,4.000000,4.000000,,,,,,,,,,,,,,,,,,,,,,,,,
1577423064.113945,13.000000,0.000000,4181.538574,4275.384766,4217.948730,4158.461426,4166.666504,450.000000,3.000000,,,,0.000000,4.000000,4.000000,4.000000,4.000000,4.000000,,,,,,,,,,,,,,,,,,,,,,,,,
1577423064.121647,14.000000,0.000000,4182.051270,4261.538574,4205.128418,4150.769043,4162.563965,450.000000,3.000000,,,,0.000000,4.000000,4.000000,4.000000,4.000000,4.000000,,,,,,,,,,,,,,,,,,,,,,,,,
1577423064.129449,15.000000,0.000000,4172.820313,4247.179688,4203.077148,4138.461426,4160.512695,16221.000000,3.000000,,,,0.000000,4.000000,4.000000,4.000000,4.000000,4.000000,,,,,,,,,,,,,,,,,,,,,,,,,
1577423064.137151,16.000000,0.000000,4166.153809,4254.358887,4210.769043,4131.794922,4160.000000,0.000000,3.000000,,,,0.000000,4.000000,4.000000,4.000000,4.000000,4.000000,,,,,,,,,,,,,,,,,,,,,,,,,
1577423064.144953,17.000000,0.000000,4167.692383,4250.256348,4209.230957,4130.256348,4157.948730,0.000000,3.000000,,,,0.000000,4.000000,4.000000,4.000000,4.000000,4.000000,,,,,,,,,,,,,,,,,,,,,,,,,
1577423064.152655,18.000000,0.000000,4176.410156,4237.436035,4217.436035,4146.153809,4164.102539,0.000000,3.000000,,,,0.000000,4.000000,4.000000,4.000000,4.000000,4.000000,,,,,,,,,,,,,,,,,,,,,,,,,
1577423064.160456,19.000000,0.000000,4170.769043,4237.948730,4228.205078,4152.820313,4170.769043,0.000000,3.000000,,,,0.000000,4.000000,4.000000,4.000000,4.000000,4.000000,,,,,,,,,,,,,,,,,,,,,,,,,
1577423064.168258,20.000000,0.000000,4164.615234,4247.179688,4229.230957,4150.769043,4168.205078,0.000000,3.000000,,,,0.000000,4.000000,4.000000,4.000000,4.000000,4.000000,,,,,,,,,,,,,,,,,,,,,,,,,
1577423064.175963,21.000000,0.000000,4169.230957,4242.051270,4219.487305,4150.256348,4156.410156,0.000000,3.000000,,,,0.000000,4.000000,4.000000,4.000000,4.000000,4.000000,195.842163,21.550604,9.059483,2.964068,14.578467,9.386979,2.170168,4.341899,1.691005,12.030721,43.007420,4.658892,5.171643,1.977524,12.505873,5.705115,6.228035,2.687917,2.291330,14.788451,56.601166,9.089909,5.942587,1.214282,11.454356
1577423064.183672,22.000000,0.000000,4172.307617,4236.410156,4211.794922,4150.256348,4160.000000,0.000000,3.000000,,,,0.000000,4.000000,4.000000,4.000000,4.000000,4.000000,,,,,,,,,,,,,,,,,,,,,,,,,
1577423064.191481,23.000000,0.000000,4173.333496,4237.948730,4213.846191,4147.179688,4168.205078,0.000000,3.000000,,,,0.000000,4.000000,4.000000,4.000000,4.000000,4.000000,,,,,,,,,,,,,,,,,,,,,,,,,
1577423064.199290,24.000000,0.000000,4178.974121,4232.307617,4207.179688,4136.922852,4163.589844,0.000000,3.000000,,,,0.000000,4.000000,4.000000,4.000000,4.000000,4.000000,,,,,,,,,,,,,,,,,,,,,,,,,
1577423064.207099,25.000000,0.000000,4190.256348,4232.820313,4203.589844,4133.333496,4170.256348,0.000000,3.000000,,,,0.000000,4.000000,4.000000,4.000000,4.000000,4.000000,,,,,,,,,,,,,,,,,,,,,,,,,
1577423064.214799,26.000000,0.000000,4186.153809,4231.282227,4200.000000,4129.743652,4170.256348,0.000000,3.000000,,,,0.000000,4.000000,4.000000,4.000000,4.000000,4.000000,,,,,,,,,,,,,,,,,,,,,,,,,
1577423064.222599,27.000000,0.000000,4168.717773,4217.948730,4184.102539,4117.948730,4157.436035,0.000000,3.000000,,,,0.000000,4.000000,4.000000,4.000000,4.000000,4.000000,,,,,,,,,,,,,,,,,,,,,,,,,
1577423064.230299,28.000000,0.000000,4170.769043,4208.205078,4180.000000,4103.589844,4158.974121,0.000000,3.000000,,,,0.000000,4.000000,4.000000,4.000000,4.000000,4.000000,,,,,,,,,,,,,,,,,,,,,,,,,
1577423064.238098,29.000000,0.000000,4184.615234,4210.769043,4182.051270,4094.358887,4166.666504,0.000000,3.000000,,,,0.000000,4.000000,4.000000,4.000000,4.000000,4.000000,,,,,,,,,,,,,,,,,,,,,,,,,
1577423064.245798,30.000000,0.000000,4183.077148,4218.974121,4172.307617,4105.641113,4168.205078,0.000000,3.000000,,,,0.000000,4.000000,4.000000,4.000000,4.000000,4.000000,,,,,,,,,,,,,,,,,,,,,,,,,
1577423064.253597,31.000000,0.000000,4170.769043,4218.974121,4162.051270,4110.256348,4156.410156,0.000000,3.000000,,,,0.000000,4.000000,4.000000,4.000000,4.000000,4.000000,,,,,,,,,,,,,,,,,,,,,,,,,
1577423064.261296,32.000000,0.000000,4173.846191,4213.846191,4159.487305,4102.563965,4154.358887,0.000000,3.000000,,,,0.000000,4.000000,4.000000,4.000000,4.000000,4.000000,,,,,,,,,,,,,,,,,,,,,,,,,
1577423064.269095,33.000000,0.000000,4196.410156,4216.922852,4164.102539,4118.974121,4181.025879,0.000000,3.000000,,,,0.000000,4.000000,4.000000,4.000000,4.000000,4.000000,,,,,,,,,,,,,,,,,,,,,,,,,
1577423064.276794,34.000000,0.000000,4192.820313,4216.410156,4163.077148,4129.743652,4184.102539,0.000000,3.000000,,,,0.000000,4.000000,4.000000,4.000000,4.000000,4.000000,,,,,,,,,,,,,,,,,,,,,,,,,
1577423064.284497,35.000000,0.000000,4169.743652,4211.282227,4149.230957,4111.794922,4161.538574,0.000000,3.000000,,,,0.000000,4.000000,4.000000,4.000000,4.000000,4.000000,,,,,,,,,,,,,,,,,,,,,,,,,
1577423064.292300,36.000000,0.000000,4173.846191,4215.897461,4137.436035,4105.128418,4154.871582,0.000000,3.000000,,,,0.000000,4.000000,4.000000,4.000000,4.000000,4.000000,,,,,,,,,,,,,,,,,,,,,,,,,
1577423064.300102,37.000000,0.000000,4189.230957,4223.589844,4140.512695,4116.410156,4167.692383,0.000000,3.000000,,,,0.000000,4.000000,4.000000,4.000000,4.000000,4.000000,89.644127,12.380292,6.047203,2.443894,10.886623,9.807135,2.264004,3.262705,1.538901,9.046769,36.212883,4.425457,4.162901,1.731104,9.264219,6.016551,6.698924,2.535392,1.990301,11.128888,27.491312,6.932228,4.620828,1.214505,8.634045
1577423064.307801,38.000000,0.000000,4197.436035,4233.333496,4156.410156,4127.692383,4183.589844,0.000000,3.000000,,,,0.000000,4.000000,4.000000,4.000000,4.000000,4.000000,,,,,,,,,,,,,,,,,,,,,,,,,
1577423064.315503,39.000000,0.000000,4187.692383,4225.641113,4148.717773,4121.538574,4170.769043,0.000000,3.000000,,,,0.000000,4.000000,4.000000,4.000000,4.000000,4.000000,,,,,,,,,,,,,,,,,,,,,,,,,
1577423064.323305,40.000000,0.000000,4183.077148,4215.897461,4133.333496,4115.897461,4161.538574,0.000000,3.000000,,,,0.000000,4.000000,4.000000,4.000000,4.000000,4.000000,,,,,,,,,,,,,,,,,,,,,,,,,
1577423064.331007,41.000000,0.000000,4205.128418,4233.846191,4148.717773,4127.692383,4184.102539,0.000000,3.000000,,,,0.000000,4.000000,4.000000,4.000000,4.000000,4.000000,,,,,,,,,,,,,,,,,,,,,,,,,
1577423064.338808,42.000000,0.000000,4204.615234,4236.922852,4151.794922,4123.077148,4182.563965,0.000000,3.000000,,,,0.000000,4.000000,4.000000,4.000000,4.000000,4.000000,,,,,,,,,,,,,,,,,,,,,,,,,
1577423064.346510,43.000000,0.000000,4191.282227,4223.589844,4138.461426,4115.384766,4166.666504,0.000000,3.000000,,,,0.000000,4.000000,4.000000,4.000000,4.000000,4.000000,,,,,,,,,,,,,,,,,,,,,,,,,
1577423064.354312,44.000000,0.000000,4197.948730,4224.615234,4133.333496,4121.538574,4168.205078,0.000000,3.000000,,,,0.000000,4.000000,4.000000,4.000000,4.000000,4.000000,,,,,,,,,,,,,,,,,,,,,,,,,
1577423064.362013,45.000000,0.000000,4206.666504,4224.102539,4129.230957,4122.563965,4178.461426,0.000000,3.000000,,,,0.000000,4.000000,4.000000,4.000000,4.000000,4.000000,,,,,,,,,,,,,,,,,,,,,,,,,
1577423064.369814,46.000000,0.000000,4211.794922,4224.102539,4133.333496,4124.102539,4188.205078,0.000000,3.000000,,,,0.000000,4.000000,4.000000,4.000000,4.000000,4.000000,,,,,,,,,,,,,,,,,,,,,,,,,
1577423064.377515,47.000000,0.000000,4217.948730,4235.897461,4138.974121,4130.769043,4186.666504,0.000000,3.000000,,,,0.000000,4.000000,4.000000,4.000000,4.000000,4.000000,,,,,,,,,,,,,,,,,,,,,,,,,
1577423064.385316,48.000000,0.000000,4227.692383,4251.282227,4139.487305,4133.846191,4192.820313,0.000000,3.000000,,,,0.000000,4.000000,4.000000,4.000000,4.000000,4.000000,,,,,,,,,,,,,,,,,,,,,,,,,
1577423064.393017,49.000000,0.000000,4226.153809,4248.717773,4141.538574,4133.846191,4199.487305,0.000000,3.000000,,,,0.000000,4.000000,4.000000,4.000000,4.000000,4.000000,,,,,,,,,,,,,,,,,,,,,,,,,
1577423064.400818,50.000000,0.000000,4231.282227,4251.282227,4149.230957,4140.512695,4202.051270,0.000000,3.000000,,,,0.000000,4.000000,4.000000,4.000000,4.000000,4.000000,,,,,,,,,,,,,,,,,,,,,,,,,
1577423064.408518,51.000000,0.000000,4257.948730,4266.666504,4161.538574,4160.512695,4212.820313,0.000000,3.000000,,,,0.000000,4.000000,4.000000,4.000000,4.000000,4.000000,,,,,,,,,,,,,,,,,,,,,,,,,
1577423064.416318,52.000000,0.000000,4262.051270,4252.820313,4160.000000,4165.641113,4216.410156,0.000000,3.000000,,,,0.000000,4.000000,4.000000,4.000000,4.000000,4.000000,,,,,,,,,,,,,,,,,,,,,,,,,
1577423064.424018,53.000000,0.000000,4247.692383,4234.871582,4151.794922,4149.230957,4207.692383,0.000000,3.000000,,,,0.000000,4.000000,4.000000,4.000000,4.000000,4.000000,37.626015,7.925577,3.878459,2.033819,6.889657,10.369829,2.167517,2.159349,1.308751,5.790350,31.627115,4.108423,2.969779,1.465305,5.757380,6.611497,6.479979,2.285441,1.676532,7.062230,13.893606,5.713776,3.390829,1.271622,5.554701
1577423064.431722,54.000000,0.000000,4238.461426,4242.051270,4146.666504,4132.820313,4190.256348,0.000000,3.000000,,,,0.000000,4.000000,4.000000,4.000000,4.000000,4.000000,,,,,,,,,,,,,,,,,,,,,,,,,
1577423064.439526,55.000000,0.000000,4222.563965,4244.102539,4138.974121,4124.102539,4177.948730,0.000000,3.000000,,,,0.000000,4.000000,4.000000,4.000000,4.000000,4.000000,,,,,,,,,,,,,,,,,,,,,,,,,
1577423064.447230,56.000000,0.000000,4212.307617,4240.000000,4132.820313,4120.000000,4175.897461,0.000000,3.000000,,,,0.000000,4.000000,4.000000,4.000000,4.000000,4.000000,,,,,,,,,,,,,,,,,,,,,,,,,
1577423064.455033,57.000000,0.000000,4201.538574,4225.641113,4111.794922,4110.769043,4165.641113,0.000000,3.000000,,,,0.000000,4.000000,4.000000,4.000000,4.000000,4.000000,,,,,,,,,,,,,,,,,,,,,,,,,
1577423064.462736,58.000000,0.000000,4190.256348,4221.538574,4096.922852,4112.820313,4158.461426,0.000000,3.000000,,,,0.000000,4.000000,4.000000,4.000000,4.000000,4.000000,,,,,,,,,,,,,,,,,,,,,,,,,
1577423064.470539,59.000000,0.000000,4199.487305,4245.128418,4112.307617,4129.230957,4165.641113,0.000000,3.000000,,,,0.000000,4.000000,4.000000,4.000000,4.000000,4.000000,,,,,,,,,,,,,,,,,,,,,,,,,
1577423064.478243,60.000000,0.000000,4208.205078,4250.769043,4114.871582,4129.743652,4169.743652,0.000000,3.000000,,,,0.000000,4.000000,4.000000,4.000000,4.000000,4.000000,,,,,,,,,,,,,,,,,,,,,,,,,
1577423064.486046,61.000000,0.000000,4214.358887,4249.743652,4109.743652,4128.717773,4167.692383,0.000000,3.000000,,,,0.000000,4.000000,4.000000,4.000000,4.000000,4.000000,,,,,,,,,,,,,,,,,,,,,,,,,
1577423064.493749,62.000000,0.000000,4220.000000,4254.871582,4113.333496,4132.307617,4165.641113,0.000000,3.000000,,,,0.000000,4.000000,4.000000,4.000000,4.000000,4.000000,,,,,,,,,,,,,,,,,,,,,,,,,
1577423064.501551,63.000000,0.000000,4216.922852,4246.666504,4112.820313,4133.333496,4170.256348,0.000000,3.000000,,,,0.000000,4.000000,4.000000,4.000000,4.000000,4.000000,,,,,,,,,,,,,,,,,,,,,,,,,
1577423064.509254,64.000000,0.000000,4224.102539,4256.410156,4120.000000,4143.589844,4181.538574,450.000000,3.000000,,,,0.000000,4.000000,4.000000,4.000000,4.000000,4.000000,,,,,,,,,,,,,,,,,,,,,,,,,
1577423064.517056,65.000000,0.000000,4222.051270,4271.282227,4122.563965,4137.436035,4178.974121,450.000000,3.000000,,,,0.000000,4.000000,4.000000,4.000000,4.000000,4.000000,,,,,,,,,,,,,,,,,,,,,,,,,
1577423064.524858,66.000000,0.000000,4209.230957,4256.410156,4114.871582,4129.743652,4172.307617,16224.000000,3.000000,,,,0.000000,4.000000,4.000000,4.000000,4.000000,4.000000,,,,,,,,,,,,,,,,,,,,,,,,,
1577423064.532556,67.000000,0.000000,4213.846191,4239.487305,4112.307617,4132.307617,4172.307617,450.000000,3.000000,,,,0.000000,4.000000,4.000000,4.000000,4.000000,4.000000,,,,,,,,,,,,,,,,,,,,,,,,,
1577423064.540258,68.000000,0.000000,4223.077148,4247.179688,4111.794922,4126.666504,4181.538574,16208.000000,3.000000,,,,0.000000,4.000000,4.000000,4.000000,4.000000,4.000000,,,,,,,,,,,,,,,,,,,,,,,,,
1577423064.548059,69.000000,0.000000,4226.666504,4260.000000,4113.333496,4129.230957,4197.948730,450.000000,3.000000,,,,0.000000,4.000000,4.000000,4.000000,4.000000,4.000000,17.747410,5.796726,2.424840,1.705519,3.672617,10.916945,1.868665,1.273344,1.043068,3.153409,28.651741,3.674030,1.901635,1.225721,2.940564,7.395456,5.663724,1.957235,1.421743,3.719626,8.709089,4.728854,2.392838,1.331028,3.060719
1577423064.555760,70.000000,0.000000,4232.820313,4250.769043,4110.769043,4136.922852,4207.179688,16171.000000,3.000000,,,,0.000000,4.000000,4.000000,4.000000,4.000000,4.000000,,,,,,,,,,,,,,,,,,,,,,,,,
1577423064.563465,71.000000,0.000000,4247.692383,4241.025879,4117.436035,4144.615234,4221.025879,450.000000,3.000000,,,,0.000000,4.000000,4.000000,4.000000,4.000000,4.000000,,,,,,,,,,,,,,,,,,,,,,,,,
1577423064.571270,72.000000,0.000000,4251.794922,4248.717773,4122.051270,4146.153809,4226.153809,450.000000,3.000000,,,,0.000000,4.000000,4.000000,4.000000,4.000000,4.000000,,,,,,,,,,,,,,,,,,,,,,,,,
1577423064.579075,73.000000,0.000000,4234.358887,4249.743652,4104.615234,4132.307617,4205.641113,16160.000000,3.000000,,,,0.000000,4.000000,4.000000,4.000000,4.000000,4.000000,,,,,,,,,,,,,,,,,,,,,,,,,
1577423064.586775,74.000000,0.000000,4236.922852,4248.205078,4105.128418,4142.051270,4202.563965,450.000000,3.000000,,,,0.000000,4.000000,4.000000,4.000000,4.000000,4.000000,,,,,,,,,,,,,,,,,,,,,,,,,
1577423064.594479,75.000000,0.000000,4253.846191,4254.358887,4119.487305,4163.077148,4216.410156,16219.000000,3.000000,,,,0.000000,4.000000,4.000000,4.000000,4.000000,4.000000,,,,,,,,,,,,,,,,,,,,,,,,,
1577423064.602283,76.000000,0.000000,4245.641113,4255.897461,4101.025879,4153.846191,4215.384766,450.000000,3.000000,,,,0.000000,4.000000,4.000000,4.000000,4.000000,4.000000,,,,,,,,,,,,,,,,,,,,,,,,,
1577423064.609987,77.000000,0.000000,4229.230957,4249.230957,4079.487061,4135.384766,4195.897461,450.000000,3.000000,,,,0.000000,4.000000,4.000000,4.000000,4.000000,4.000000,,,,,,,,,,,,,,,,,,,,,,,,,
1577423064.617791,78.000000,0.000000,4221.025879,4236.922852,4080.000000,4129.230957,4182.051270,450.000000,3.000000,,,,0.000000,4.000000,4.000000,4.000000,4.000000,4.000000,,,,,,,,,,,,,,,,,,,,,,,,,
1577423064.625595,79.000000,0.000000,4223.589844,4240.000000,4083.589844,4131.794922,4187.179688,16219.000000,3.000000,,,,0.000000,4.000000,4.000000,4.000000,4.000000,4.000000,,,,,,,,,,,,,,,,,,,,,,,,,
1577423064.633295,80.000000,0.000000,4229.230957,4256.410156,4082.051270,4133.333496,4185.641113,450.000000,3.000000,,,,0.000000,4.000000,4.000000,4.000000,4.000000,4.000000,,,,,,,,,,,,,,,,,,,,,,,,,
1577423064.640998,81.000000,0.000000,4235.897461,4257.436035,4081.025635,4138.974121,4189.230957,450.000000,3.000000,,,,0.000000,4.000000,4.000000,4.000000,4.000000,4.000000,,,,,,,,,,,,,,,,,,,,,,,,,
1577423064.648801,82.000000,0.000000,4234.871582,4245.641113,4074.871826,4142.051270,4198.461426,450.000000,3.000000,,,,0.000000,4.000000,4.000000,4.000000,4.000000,4.000000,,,,,,,,,,,,,,,,,,,,,,,,,
1577423064.656604,83.000000,0.000000,4212.307617,4239.487305,4053.846191,4118.461426,4178.974121,16219.000000,3.000000,,,,0.000000,4.000000,4.000000,4.000000,4.000000,4.000000,,,,,,,,,,,,,,,,,,,,,,,,,
1577423064.664302,84.000000,0.000000,4211.282227,4255.897461,4050.769287,4109.230957,4175.897461,450.000000,3.000000,,,,0.000000,4.000000,4.000000,4.000000,4.000000,4.000000,,,,,,,,,,,,,,,,,,,,,,,,,
1577423064.672101,85.000000,0.000000,4220.512695,4265.128418,4062.051270,4124.615234,4185.641113,450.000000,3.000000,,,,0.000000,4.000000,4.000000,4.000000,4.000000,4.000000,12.056543,4.449203,1.583386,1.452096,1.750522,11.169199,1.508783,0.715903,0.796738,1.561914,26.261654,3.239013,1.198837,1.038486,1.268230,8.207003,4.606906,1.605334,1.254342,1.676100,7.191685,3.745065,1.724388,1.359740,1.561031
1577423064.679800,86.000000,0.000000,4206.153809,4249.230957,4052.307617,4123.077148,4173.846191,450.000000,3.000000,,,,0.000000,4.000000,4.000000,4.000000,4.000000,4.000000,,,,,,,,,,,,,,,,,,,,,,,,,
1577423064.687502,87.000000,0.000000,4207.692383,4244.102539,4046.666748,4111.794922,4172.820313,16219.000000,3.000000,,,,0.000000,4.000000,4.000000,4.000000,4.000000,4.000000,,,,,,,,,,,,,,,,,,,,,,,,,
1577423064.695304,88.000000,0.000000,4225.128418,4255.897461,4049.743652,4113.333496,4185.128418,450.000000,3.000000,,,,0.000000,4.000000,4.000000,4.000000,4.000000,4.000000,,,,,,,,,,,,,,,,,,,,,,,,,
1577423064.703006,89.000000,0.000000,4221.538574,4256.922852,4041.538574,4115.384766,4188.717773,450.000000,3.000000,,,,0.000000,4.000000,4.000000,4.000000,4.000000,4.000000,,,,,,,,,,,,,,,,,,,,,,,,,
1577423064.710807,90.000000,0.000000,4206.153809,4246.666504,4033.846191,4107.692383,4174.871582,450.000000,3.000000,,,,0.000000,4.000000,4.000000,4.000000,4.000000,4.000000,,,,,,,,,,,,,,,,,,,,,,,,,
1577423064.718509,91.000000,0.000000,4196.922852,4237.948730,4027.179443,4100.512695,4160.000000,16219.000000,3.000000,,,,0.000000,4.000000,4.000000,4.000000,4.000000,4.000000,,,,,,,,,,,,,,,,,,,,,,,,,
1577423064.726215,92.000000,0.000000,4196.410156,4240.000000,4027.179443,4098.974121,4157.436035,450.000000,3.000000,,,,0.000000,4.000000,4.000000,4.000000,4.000000,4.000000,,,,,,,,,,,,,,,,,,,,,,,,,
1577423064.734021,93.000000,0.000000,4203.077148,4249.743652,4040.512939,4101.025879,4160.000000,450.000000,3.000000,,,,0.000000,4.000000,4.000000,4.000000,4.000000,4.000000,,,,,,,,,,,,,,,,,,,,,,,,,
1577423064.741827,94.000000,0.000000,4220.000000,4265.128418,4058.461426,4117.436035,4177.436035,450.000000,3.000000,,,,0.000000,4.000000,4.000000,4.000000,4.000000,4.000000,,,,,,,,,,,,,,,,,,,,,,,,,
1577423064.749529,95.000000,0.000000,4222.563965,4274.871582,4062.564209,4128.205078,4190.769043,16219.000000,3.000000,,,,0.000000,4.000000,4.000000,4.000000,4.000000,4.000000,,,,,,,,,,,,,,,,,,,,,,,,,
1577423064.757330,96.000000,0.000000,4208.205078,4267.179688,4047.692383,4109.230957,4179.487305,450.000000,3.000000,,,,0.000000,4.000000,4.000000,4.000000,4.000000,4.000000,,,,,,,,,,,,,,,,,,,,,,,,,
1577423064.765031,97.000000,0.000000,4208.717773,4263.077148,4042.051270,4097.948730,4175.384766,450.000000,3.000000,,,,0.000000,4.000000,4.000000,4.000000,4.000000,4.000000,,,,,,,,,,,,,,,,,,,,,,,,,
1577423064.772832,98.000000,0.000000,4196.410156,4253.846191,4032.820557,4095.897461,4169.230957,450.000000,3.000000,,,,0.000000,4.000000,4.000000,4.000000,4.000000,4.000000,,,,,,,,,,,,,,,,,,,,,,,,,
1577423064.780532,99.000000,0.000000,4185.641113,4245.641113,4022.564209,4093.846191,4165.128418,16219.000000,3.000000,,,,0.000000,4.000000,4.000000,4.000000,4.000000,4.000000,,,,,,,,,,,,,,,,,,,,,,,,,
1577423064.788333,100.000000,0.000000,4212.307617,4263.077148,4032.307617,4110.256348,4181.538574,450.000000,3.000000,,,,0.000000,4.000000,4.000000,4.000000,4.000000,4.000000,,,,,,,,,,,,,,,,,,,,,,,,,
1577423064.796033,101.000000,0.000000,4213.846191,4277.436035,4031.281982,4120.512695,4186.153809,450.000000,3.000000,,,,0.000000,4.000000,4.000000,4.000000,4.000000,4.000000,10.041377,3.586798,1.230328,1.258716,0.971993,10.806823,1.231377,0.461665,0.609196,0.897381,23.890987,2.931900,0.903360,0.904499,0.609687,8.863851,3.734904,1.306923,1.159288,0.820311,6.712176,2.943569,1.378311,1.342543,0.946689
1577423064.803834,102.000000,0.000000,4194.871582,4277.436035,4023.589844,4122.051270,4181.025879,450.000000,3.000000,,,,0.000000,4.000000,4.000000,4.000000,4.000000,4.000000,,,,,,,,,,,,,,,,,,,,,,,,,
1577423064.811534,103.000000,0.000000,4191.282227,4265.128418,4021.538574,4118.974121,4180.000000,16219.000000,3.000000,,,,0.000000,4.000000,4.000000,4.000000,4.000000,4.000000,,,,,,,,,,,,,,,,,,,,,,,,,
1577423064.819334,104.000000,0.000000,4193.846191,4266.153809,4017.948730,4113.846191,4183.077148,450.000000,3.000000,,,,0.000000,4.000000,4.000000,4.000000,4.000000,4.000000,,,,,,,,,,,,,,,,,,,,,,,,,
1577423064.827034,105.000000,0.000000,4221.025879,4290.769043,4035.384521,4138.461426,4205.128418,450.000000,3.000000,,,,0.000000,4.000000,4.000000,4.000000,4.000000,4.000000,,,,,,,,,,,,,,,,,,,,,,,,,
1577423064.834833,106.000000,0.000000,4243.077148,4289.743652,4050.769287,4160.512695,4222.563965,450.000000,3.000000,,,,0.000000,4.000000,4.000000,4.000000,4.000000,4.000000,,,,,,,,,,,,,,,,,,,,,,,,,
1577423064.842532,107.000000,0.000000,4237.436035,4281.538574,4049.743652,4156.410156,4217.948730,16219.000000,3.000000,,,,0.000000,4.000000,4.000000,4.000000,4.000000,4.000000,,,,,,,,,,,,,,,,,,,,,,,,,
1577423064.850332,108.000000,0.000000,4228.717773,4295.384766,4044.615479,4146.666504,4210.256348,450.000000,3.000000,,,,0.000000,4.000000,4.000000,4.000000,4.000000,4.000000,,,,,,,,,,,,,,,,,,,,,,,,,
1577423064.858031,109.000000,0.000000,4232.820313,4298.974121,4048.718018,4144.615234,4220.000000,450.000000,3.000000,,,,0.000000,4.000000,4.000000,4.000000,4.000000,4.000000,,,,,,,,,,,,,,,,,,,,,,,,,
1577423064.865734,110.000000,0.000000,4246.153809,4290.769043,4064.102539,4155.897461,4229.230957,450.000000,3.000000,,,,0.000000,4.000000,4.000000,4.000000,4.000000,4.000000,,,,,,,,,,,,,,,,,,,,,,,,,
1577423064.873537,111.000000,0.000000,4248.717773,4283.077148,4062.051270,4158.461426,4220.512695,16219.000000,3.000000,,,,0.000000,4.000000,4.000000,4.000000,4.000000,4.000000,,,,,,,,,,,,,,,,,,,,,,,,,
1577423064.881239,112.000000,0.000000,4252.307617,4289.743652,4065.128174,4160.512695,4224.615234,450.000000,3.000000,,,,0.000000,4.000000,4.000000,4.000000,4.000000,4.000000,,,,,,,,,,,,,,,,,,,,,,,,,
1577423064.889041,113.000000,0.000000,4263.589844,4307.692383,4091.281982,4171.794922,4237.436035,450.000000,3.000000,,,,0.000000,4.000000,4.000000,4.000000,4.000000,4.000000,,,,,,,,,,,,,,,,,,,,,,,,,
1577423064.896744,114.000000,0.000000,4246.666504,4292.307617,4094.358887,4160.512695,4217.948730,450.000000,3.000000,,,,0.000000,4.000000,4.000000,4.000000,4.000000,4.000000,,,,,,,,,,,,,,,,,,,,,,,,,
1577423064.904546,115.000000,0.000000,4213.333496,4272.820313,4081.025635,4131.794922,4187.179688,16219.000000,3.000000,,,,0.000000,4.000000,4.000000,4.000000,4.000000,4.000000,,,,,,,,,,,,,,,,,,,,,,,,,
1577423064.912247,116.000000,0.000000,4216.410156,4292.307617,4087.692383,4126.666504,4191.794922,450.000000,3.000000,,,,0.000000,4.000000,4.000000,4.000000,4.000000,4.000000,,,,,,,,,,,,,,,,,,,,,,,,,
1577423064.920049,117.000000,0.000000,4244.615234,4315.384766,4106.153809,4149.743652,4223.077148,450.000000,3.000000,,,,0.000000,4.000000,4.000000,4.000000,4.000000,4.000000,8.595197,3.043215,1.181088,1.097651,0.793909,9.583984,1.117584,0.395646,0.488126,0.726443,20.991552,2.782263,0.915785,0.801177,0.486690,9.189966,3.292627,1.125477,1.096851,0.613119,6.673295,2.380520,1.244977,1.277623,0.799148
1577423064.927751,118.000000,0.000000,4248.717773,4310.256348,4106.666504,4157.436035,4227.692383,450.000000,3.000000,,,,0.000000,4.000000,4.000000,4.000000,4.000000,4.000000,,,,,,,,,,,,,,,,,,,,,,,,,
1577423064.935552,119.000000,0.000000,4233.333496,4291.794922,4094.358887,4140.512695,4210.769043,16219.000000,3.000000,,,,0.000000,4.000000,4.000000,4.000000,4.000000,4.000000,,,,,,,,,,,,,,,,,,,,,,,,,
1577423064.943254,120.000000,0.000000,4237.948730,4294.871582,4096.922852,4143.589844,4216.922852,450.000000,3.000000,,,,0.000000,4.000000,4.000000,4.000000,4.000000,4.000000,,,,,,,,,,,,,,,,,,,,,,,,,
1577423064.951055,121.000000,0.000000,4244.102539,4309.743652,4093.333252,4144.615234,4221.025879,450.000000,3.000000,,,,0.000000,4.000000,4.000000,4.000000,4.000000,4.000000,,,,,,,,,,,,,,,,,,,,,,,,,
1577423064.958756,122.000000,0.000000,4230.769043,4305.128418,4073.846191,4129.230957,4207.692383,450.000000,3.000000,,,,0.000000,4.000000,4.000000,4.000000,4.000000,4.000000,,,,,,,,,,,,,,,,,,,,,,,,,
1577423064.966557,123.000000,0.000000,4230.769043,4297.948730,4085.641113,4141.025879,4213.333496,16219.000000,3.000000,,,,0.000000,4.000000,4.000000,4.000000,4.000000,4.000000,,,,,,,,,,,,,,,,,,,,,,,,,
1577423064.974258,124.000000,0.000000,4232.307617,4298.461426,4101.538574,4145.128418,4209.743652,450.000000,3.000000,,,,0.000000,4.000000,4.000000,4.000000,4.000000,4.000000,,,,,,,,,,,,,,,,,,,,,,,,,
1577423064.982058,125.000000,0.000000,4223.589844,4301.025879,4090.769287,4126.153809,4193.846191,450.000000,3.000000,,,,0.000000,4.000000,4.000000,4.000000,4.000000,4.000000,,,,,,,,,,,,,,,,,,,,,,,,,
1577423064.989758,126.000000,0.000000,4228.717773,4302.563965,4088.205078,4122.563965,4192.820313,450.000000,3.000000,,,,0.000000,4.000000,4.000000,4.000000,4.000000,4.000000,,,,,,,,,,,,,,,,,,,,,,,,,
1577423064.997558,127.000000,0.000000,4228.717773,4306.666504,4097.948730,4129.743652,4200.000000,233.000000,3.000000,,,,0.000000,4.000000,4.000000,4.000000,4.000000,4.000000,,,,,,,,,,,,,,,,,,,,,,,,,
1577423065.005258,0.000000,0.000000,4222.563965,4320.000000,4106.153809,4132.820313,4202.563965,450.000000,3.000000,,,,0.000000,4.000000,4.000000,4.000000,4.000000,4.000000,,,,,,,,,,,,,,,,,,,,,,,,,
1577423065.012962,1.000000,0.000000,4227.179688,4330.256348,4107.179688,4130.256348,4194.358887,450.000000,3.000000,,,,0.000000,4.000000,4.000000,4.000000,4.000000,4.000000,,,,,,,,,,,,,,,,,,,,,,,,,
1577423065.020766,2.000000,0.000000,4234.871582,4324.615234,4104.102539,4127.179688,4197.948730,16229.000000,3.000000,,,,0.000000,4.000000,4.000000,4.000000,4.000000,4.000000,,,,,,,,,,,,,,,,,,,,,,,,,
1577423065.028469,3.000000,0.000000,4227.692383,4308.717773,4100.000000,4119.487305,4196.410156,450.000000,3.000000,,,,0.000000,4.000000,4.000000,4.000000,4.000000,4.000000,,,,,,,,,,,,,,,,,,,,,,,,,
1577423065.036272,4.000000,0.000000,4224.615234,4312.820313,4099.487305,4114.871582,4190.769043,16175.000000,3.000000,,,,0.000000,4.000000,4.000000,4.000000,4.000000,4.000000,,,,,,,,,,,,,,,,,,,,,,,,,
1577423065.043975,5.000000,0.000000,4243.589844,4340.000000,4113.333496,4127.692383,4211.794922,450.000000,3.000000,,,,0.000000,4.000000,4.000000,4.000000,4.000000,4.000000,7.639684,2.794435,1.279549,0.957873,0.745170,7.539492,1.186480,0.400661,0.428256,0.674923,17.614550,2.790066,1.067194,0.714178,0.478743,9.059880,3.243537,1.081533,1.044880,0.558804,7.097386,2.060528,1.207206,1.181544,0.748053
1577423065.051778,6.000000,0.000000,4238.461426,4340.000000,4117.436035,4125.128418,4208.717773,16148.000000,3.000000,,,,0.000000,4.000000,4.000000,4.000000,4.000000,4.000000,,,,,,,,,,,,,,,,,,,,,,,,,
1577423065.059481,7.000000,0.000000,4219.487305,4318.974121,4100.512695,4113.846191,4184.102539,450.000000,3.000000,,,,0.000000,4.000000,4.000000,4.000000,4.000000,4.000000,,,,,,,,,,,,,,,,,,,,,,,,,
1577423065.067283,8.000000,0.000000,4228.717773,4325.128418,4093.333252,4127.692383,4188.717773,450.000000,3.000000,,,,0.000000,4.000000,4.000000,4.000000,4.000000,4.000000,,,,,,,,,,,,,,,,,,,,,,,,,
1577423065.075086,9.000000,0.000000,4226.666504,4327.179688,4093.333252,4128.717773,4191.794922,16188.000000,3.000000,,,,0.000000,4.000000,4.000000,4.000000,4.000000,4.000000,,,,,,,,,,,,,,,,,,,,,,,,,
1577423065.082784,10.000000,0.000000,4218.974121,4317.948730,4100.000000,4118.974121,4190.769043,450.000000,3.000000,,,,0.000000,4.000000,4.000000,4.000000,4.000000,4.000000,,,,,,,,,,,,,,,,,,,,,,,,,
1577423065.090487,11.000000,0.000000,4228.205078,4328.205078,4116.410156,4129.230957,4201.025879,16217.000000,3.000000,,,,0.000000,4.000000,4.000000,4.000000,4.000000,4.000000,,,,,,,,,,,,,,,,,,,,,,,,,
1577423065.098289,12.000000,0.000000,4232.820313,4342.051270,4118.974121,4126.666504,4209.230957,450.000000,3.000000,,,,0.000000,4.000000,4.000000,4.000000,4.000000,4.000000,,,,,,,,,,,,,,,,,,,,,,,,,
1577423065.105991,13.000000,0.000000,4228.717773,4338.461426,4117.948730,4115.897461,4205.641113,450.000000,3.000000,,,,0.000000,4.000000,4.000000,4.000000,4.000000,4.000000,,,,,,,,,,,,,,,,,,,,,,,,,
1577423065.113792,14.000000,0.000000,4230.256348,4320.000000,4122.563965,4126.153809,4207.692383,450.000000,3.000000,,,,0.000000,4.000000,4.000000,4.000000,4.000000,4.000000,,,,,,,,,,,,,,,,,,,,,,,,,
1577423065.121494,15.000000,0.000000,4241.025879,4323.077148,4124.615234,4136.410156,4221.025879,16217.000000,3.000000,,,,0.000000,4.000000,4.000000,4.000000,4.000000,4.000000,,,,,,,,,,,,,,,,,,,,,,,,,
1577423065.129296,16.000000,0.000000,4230.256348,4340.512695,4112.820313,4123.077148,4209.743652,0.000000,3.000000,,,,0.000000,4.000000,4.000000,4.000000,4.000000,4.000000,,,,,,,,,,,,,,,,,,,,,,,,,
1577423065.137097,17.000000,0.000000,4218.974121,4338.461426,4102.051270,4120.512695,4202.563965,0.000000,3.000000,,,,0.000000,4.000000,4.000000,4.000000,4.000000,4.000000,,,,,,,,,,,,,,,,,,,,,,,,,
1577423065.144795,18.000000,0.000000,4245.641113,4338.974121,4117.948730,4139.487305,4228.205078,0.000000,3.000000,,,,0.000000,4.000000,4.000000,4.000000,4.000000,4.000000,,,,,,,,,,,,,,,,,,,,,,,,,
1577423065.152496,19.000000,0.000000,4251.794922,4334.871582,4115.384766,4137.436035,4229.743652,0.000000,3.000000,,,,0.000000,4.000000,4.000000,4.000000,4.000000,4.000000,,,,,,,,,,,,,,,,,,,,,,,,,
1577423065.160297,20.000000,0.000000,4237.436035,4328.717773,4096.922852,4134.871582,4216.410156,0.000000,3.000000,,,,0.000000,4.000000,4.000000,4.000000,4.000000,4.000000,,,,,,,,,,,,,,,,,,,,,,,,,
1577423065.167997,21.000000,0.000000,4243.077148,4329.743652,4100.512695,4148.717773,4217.436035,0.000000,3.000000,,,,0.000000,4.000000,4.000000,4.000000,4.000000,4.000000,7.187312,2.739411,1.422430,0.872982,0.701133,5.195802,1.383388,0.422831,0.425881,0.645293,14.006158,2.847684,1.233679,0.648772,0.468126,8.507051,3.355873,1.131776,1.016269,0.509758,7.836369,1.921278,1.180442,1.089582,0.691823
1577423065.175798,22.000000,0.000000,4241.025879,4319.487305,4104.102539,4140.512695,4211.282227,0.000000,3.000000,,,,0.000000,4.000000,4.000000,4.000000,4.000000,4.000000,,,,,,,,,,,,,,,,,,,,,,,,,
1577423065.183498,23.000000,0.000000,4230.769043,4314.358887,4096.922852,4131.794922,4206.153809,0.000000,3.000000,,,,0.000000,4.000000,4.000000,4.000000,4.000000,4.000000,,,,,,,,,,,,,,,,,,,,,,,,,
1577423065.191298,24.000000,0.000000,4226.666504,4320.000000,4084.102539,4136.922852,4205.641113,0.000000,3.000000,,,,0.000000,4.000000,4.000000,4.000000,4.000000,4.000000,,,,,,,,,,,,,,,,,,,,,,,,,
1577423065.198998,25.000000,0.000000,4231.282227,4322.051270,4073.333252,4137.436035,4207.179688,0.000000,3.000000,,,,0.000000,4.000000,4.000000,4.000000,4.000000,4.000000,,,,,,,,,,,,,,,,,,,,,,,,,
1577423065.206798,26.000000,0.000000,4241.025879,4317.436035,4073.333252,4135.384766,4212.820313,0.000000,3.000000,,,,0.000000,4.000000,4.000000,4.000000,4.000000,4.000000,,,,,,,,,,,,,,,,,,,,,,,,,
1577423065.214498,27.000000,0.000000,4230.256348,4309.230957,4070.256348,4129.230957,4208.205078,0.000000,3.000000,,,,0.000000,4.000000,4.000000,4.000000,4.000000,4.000000,,,,,,,,,,,,,,,,,,,,,,,,,
1577423065.222298,28.000000,0.000000,4228.717773,4322.051270,4074.358887,4140.000000,4208.717773,0.000000,3.000000,,,,0.000000,4.000000,4.000000,4.000000,4.000000,4.000000,,,,,,,,,,,,,,,,,,,,,,,,,
1577423065.229997,29.000000,0.000000,4242.051270,4325.128418,4081.538574,4151.282227,4219.487305,0.000000,3.000000,,,,0.000000,4.000000,4.000000,4.000000,4.000000,4.000000,,,,,,,,,,,,,,,,,,,,,,,,,
1577423065.237797,30.000000,0.000000,4239.487305,4308.717773,4080.000000,4146.666504,4224.102539,0.000000,3.000000,,,,0.000000,4.000000,4.000000,4.000000,4.000000,4.000000,,,,,,,,,,,,,,,,,,,,,,,,,
1577423065.245496,31.000000,0.000000,4233.333496,4310.769043,4076.923096,4145.641113,4220.000000,0.000000,3.000000,,,,0.000000,4.000000,4.000000,4.000000,4.000000,4.000000,,,,,,,,,,,,,,,,,,,,,,,,,
1577423065.253295,32.000000,0.000000,4221.538574,4309.230957,4064.102539,4132.820313,4203.077148,0.000000,3.000000,,,,0.000000,4.000000,4.000000,4.000000,4.000000,4.000000,,,,,,,,,,,,,,,,,,,,,,,,,
1577423065.260994,33.000000,0.000000,4215.384766,4301.538574,4060.000000,4125.128418,4196.922852,0.000000,3.000000,,,,0.000000,4.000000,4.000000,4.000000,4.000000,4.000000,,,,,,,,,,,,,,,,,,,,,,,,,
1577423065.268793,34.000000,0.000000,4221.025879,4299.487305,4060.512939,4126.153809,4202.563965,0.000000,3.000000,,,,0.000000,4.000000,4.000000,4.000000,4.000000,4.000000,,,,,,,,,,,,,,,,,,,,,,,,,
1577423065.276491,35.000000,0.000000,4217.436035,4292.307617,4049.230713,4116.410156,4202.563965,0.000000,3.000000,,,,0.000000,4.000000,4.000000,4.000000,4.000000,4.000000,,,,,,,,,,,,,,,,,,,,,,,,,
1577423065.284193,36.000000,0.000000,4220.512695,4296.410156,4056.410156,4120.512695,4208.205078,0.000000,3.000000,,,,0.000000,4.000000,4.000000,4.000000,4.000000,4.000000,,,,,,,,,,,,,,,,,,,,,,,,,
1577423065.291995,37.000000,0.000000,4234.358887,4310.769043,4066.153809,4132.307617,4219.487305,0.000000,3.000000,,,,0.000000,4.000000,4.000000,4.000000,4.000000,4.000000,7.243590,2.735173,1.542501,0.884288,0.667064,3.153879,1.613696,0.452782,0.477476,0.641727,10.779725,2.882455,1.329658,0.618953,0.457925,7.680542,3.359012,1.203646,1.035447,0.473682,8.652639,1.849043,1.133925,1.045296,0.639502
1577423065.299697,38.000000,0.000000,4232.820313,4304.615234,4056.410156,4132.307617,4216.410156,0.000000,3.000000,,,,0.000000,4.000000,4.000000,4.000000,4.000000,4.000000,,,,,,,,,,,,,,,,,,,,,,,,,
1577423065.307499,39.000000,0.000000,4209.230957,4279.487305,4042.051270,4118.974121,4190.256348,0.000000,3.000000,,,,0.000000,4.000000,4.000000,4.000000,4.000000,4.000000,,,,,,,,,,,,,,,,,,,,,,,,,
1577423065.315200,40.000000,0.000000,4193.846191,4280.000000,4039.487061,4113.846191,4178.974121,0.000000,3.000000,,,,0.000000,4.000000,4.000000,4.000000,4.000000,4.000000,,,,,,,,,,,,,,,,,,,,,,,,,
1577423065.323001,41.000000,0.000000,4214.871582,4306.666504,4061.025635,4138.974121,4206.666504,0.000000,3.000000,,,,0.000000,4.000000,4.000000,4.000000,4.000000,4.000000,,,,,,,,,,,,,,,,,,,,,,,,,
1577423065.330703,42.000000,0.000000,4241.538574,4309.230957,4082.051270,4154.871582,4226.666504,0.000000,3.000000,,,,0.000000,4.000000,4.000000,4.000000,4.000000,4.000000,,,,,,,,,,,,,,,,,,,,,,,,,
1577423065.338504,43.000000,0.000000,4246.666504,4296.922852,4085.128174,4146.666504,4234.871582,0.000000,3.000000,,,,0.000000,4.000000,4.000000,4.000000,4.000000,4.000000,,,,,,,,,,,,,,,,,,,,,,,,,
1577423065.346205,44.000000,0.000000,4243.077148,4310.256348,4080.000000,4136.410156,4235.897461,0.000000,3.000000,,,,0.000000,4.000000,4.000000,4.000000,4.000000,4.000000,,,,,,,,,,,,,,,,,,,,,,,,,
1577423065.354006,45.000000,0.000000,4247.179688,4328.717773,4077.948730,4138.974121,4239.487305,0.000000,3.000000,,,,0.000000,4.000000,4.000000,4.000000,4.000000,4.000000,,,,,,,,,,,,,,,,,,,,,,,,,
1577423065.361707,46.000000,0.000000,4271.282227,4335.897461,4097.948730,4168.717773,4269.743652,0.000000,3.000000,,,,0.000000,4.000000,4.000000,4.000000,4.000000,4.000000,,,,,,,,,,,,,,,,,,,,,,,,,
1577423065.369507,47.000000,0.000000,4291.282227,4345.128418,4120.000000,4193.333496,4283.077148,0.000000,3.000000,,,,0.000000,4.000000,4.000000,4.000000,4.000000,4.000000,,,,,,,,,,,,,,,,,,,,,,,,,
1577423065.377207,48.000000,0.000000,4290.256348,4344.615234,4114.871582,4182.563965,4269.743652,0.000000,3.000000,,,,0.000000,4.000000,4.000000,4.000000,4.000000,4.000000,,,,,,,,,,,,,,,,,,,,,,,,,
1577423065.385007,49.000000,0.000000,4286.153809,4331.282227,4107.692383,4167.179688,4266.153809,0.000000,3.000000,,,,0.000000,4.000000,4.000000,4.000000,4.000000,4.000000,,,,,,,,,,,,,,,,,,,,,,,,,
1577423065.392707,50.000000,0.000000,4282.051270,4323.589844,4113.846191,4167.692383,4263.589844,0.000000,3.000000,,,,0.000000,4.000000,4.000000,4.000000,4.000000,4.000000,,,,,,,,,,,,,,,,,,,,,,,,,
1577423065.400507,51.000000,0.000000,4279.487305,4329.743652,4116.922852,4169.230957,4258.461426,0.000000,3.000000,,,,0.000000,4.000000,4.000000,4.000000,4.000000,4.000000,,,,,,,,,,,,,,,,,,,,,,,,,
1577423065.408207,52.000000,0.000000,4267.179688,4333.333496,4109.743652,4156.922852,4243.589844,0.000000,3.000000,,,,0.000000,4.000000,4.000000,4.000000,4.000000,4.000000,,,,,,,,,,,,,,,,,,,,,,,,,
1577423065.416007,53.000000,0.000000,4248.205078,4328.717773,4102.051270,4147.692383,4231.794922,0.000000,3.000000,,,,0.000000,4.000000,4.000000,4.000000,4.000000,4.000000,7.410786,2.662992,1.566650,1.003690,0.645382,1.776628,1.762352,0.474237,0.571177,0.661069,8.320711,2.861927,1.314234,0.632073,0.452995,6.747135,3.104312,1.220039,1.108214,0.457363,9.164395,1.771826,1.043801,1.069802,0.600433
1577423065.423706,54.000000,0.000000,4247.692383,4326.666504,4104.102539,4156.922852,4238.974121,0.000000,3.000000,,,,0.000000,4.000000,4.000000,4.000000,4.000000,4.000000,,,,,,,,,,,,,,,,,,,,,,,,,
1577423065.431409,55.000000,0.000000,4242.563965,4317.436035,4096.922852,4149.743652,4231.282227,0.000000,3.000000,,,,0.000000,4.000000,4.000000,4.000000,4.000000,4.000000,,,,,,,,,,,,,,,,,,,,,,,,,
1577423065.439212,56.000000,0.000000,4234.871582,4314.358887,4086.666748,4135.897461,4224.615234,0.000000,3.000000,,,,0.000000,4.000000,4.000000,4.000000,4.000000,4.000000,,,,,,,,,,,,,,,,,,,,,,,,,
1577423065.446914,57.000000,0.000000,4249.743652,4317.436035,4092.820557,4148.717773,4235.897461,0.000000,3.000000,,,,0.000000,4.000000,4.000000,4.000000,4.000000,4.000000,,,,,,,,,,,,,,,,,,,,,,,,,
1577423065.454716,58.000000,0.000000,4265.128418,4315.897461,4100.000000,4163.589844,4249.230957,0.000000,3.000000,,,,0.000000,4.000000,4.000000,4.000000,4.000000,4.000000,,,,,,,,,,,,,,,,,,,,,,,,,
1577423065.462419,59.000000,0.000000,4270.769043,4331.794922,4107.692383,4164.102539,4260.000000,0.000000,3.000000,,,,0.000000,4.000000,4.000000,4.000000,4.000000,4.000000,,,,,,,,,,,,,,,,,,,,,,,,,
1577423065.470221,60.000000,0.000000,4256.922852,4336.410156,4097.436035,4150.769043,4246.666504,0.000000,3.000000,,,,0.000000,4.000000,4.000000,4.000000,4.000000,4.000000,,,,,,,,,,,,,,,,,,,,,,,,,
1577423065.477922,61.000000,0.000000,4242.563965,4320.512695,4075.384521,4140.000000,4231.794922,0.000000,3.000000,,,,0.000000,4.000000,4.000000,4.000000,4.000000,4.000000,,,,,,,,,,,,,,,,,,,,,,,,,
1577423065.485724,62.000000,0.000000,4248.205078,4308.717773,4072.307617,4146.666504,4237.948730,0.000000,3.000000,,,,0.000000,4.000000,4.000000,4.000000,4.000000,4.000000,,,,,,,,,,,,,,,,,,,,,,,,,
1577423065.493426,63.000000,0.000000,4246.666504,4301.025879,4071.794922,4144.102539,4237.948730,0.000000,3.000000,,,,0.000000,4.000000,4.000000,4.000000,4.000000,4.000000,,,,,,,,,,,,,,,,,,,,,,,,,
1577423065.501228,64.000000,0.000000,4244.615234,4305.641113,4070.256348,4138.461426,4232.307617,450.000000,3.000000,,,,0.000000,4.000000,4.000000,4.000000,4.000000,4.000000,,,,,,,,,,,,,,,,,,,,,,,,,
1577423065.508930,65.000000,0.000000,4246.666504,4306.153809,4069.743652,4145.128418,4232.820313,450.000000,3.000000,,,,0.000000,4.000000,4.000000,4.000000,4.000000,4.000000,,,,,,,,,,,,,,,,,,,,,,,,,
1577423065.516732,66.000000,0.000000,4251.794922,4301.025879,4069.230713,4150.769043,4240.000000,16220.000000,3.000000,,,,0.000000,4.000000,4.000000,4.000000,4.000000,4.000000,,,,,,,,,,,,,,,,,,,,,,,,,
1577423065.524433,67.000000,0.000000,4261.025879,4309.230957,4075.384521,4152.307617,4247.179688,450.000000,3.000000,,,,0.000000,4.000000,4.000000,4.000000,4.000000,4.000000,,,,,,,,,,,,,,,,,,,,,,,,,
1577423065.532234,68.000000,0.000000,4249.230957,4306.153809,4064.102539,4137.948730,4236.410156,16182.000000,3.000000,,,,0.000000,4.000000,4.000000,4.000000,4.000000,4.000000,,,,,,,,,,,,,,,,,,,,,,,,,
1577423065.539935,69.000000,0.000000,4234.358887,4298.461426,4060.512939,4129.230957,4228.205078,450.000000,3.000000,,,,0.000000,4.000000,4.000000,4.000000,4.000000,4.000000,7.406697,2.507768,1.444913,1.193849,0.633784,1.129535,1.769734,0.468156,0.687924,0.692705,6.900386,2.808823,1.200276,0.683703,0.453373,5.898650,2.639918,1.150743,1.211605,0.458595,9.151561,1.714296,0.902938,1.152041,0.577927
1577423065.547736,70.000000,0.000000,4234.871582,4304.102539,4078.974365,4136.410156,4233.333496,16156.000000,3.000000,,,,0.000000,4.000000,4.000000,4.000000,4.000000,4.000000,,,,,,,,,,,,,,,,,,,,,,,,,
1577423065.555437,71.000000,0.000000,4236.410156,4306.153809,4082.051270,4136.410156,4232.820313,450.000000,3.000000,,,,0.000000,4.000000,4.000000,4.000000,4.000000,4.000000,,,,,,,,,,,,,,,,,,,,,,,,,
1577423065.563141,72.000000,0.000000,4232.307617,4308.717773,4074.358887,4129.230957,4224.615234,450.000000,3.000000,,,,0.000000,4.000000,4.000000,4.000000,4.000000,4.000000,,,,,,,,,,,,,,,,,,,,,,,,,
1577423065.570945,73.000000,0.000000,4221.025879,4307.692383,4069.743652,4121.538574,4222.051270,16166.000000,3.000000,,,,0.000000,4.000000,4.000000,4.000000,4.000000,4.000000,,,,,,,,,,,,,,,,,,,,,,,,,
1577423065.578649,74.000000,0.000000,4235.384766,4312.820313,4080.512939,4141.025879,4240.512695,450.000000,3.000000,,,,0.000000,4.000000,4.000000,4.000000,4.000000,4.000000,,,,,,,,,,,,,,,,,,,,,,,,,
1577423065.586453,75.000000,0.000000,4275.897461,4333.846191,4106.153809,4177.436035,4268.205078,16222.000000,3.000000,,,,0.000000,4.000000,4.000000,4.000000,4.000000,4.000000,,,,,,,,,,,,,,,,,,,,,,,,,
1577423065.594157,76.000000,0.000000,4292.307617,4342.563965,4125.641113,4187.179688,4277.436035,450.000000,3.000000,,,,0.000000,4.000000,4.000000,4.000000,4.000000,4.000000,,,,,,,,,,,,,,,,,,,,,,,,,
1577423065.601960,77.000000,0.000000,4287.692383,4333.333496,4129.230957,4181.025879,4268.205078,450.000000,3.000000,,,,0.000000,4.000000,4.000000,4.000000,4.000000,4.000000,,,,,,,,,,,,,,,,,,,,,,,,,
1577423065.609664,78.000000,0.000000,4277.948730,4320.000000,4117.436035,4172.820313,4255.897461,450.000000,3.000000,,,,0.000000,4.000000,4.000000,4.000000,4.000000,4.000000,,,,,,,,,,,,,,,,,,,,,,,,,
1577423065.617467,79.000000,0.000000,4265.128418,4321.538574,4109.230957,4162.051270,4248.205078,16222.000000,3.000000,,,,0.000000,4.000000,4.000000,4.000000,4.000000,4.000000,,,,,,,,,,,,,,,,,,,,,,,,,
1577423065.625171,80.000000,0.000000,4253.846191,4327.692383,4108.717773,4156.922852,4241.025879,450.000000,3.000000,,,,0.000000,4.000000,4.000000,4.000000,4.000000,4.000000,,,,,,,,,,,,,,,,,,,,,,,,,
1577423065.632973,81.000000,0.000000,4253.333496,4323.077148,4110.256348,4161.025879,4245.128418,450.000000,3.000000,,,,0.000000,4.000000,4.000000,4.000000,4.000000,4.000000,,,,,,,,,,,,,,,,,,,,,,,,,
1577423065.640776,82.000000,0.000000,4260.000000,4326.153809,4113.846191,4168.205078,4255.897461,450.000000,3.000000,,,,0.000000,4.000000,4.000000,4.000000,4.000000,4.000000,,,,,,,,,,,,,,,,,,,,,,,,,
1577423065.648475,83.000000,0.000000,4250.769043,4321.025879,4093.846191,4154.358887,4237.948730,16222.000000,3.000000,,,,0.000000,4.000000,4.000000,4.000000,4.000000,4.000000,,,,,,,,,,,,,,,,,,,,,,,,,
1577423065.656178,84.000000,0.000000,4241.025879,4315.384766,4077.435791,4151.794922,4225.128418,450.000000,3.000000,,,,0.000000,4.000000,4.000000,4.000000,4.000000,4.000000,,,,,,,,,,,,,,,,,,,,,,,,,
1577423065.663980,85.000000,0.000000,4244.615234,4324.615234,4085.641113,4161.025879,4231.282227,450.000000,3.000000,,,,0.000000,4.000000,4.000000,4.000000,4.000000,4.000000,7.142364,2.317368,1.207083,1.386093,0.629478,1.006550,1.640693,0.434007,0.804717,0.723822,6.416028,2.705337,1.025615,0.762522,0.457548,5.314298,2.081520,1.025613,1.305168,0.473335,8.607708,1.739322,0.748244,1.257562,0.572009
1577423065.671682,86.000000,0.000000,4230.769043,4317.436035,4073.333252,4140.000000,4219.487305,450.000000,3.000000,,,,0.000000,4.000000,4.000000,4.000000,4.000000,4.000000,,,,,,,,,,,,,,,,,,,,,,,,,
1577423065.679484,87.000000,0.000000,4221.025879,4305.128418,4069.743652,4132.820313,4219.487305,16222.000000,3.000000,,,,0.000000,4.000000,4.000000,4.000000,4.000000,4.000000,,,,,,,,,,,,,,,,,,,,,,,,,
1577423065.687185,88.000000,0.000000,4229.743652,4309.230957,4091.281982,4149.230957,4230.256348,450.000000,3.000000,,,,0.000000,4.000000,4.000000,4.000000,4.000000,4.000000,,,,,,,,,,,,,,,,,,,,,,,,,
1577423065.694987,89.000000,0.000000,4238.461426,4321.538574,4102.051270,4158.974121,4238.461426,450.000000,3.000000,,,,0.000000,4.000000,4.000000,4.000000,4.000000,4.000000,,,,,,,,,,,,,,,,,,,,,,,,,
1577423065.702688,90.000000,0.000000,4243.077148,4327.179688,4102.563965,4158.461426,4247.179688,450.000000,3.000000,,,,0.000000,4.000000,4.000000,4.000000,4.000000,4.000000,,,,,,,,,,,,,,,,,,,,,,,,,
1577423065.710393,91.000000,0.000000,4228.205078,4313.333496,4087.179443,4142.563965,4232.307617,16222.000000,3.000000,,,,0.000000,4.000000,4.000000,4.000000,4.000000,4.000000,,,,,,,,,,,,,,,,,,,,,,,,,
1577423065.718198,92.000000,0.000000,4223.589844,4314.871582,4086.666748,4144.615234,4220.000000,450.000000,3.000000,,,,0.000000,4.000000,4.000000,4.000000,4.000000,4.000000,,,,,,,,,,,,,,,,,,,,,,,,,
1577423065.726003,93.000000,0.000000,4245.641113,4335.897461,4118.461426,4163.589844,4228.717773,450.000000,3.000000,,,,0.000000,4.000000,4.000000,4.000000,4.000000,4.000000,,,,,,,,,,,,,,,,,,,,,,,,,
1577423065.733703,94.000000,0.000000,4245.128418,4327.179688,4129.743652,4156.410156,4234.358887,450.000000,3.000000,,,,0.000000,4.000000,4.000000,4.000000,4.000000,4.000000,,,,,,,,,,,,,,,,,,,,,,,,,
1577423065.741504,95.000000,0.000000,4229.230957,4313.846191,4118.461426,4141.025879,4227.692383,16222.000000,3.000000,,,,0.000000,4.000000,4.000000,4.000000,4.000000,4.000000,,,,,,,,,,,,,,,,,,,,,,,,,
1577423065.749204,96.000000,0.000000,4224.615234,4329.230957,4121.025879,4136.922852,4214.871582,450.000000,3.000000,,,,0.000000,4.000000,4.000000,4.000000,4.000000,4.000000,,,,,,,,,,,,,,,,,,,,,,,,,
1577423065.757004,97.000000,0.000000,4222.051270,4330.769043,4134.358887,4132.307617,4213.333496,450.000000,3.000000,,,,0.000000,4.000000,4.000000,4.000000,4.000000,4.000000,,,,,,,,,,,,,,,,,,,,,,,,,
1577423065.764705,98.000000,0.000000,4215.384766,4312.307617,4146.666504,4132.307617,4211.794922,450.000000,3.000000,,,,0.000000,4.000000,4.000000,4.000000,4.000000,4.000000,,,,,,,,,,,,,,,,,,,,,,,,,
1577423065.772505,99.000000,0.000000,4217.948730,4312.307617,4152.820313,4138.974121,4211.794922,16222.000000,3.000000,,,,0.000000,4.000000,4.000000,4.000000,4.000000,4.000000,,,,,,,,,,,,,,,,,,,,,,,,,
1577423065.780205,100.000000,0.000000,4228.717773,4326.153809,4149.743652,4142.051270,4220.512695,450.000000,3.000000,,,,0.000000,4.000000,4.000000,4.000000,4.000000,4.000000,,,,,,,,,,,,,,,,,,,,,,,,,
1577423065.788005,101.000000,0.000000,4217.948730,4322.563965,4148.205078,4137.436035,4209.743652,450.000000,3.000000,,,,0.000000,4.000000,4.000000,4.000000,4.000000,4.000000,6.961187,2.226810,0.982921,1.515574,0.629532,1.239431,1.477240,0.396384,0.899587,0.739977,6.644502,2.584835,0.841543,0.852356,0.462748,5.117713,1.587446,0.917064,1.349726,0.498370,7.982363,1.933607,0.654009,1.346673,0.578273
1577423065.795705,102.000000,0.000000,4216.922852,4321.025879,4164.615234,4142.051270,4212.307617,450.000000,3.000000,,,,0.000000,4.000000,4.000000,4.000000,4.000000,4.000000,,,,,,,,,,,,,,,,,,,,,,,,,
1577423065.803505,103.000000,0.000000,4249.743652,4336.410156,4189.230957,4162.563965,4244.102539,16222.000000,3.000000,,,,0.000000,4.000000,4.000000,4.000000,4.000000,4.000000,,,,,,,,,,,,,,,,,,,,,,,,,
1577423065.811205,104.000000,0.000000,4272.307617,4343.077148,4194.871582,4180.512695,4258.461426,450.000000,3.000000,,,,0.000000,4.000000,4.000000,4.000000,4.000000,4.000000,,,,,,,,,,,,,,,,,,,,,,,,,
1577423065.819004,105.000000,0.000000,4288.717773,4346.153809,4201.538574,4194.871582,4264.615234,450.000000,3.000000,,,,0.000000,4.000000,4.000000,4.000000,4.000000,4.000000,,,,,,,,,,,,,,,,,,,,,,,,,
1577423065.826703,106.000000,0.000000,4307.179688,4344.615234,4215.897461,4201.538574,4271.794922,450.000000,3.000000,,,,0.000000,4.000000,4.000000,4.000000,4.000000,4.000000,,,,,,,,,,,,,,,,,,,,,,,,,
1577423065.834406,107.000000,0.000000,4309.230957,4340.000000,4210.256348,4197.436035,4273.333496,16222.000000,3.000000,,,,0.000000,4.000000,4.000000,4.000000,4.000000,4.000000,,,,,,,,,,,,,,,,,,,,,,,,,
1577423065.842209,108.000000,0.000000,4292.820313,4338.461426,4184.102539,4188.205078,4263.589844,450.000000,3.000000,,,,0.000000,4.000000,4.000000,4.000000,4.000000,4.000000,,,,,,,,,,,,,,,,,,,,,,,,,
1577423065.850011,109.000000,0.000000,4256.922852,4318.974121,4144.615234,4158.461426,4231.794922,450.000000,3.000000,,,,0.000000,4.000000,4.000000,4.000000,4.000000,4.000000,,,,,,,,,,,,,,,,,,,,,,,,,
1577423065.857710,110.000000,0.000000,4236.410156,4307.692383,4130.769043,4139.487305,4213.846191,450.000000,3.000000,,,,0.000000,4.000000,4.000000,4.000000,4.000000,4.000000,,,,,,,,,,,,,,,,,,,,,,,,,
1577423065.865412,111.000000,0.000000,4247.179688,4315.897461,4146.666504,4154.871582,4226.153809,16222.000000,3.000000,,,,0.000000,4.000000,4.000000,4.000000,4.000000,4.000000,,,,,,,,,,,,,,,,,,,,,,,,,
1577423065.873214,112.000000,0.000000,4261.025879,4320.512695,4146.666504,4168.205078,4236.410156,450.000000,3.000000,,,,0.000000,4.000000,4.000000,4.000000,4.000000,4.000000,,,,,,,,,,,,,,,,,,,,,,,,,
1577423065.880916,113.000000,0.000000,4263.077148,4322.051270,4132.307617,4167.692383,4234.871582,450.000000,3.000000,,,,0.000000,4.000000,4.000000,4.000000,4.000000,4.000000,,,,,,,,,,,,,,,,,,,,,,,,,
1577423065.888718,114.000000,0.000000,4241.538574,4310.256348,4117.948730,4156.922852,4223.589844,450.000000,3.000000,,,,0.000000,4.000000,4.000000,4.000000,4.000000,4.000000,,,,,,,,,,,,,,,,,,,,,,,,,
1577423065.896419,115.000000,0.000000,4221.538574,4302.051270,4103.077148,4145.128418,4204.615234,16222.000000,3.000000,,,,0.000000,4.000000,4.000000,4.000000,4.000000,4.000000,,,,,,,,,,,,,,,,,,,,,,,,,
1577423065.904221,116.000000,0.000000,4230.256348,4312.820313,4097.436035,4151.282227,4201.538574,450.000000,3.000000,,,,0.000000,4.000000,4.000000,4.000000,4.000000,4.000000,,,,,,,,,,,,,,,,,,,,,,,,,
1577423065.911922,117.000000,0.000000,4245.641113,4312.820313,4112.307617,4167.692383,4225.641113,450.000000,3.000000,,,,0.000000,4.000000,4.000000,4.000000,4.000000,4.000000,7.190842,2.411382,0.941722,1.556782,0.629948,1.700028,1.383393,0.378541,0.957080,0.731303,7.471185,2.510374,0.695949,0.943282,0.466703,5.351426,1.326553,0.908857,1.331074,0.529365,7.612555,2.387850,0.687585,1.398527,0.587165
1577423065.919722,118.000000,0.000000,4243.077148,4303.589844,4127.179688,4173.846191,4231.794922,450.000000,3.000000,,,,0.000000,4.000000,4.000000,4.000000,4.000000,4.000000,,,,,,,,,,,,,,,,,,,,,,,,,
1577423065.927423,119.000000,0.000000,4232.307617,4298.974121,4116.922852,4165.128418,4214.871582,16222.000000,3.000000,,,,0.000000,4.000000,4.000000,4.000000,4.000000,4.000000,,,,,,,,,,,,,,,,,,,,,,,,,
1577423065.935224,120.000000,0.000000,4241.538574,4304.615234,4122.563965,4170.256348,4227.179688,450.000000,3.000000,,,,0.000000,4.000000,4.000000,4.000000,4.000000,4.000000,,,,,,,,,,,,,,,,,,,,,,,,,
1577423065.942924,121.000000,0.000000,4244.615234,4307.692383,4135.384766,4175.384766,4232.820313,450.000000,3.000000,,,,0.000000,4.000000,4.000000,4.000000,4.000000,4.000000,,,,,,,,,,,,,,,,,,,,,,,,,
1577423065.950628,122.000000,0.000000,4227.692383,4304.615234,4125.641113,4162.563965,4211.282227,450.000000,3.000000,,,,0.000000,4.000000,4.000000,4.000000,4.000000,4.000000,,,,,,,,,,,,,,,,,,,,,,,,,
1577423065.958432,123.000000,0.000000,4237.948730,4313.333496,4138.974121,4168.717773,4219.487305,16222.000000,3.000000,,,,0.000000,4.000000,4.000000,4.000000,4.000000,4.000000,,,,,,,,,,,,,,,,,,,,,,,,,
1577423065.966237,124.000000,0.000000,4252.820313,4329.743652,4160.000000,4180.512695,4236.410156,450.000000,3.000000,,,,0.000000,4.000000,4.000000,4.000000,4.000000,4.000000,,,,,,,,,,,,,,,,,,,,,,,,,
1577423065.973937,125.000000,0.000000,4254.871582,4340.000000,4168.205078,4187.179688,4246.666504,450.000000,3.000000,,,,0.000000,4.000000,4.000000,4.000000,4.000000,4.000000,,,,,,,,,,,,,,,,,,,,,,,,,
1577423065.981640,126.000000,0.000000,4270.769043,4338.461426,4183.589844,4193.333496,4263.077148,450.000000,3.000000,,,,0.000000,4.000000,4.000000,4.000000,4.000000,4.000000,,,,,,,,,,,,,,,,,,,,,,,,,
1577423065.989443,127.000000,0.000000,4276.922852,4329.230957,4184.615234,4183.589844,4258.974121,233.000000,3.000000,,,,0.000000,4.000000,4.000000,4.000000,4.000000,4.000000,,,,,,,,,,,,,,,,,,,,,,,,,
1577423065.997146,0.000000,0.000000,4266.153809,4337.948730,4181.025879,4184.102539,4244.102539,450.000000,3.000000,,,,0.000000,4.000000,4.000000,4.000000,4.000000,4.000000,,,,,,,,,,,,,,,,,,,,,,,,,
1577423066.004853,1.000000,0.000000,4245.641113,4329.743652,4168.717773,4169.743652,4225.128418,450.000000,3.000000,,,,0.000000,4.000000,4.000000,4.000000,4.000000,4.000000,,,,,,,,,,,,,,,,,,,,,,,,,
1577423066.012659,2.000000,0.000000,4218.974121,4300.000000,4144.102539,4140.512695,4207.179688,16226.000000,3.000000,,,,0.000000,4.000000,4.000000,4.000000,4.000000,4.000000,,,,,,,,,,,,,,,,,,,,,,,,,
1577423066.020366,3.000000,0.000000,4225.128418,4312.820313,4155.384766,4158.974121,4214.871582,450.000000,3.000000,,,,0.000000,4.000000,4.000000,4.000000,4.000000,4.000000,,,,,,,,,,,,,,,,,,,,,,,,,
1577423066.028172,4.000000,0.000000,4242.051270,4330.256348,4174.358887,4177.948730,4230.769043,16203.000000,3.000000,,,,0.000000,4.000000,4.000000,4.000000,4.000000,4.000000,,,,,,,,,,,,,,,,,,,,,,,,,
1577423066.035878,5.000000,0.000000,4240.512695,4313.846191,4160.000000,4160.000000,4234.358887,450.000000,3.000000,,,,0.000000,4.000000,4.000000,4.000000,4.000000,4.000000,8.055145,3.039455,1.180024,1.532958,0.627880,2.394706,1.422303,0.390595,0.969875,0.698868,9.037148,2.542289,0.623726,1.033132,0.471873,5.993063,1.442110,1.049743,1.270667,0.563687,7.817098,3.162501,0.854794,1.418991,0.590697
1577423066.043684,6.000000,0.000000,4241.025879,4309.230957,4146.153809,4151.794922,4229.230957,16162.000000,3.000000,,,,0.000000,4.000000,4.000000,4.000000,4.000000,4.000000,,,,,,,,,,,,,,,,,,,,,,,,,
1577423066.051490,7.000000,0.000000,4242.051270,4313.846191,4147.179688,4160.512695,4227.179688,450.000000,3.000000,,,,0.000000,4.000000,4.000000,4.000000,4.000000,4.000000,,,,,,,,,,,,,,,,,,,,,,,,,
1577423066.059192,8.000000,0.000000,4236.922852,4310.256348,4145.128418,4156.922852,4227.692383,450.000000,3.000000,,,,0.000000,4.000000,4.000000,4.000000,4.000000,4.000000,,,,,,,,,,,,,,,,,,,,,,,,,
1577423066.066897,9.000000,0.000000,4222.563965,4309.230957,4127.179688,4135.897461,4213.846191,16143.000000,3.000000,,,,0.000000,4.000000,4.000000,4.000000,4.000000,4.000000,,,,,,,,,,,,,,,,,,,,,,,,,
1577423066.074703,10.000000,0.000000,4209.230957,4308.205078,4112.307617,4130.256348,4203.077148,450.000000,3.000000,,,,0.000000,4.000000,4.000000,4.000000,4.000000,4.000000,,,,,,,,,,,,,,,,,,,,,,,,,
1577423066.082408,11.000000,0.000000,4220.512695,4308.205078,4121.538574,4148.205078,4206.153809,16210.000000,3.000000,,,,0.000000,4.000000,4.000000,4.000000,4.000000,4.000000,,,,,,,,,,,,,,,,,,,,,,,,,
1577423066.090214,12.000000,0.000000,4236.922852,4312.820313,4131.282227,4153.333496,4209.743652,450.000000,3.000000,,,,0.000000,4.000000,4.000000,4.000000,4.000000,4.000000,,,,,,,,,,,,,,,,,,,,,,,,,
1577423066.097919,13.000000,0.000000,4238.974121,4313.333496,4132.820313,4149.230957,4214.871582,450.000000,3.000000,,,,0.000000,4.000000,4.000000,4.000000,4.000000,4.000000,,,,,,,,,,,,,,,,,,,,,,,,,
1577423066.105724,14.000000,0.000000,4233.333496,4307.692383,4138.974121,4150.256348,4210.256348,450.000000,3.000000,,,,0.000000,4.000000,4.000000,4.000000,4.000000,4.000000,,,,,,,,,,,,,,,,,,,,,,,,,
1577423066.113429,15.000000,0.000000,4232.820313,4308.205078,4139.487305,4147.692383,4209.743652,16210.000000,3.000000,,,,0.000000,4.000000,4.000000,4.000000,4.000000,4.000000,,,,,,,,,,,,,,,,,,,,,,,,,
1577423066.121234,16.000000,0.000000,4245.128418,4319.487305,4146.153809,4149.743652,4223.589844,0.000000,3.000000,,,,0.000000,4.000000,4.000000,4.000000,4.000000,4.000000,,,,,,,,,,,,,,,,,,,,,,,,,
1577423066.128938,17.000000,0.000000,4257.948730,4332.820313,4162.051270,4166.153809,4237.436035,0.000000,3.000000,,,,0.000000,4.000000,4.000000,4.000000,4.000000,4.000000,,,,,,,,,,,,,,,,,,,,,,,,,
1577423066.136646,18.000000,0.000000,4271.282227,4340.512695,4173.846191,4185.128418,4254.358887,0.000000,3.000000,,,,0.000000,4.000000,4.000000,4.000000,4.000000,4.000000,,,,,,,,,,,,,,,,,,,,,,,,,
1577423066.144453,19.000000,0.000000,4279.487305,4334.358887,4175.897461,4188.205078,4260.512695,0.000000,3.000000,,,,0.000000,4.000000,4.000000,4.000000,4.000000,4.000000,,,,,,,,,,,,,,,,,,,,,,,,,
1577423066.152161,20.000000,0.000000,4289.230957,4330.769043,4182.051270,4189.230957,4262.051270,0.000000,3.000000,,,,0.000000,4.000000,4.000000,4.000000,4.000000,4.000000,,,,,,,,,,,,,,,,,,,,,,,,,
1577423066.159968,21.000000,0.000000,4302.563965,4338.974121,4192.820313,4198.974121,4269.743652,0.000000,3.000000,,,,0.000000,4.000000,4.000000,4.000000,4.000000,4.000000,9.536176,4.195403,1.683780,1.505268,0.623727,3.258847,1.599170,0.434537,0.940757,0.651895,11.755299,2.767297,0.630473,1.138476,0.483569,6.858929,2.007166,1.313835,1.217274,0.597920,8.494709,4.228147,1.104812,1.437408,0.586637
1577423066.167775,22.000000,0.000000,4289.743652,4325.641113,4174.871582,4185.641113,4256.410156,0.000000,3.000000,,,,0.000000,4.000000,4.000000,4.000000,4.000000,4.000000,,,,,,,,,,,,,,,,,,,,,,,,,
1577423066.175479,23.000000,0.000000,4267.692383,4304.102539,4148.717773,4163.589844,4238.461426,0.000000,3.000000,,,,0.000000,4.000000,4.000000,4.000000,4.000000,4.000000,,,,,,,,,,,,,,,,,,,,,,,,,
1577423066.183185,24.000000,0.000000,4251.794922,4301.538574,4140.000000,4161.025879,4224.102539,0.000000,3.000000,,,,0.000000,4.000000,4.000000,4.000000,4.000000,4.000000,,,,,,,,,,,,,,,,,,,,,,,,,
1577423066.190992,25.000000,0.000000,4238.461426,4309.230957,4129.743652,4158.974121,4213.333496,0.000000,3.000000,,,,0.000000,4.000000,4.000000,4.000000,4.000000,4.000000,,,,,,,,,,,,,,,,,,,,,,,,,
1577423066.198798,26.000000,0.000000,4242.563965,4309.743652,4128.717773,4157.948730,4222.051270,0.000000,3.000000,,,,0.000000,4.000000,4.000000,4.000000,4.000000,4.000000,,,,,,,,,,,,,,,,,,,,,,,,,
1577423066.206501,27.000000,0.000000,4240.512695,4295.897461,4129.743652,4155.384766,4222.563965,0.000000,3.000000,,,,0.000000,4.000000,4.000000,4.000000,4.000000,4.000000,,,,,,,,,,,,,,,,,,,,,,,,,
1577423066.214208,28.000000,0.000000,4240.512695,4304.102539,4129.743652,4158.974121,4217.948730,0.000000,3.000000,,,,0.000000,4.000000,4.000000,4.000000,4.000000,4.000000,,,,,,,,,,,,,,,,,,,,,,,,,
1577423066.222014,29.000000,0.000000,4248.717773,4321.025879,4134.871582,4168.205078,4221.025879,0.000000,3.000000,,,,0.000000,4.000000,4.000000,4.000000,4.000000,4.000000,,,,,,,,,,,,,,,,,,,,,,,,,
1577423066.229821,30.000000,0.000000,4243.077148,4302.051270,4131.794922,4166.153809,4218.974121,0.000000,3.000000,,,,0.000000,4.000000,4.000000,4.000000,4.000000,4.000000,,,,,,,,,,,,,,,,,,,,,,,,,
1577423066.237523,31.000000,0.000000,4235.384766,4289.743652,4125.641113,4164.615234,4213.333496,0.000000,3.000000,,,,0.000000,4.000000,4.000000,4.000000,4.000000,4.000000,,,,,,,,,,,,,,,,,,,,,,,,,
1577423066.245325,32.000000,0.000000,4228.717773,4300.000000,4116.410156,4159.487305,4204.615234,0.000000,3.000000,,,,0.000000,4.000000,4.000000,4.000000,4.000000,4.000000,,,,,,,,,,,,,,,,,,,,,,,,,
1577423066.253027,33.000000,0.000000,4235.897461,4306.153809,4120.000000,4165.128418,4214.871582,0.000000,3.000000,,,,0.000000,4.000000,4.000000,4.000000,4.000000,4.000000,,,,,,,,,,,,,,,,,,,,,,,,,
1577423066.260733,34.000000,0.000000,4250.256348,4302.563965,4130.769043,4175.384766,4232.307617,0.000000,3.000000,,,,0.000000,4.000000,4.000000,4.000000,4.000000,4.000000,,,,,,,,,,,,,,,,,,,,,,,,,
1577423066.268538,35.000000,0.000000,4234.358887,4296.410156,4120.512695,4156.922852,4223.589844,0.000000,3.000000,,,,0.000000,4.000000,4.000000,4.000000,4.000000,4.000000,,,,,,,,,,,,,,,,,,,,,,,,,
1577423066.276243,36.000000,0.000000,4214.358887,4296.922852,4116.922852,4143.077148,4208.205078,0.000000,3.000000,,,,0.000000,4.000000,4.000000,4.000000,4.000000,4.000000,,,,,,,,,,,,,,,,,,,,,,,,,
1577423066.284049,37.000000,0.000000,4208.205078,4282.051270,4112.820313,4141.025879,4193.846191,0.000000,3.000000,,,,0.000000,4.000000,4.000000,4.000000,4.000000,4.000000,11.421614,5.679090,2.346433,1.545161,0.619868,4.207220,1.836734,0.510823,0.880820,0.602678,15.819517,3.143087,0.715989,1.281476,0.507032,7.715926,2.912432,1.630676,1.220229,0.627347,9.384617,5.348293,1.374985,1.492604,0.577431
1577423066.291754,38.000000,0.000000,4215.384766,4282.563965,4104.615234,4138.461426,4195.384766,0.000000,3.000000,,,,0.000000,4.000000,4.000000,4.000000,4.000000,4.000000,,,,,,,,,,,,,,,,,,,,,,,,,
1577423066.299558,39.000000,0.000000,4240.512695,4307.179688,4120.000000,4149.230957,4217.436035,0.000000,3.000000,,,,0.000000,4.000000,4.000000,4.000000,4.000000,4.000000,,,,,,,,,,,,,,,,,,,,,,,,,
1577423066.307263,40.000000,0.000000,4241.025879,4297.436035,4122.051270,4148.717773,4222.563965,0.000000,3.000000,,,,0.000000,4.000000,4.000000,4.000000,4.000000,4.000000,,,,,,,,,,,,,,,,,,,,,,,,,
1577423066.315068,41.000000,0.000000,4227.179688,4294.358887,4110.256348,4145.641113,4223.077148,0.000000,3.000000,,,,0.000000,4.000000,4.000000,4.000000,4.000000,4.000000,,,,,,,,,,,,,,,,,,,,,,,,,
1577423066.322772,42.000000,0.000000,4227.692383,4315.897461,4113.333496,4151.282227,4228.205078,0.000000,3.000000,,,,0.000000,4.000000,4.000000,4.000000,4.000000,4.000000,,,,,,,,,,,,,,,,,,,,,,,,,
1577423066.330576,43.000000,0.000000,4226.153809,4306.666504,4117.436035,4154.871582,4223.077148,0.000000,3.000000,,,,0.000000,4.000000,4.000000,4.000000,4.000000,4.000000,,,,,,,,,,,,,,,,,,,,,,,,,
1577423066.338280,44.000000,0.000000,4226.666504,4301.538574,4118.461426,4156.410156,4221.025879,0.000000,3.000000,,,,0.000000,4.000000,4.000000,4.000000,4.000000,4.000000,,,,,,,,,,,,,,,,,,,,,,,,,
1577423066.346084,45.000000,0.000000,4220.000000,4315.897461,4109.743652,4142.051270,4220.000000,0.000000,3.000000,,,,0.000000,4.000000,4.000000,4.000000,4.000000,4.000000,,,,,,,,,,,,,,,,,,,,,,,,,
1577423066.353787,46.000000,0.000000,4220.000000,4316.922852,4113.333496,4145.128418,4224.102539,0.000000,3.000000,,,,0.000000,4.000000,4.000000,4.000000,4.000000,4.000000,,,,,,,,,,,,,,,,,,,,,,,,,
1577423066.361591,47.000000,0.000000,4237.948730,4318.461426,4138.461426,4171.794922,4235.897461,0.000000,3.000000,,,,0.000000,4.000000,4.000000,4.000000,4.000000,4.000000,,,,,,,,,,,,,,,,,,,,,,,,,
1577423066.369294,48.000000,0.000000,4239.487305,4327.692383,4146.153809,4167.692383,4240.512695,0.000000,3.000000,,,,0.000000,4.000000,4.000000,4.000000,4.000000,4.000000,,,,,,,,,,,,,,,,,,,,,,,,,
1577423066.377097,49.000000,0.000000,4240.512695,4333.333496,4140.512695,4160.000000,4240.512695,0.000000,3.000000,,,,0.000000,4.000000,4.000000,4.000000,4.000000,4.000000,,,,,,,,,,,,,,,,,,,,,,,,,
1577423066.384800,50.000000,0.000000,4249.230957,4325.641113,4136.922852,4165.128418,4238.461426,0.000000,3.000000,,,,0.000000,4.000000,4.000000,4.000000,4.000000,4.000000,,,,,,,,,,,,,,,,,,,,,,,,,
1577423066.392506,51.000000,0.000000,4241.538574,4316.922852,4136.922852,4159.487305,4233.846191,0.000000,3.000000,,,,0.000000,4.000000,4.000000,4.000000,4.000000,4.000000,,,,,,,,,,,,,,,,,,,,,,,,,
1577423066.400313,52.000000,0.000000,4229.743652,4324.615234,4142.563965,4152.307617,4226.666504,0.000000,3.000000,,,,0.000000,4.000000,4.000000,4.000000,4.000000,4.000000,,,,,,,,,,,,,,,,,,,,,,,,,
1577423066.408119,53.000000,0.000000,4222.051270,4327.179688,4132.820313,4150.256348,4217.948730,0.000000,3.000000,,,,0.000000,4.000000,4.000000,4.000000,4.000000,4.000000,13.314700,7.091505,3.011272,1.693866,0.618901,5.051134,2.028424,0.631839,0.802480,0.562639,21.059019,3.532375,0.866146,1.463802,0.543352,8.362011,3.934920,1.921535,1.298248,0.647907,10.147741,6.236175,1.620122,1.606061,0.568603
1577423066.415822,54.000000,0.000000,4212.820313,4310.256348,4118.974121,4145.641113,4211.282227,0.000000,3.000000,,,,0.000000,4.000000,4.000000,4.000000,4.000000,4.000000,,,,,,,,,,,,,,,,,,,,,,,,,
1577423066.423528,55.000000,0.000000,4209.230957,4296.922852,4120.512695,4138.974121,4203.589844,0.000000,3.000000,,,,0.000000,4.000000,4.000000,4.000000,4.000000,4.000000,,,,,,,,,,,,,,,,,,,,,,,,,
1577423066.431334,56.000000,0.000000,4206.666504,4312.820313,4123.077148,4137.948730,4202.051270,0.000000,3.000000,,,,0.000000,4.000000,4.000000,4.000000,4.000000,4.000000,,,,,,,,,,,,,,,,,,,,,,,,,
1577423066.439040,57.000000,0.000000,4196.410156,4328.205078,4116.410156,4133.846191,4193.333496,0.000000,3.000000,,,,0.000000,4.000000,4.000000,4.000000,4.000000,4.000000,,,,,,,,,,,,,,,,,,,,,,,,,
1577423066.446845,58.000000,0.000000,4190.769043,4304.102539,4115.384766,4126.153809,4180.000000,0.000000,3.000000,,,,0.000000,4.000000,4.000000,4.000000,4.000000,4.000000,,,,,,,,,,,,,,,,,,,,,,,,,
1577423066.454551,59.000000,0.000000,4198.974121,4277.948730,4125.128418,4128.205078,4184.102539,0.000000,3.000000,,,,0.000000,4.000000,4.000000,4.000000,4.000000,4.000000,,,,,,,,,,,,,,,,,,,,,,,,,
1577423066.462357,60.000000,0.000000,4199.487305,4285.128418,4126.153809,4128.717773,4182.051270,0.000000,3.000000,,,,0.000000,4.000000,4.000000,4.000000,4.000000,4.000000,,,,,,,,,,,,,,,,,,,,,,,,,
1577423066.470062,61.000000,0.000000,4203.589844,4298.974121,4125.128418,4131.282227,4185.641113,0.000000,3.000000,,,,0.000000,4.000000,4.000000,4.000000,4.000000,4.000000,,,,,,,,,,,,,,,,,,,,,,,,,
1577423066.477867,62.000000,0.000000,4213.846191,4300.000000,4138.974121,4135.897461,4197.436035,0.000000,3.000000,,,,0.000000,4.000000,4.000000,4.000000,4.000000,4.000000,,,,,,,,,,,,,,,,,,,,,,,,,
1577423066.485572,63.000000,0.000000,4195.384766,4292.820313,4140.512695,4121.538574,4170.769043,0.000000,3.000000,,,,0.000000,4.000000,4.000000,4.000000,4.000000,4.000000,,,,,,,,,,,,,,,,,,,,,,,,,
1577423066.493377,64.000000,0.000000,4182.563965,4299.487305,4142.051270,4116.922852,4157.436035,450.000000,3.000000,,,,0.000000,4.000000,4.000000,4.000000,4.000000,4.000000,,,,,,,,,,,,,,,,,,,,,,,,,
1577423066.501081,65.000000,0.000000,4190.769043,4310.256348,4162.051270,4132.820313,4172.307617,450.000000,3.000000,,,,0.000000,4.000000,4.000000,4.000000,4.000000,4.000000,,,,,,,,,,,,,,,,,,,,,,,,,
1577423066.508886,66.000000,0.000000,4181.025879,4298.974121,4166.153809,4126.153809,4168.205078,16245.000000,3.000000,,,,0.000000,4.000000,4.000000,4.000000,4.000000,4.000000,,,,,,,,,,,,,,,,,,,,,,,,,
1577423066.516590,67.000000,0.000000,4170.769043,4297.436035,4165.128418,4113.333496,4159.487305,450.000000,3.000000,,,,0.000000,4.000000,4.000000,4.000000,4.000000,4.000000,,,,,,,,,,,,,,,,,,,,,,,,,
1577423066.524394,68.000000,0.000000,4175.897461,4310.256348,4179.487305,4121.538574,4160.000000,16198.000000,3.000000,,,,0.000000,4.000000,4.000000,4.000000,4.000000,4.000000,,,,,,,,,,,,,,,,,,,,,,,,,
1577423066.532098,69.000000,0.000000,4195.384766,4321.538574,4195.897461,4137.436035,4177.948730,450.000000,3.000000,,,,0.000000,4.000000,4.000000,4.000000,4.000000,4.000000,14.808303,8.068306,3.549444,1.931583,0.619548,5.686395,2.115618,0.795420,0.716021,0.540689,26.754288,3.808010,1.051920,1.654462,0.586042,8.694162,4.818086,2.117718,1.424711,0.656679,10.603374,6.721745,1.826749,1.765379,0.561987
1577423066.539902,70.000000,0.000000,4208.717773,4319.487305,4201.538574,4141.025879,4189.743652,16136.000000,3.000000,,,,0.000000,4.000000,4.000000,4.000000,4.000000,4.000000,,,,,,,,,,,,,,,,,,,,,,,,,
1577423066.547605,71.000000,0.000000,4195.897461,4300.512695,4192.820313,4129.743652,4177.948730,450.000000,3.000000,,,,0.000000,4.000000,4.000000,4.000000,4.000000,4.000000,,,,,,,,,,,,,,,,,,,,,,,,,
1577423066.555312,72.000000,0.000000,4196.410156,4306.666504,4193.333496,4131.282227,4184.102539,450.000000,3.000000,,,,0.000000,4.000000,4.000000,4.000000,4.000000,4.000000,,,,,,,,,,,,,,,,,,,,,,,,,
1577423066.563119,73.000000,0.000000,4198.974121,4317.948730,4187.692383,4126.666504,4187.179688,16144.000000,3.000000,,,,0.000000,4.000000,4.000000,4.000000,4.000000,4.000000,,,,,,,,,,,,,,,,,,,,,,,,,
1577423066.570825,74.000000,0.000000,4185.641113,4310.256348,4171.282227,4111.282227,4172.820313,450.000000,3.000000,,,,0.000000,4.000000,4.000000,4.000000,4.000000,4.000000,,,,,,,,,,,,,,,,,,,,,,,,,
1577423066.578632,75.000000,0.000000,4196.410156,4317.948730,4182.563965,4123.589844,4177.948730,16194.000000,3.000000,,,,0.000000,4.000000,4.000000,4.000000,4.000000,4.000000,,,,,,,,,,,,,,,,,,,,,,,,,
1577423066.586338,76.000000,0.000000,4214.871582,4338.461426,4195.897461,4140.000000,4196.922852,450.000000,3.000000,,,,0.000000,4.000000,4.000000,4.000000,4.000000,4.000000,,,,,,,,,,,,,,,,,,,,,,,,,
1577423066.594145,77.000000,0.000000,4213.846191,4343.077148,4190.769043,4136.922852,4204.102539,450.000000,3.000000,,,,0.000000,4.000000,4.000000,4.000000,4.000000,4.000000,,,,,,,,,,,,,,,,,,,,,,,,,
1577423066.601851,78.000000,0.000000,4207.179688,4329.230957,4190.769043,4135.384766,4200.000000,450.000000,3.000000,,,,0.000000,4.000000,4.000000,4.000000,4.000000,4.000000,,,,,,,,,,,,,,,,,,,,,,,,,
1577423066.609656,79.000000,0.000000,4218.461426,4331.282227,4207.179688,4152.307617,4213.333496,16194.000000,3.000000,,,,0.000000,4.000000,4.000000,4.000000,4.000000,4.000000,,,,,,,,,,,,,,,,,,,,,,,,,
1577423066.617462,80.000000,0.000000,4235.897461,4344.102539,4221.025879,4154.871582,4227.692383,450.000000,3.000000,,,,0.000000,4.000000,4.000000,4.000000,4.000000,4.000000,,,,,,,,,,,,,,,,,,,,,,,,,
1577423066.625164,81.000000,0.000000,4233.333496,4333.333496,4213.846191,4145.128418,4224.102539,450.000000,3.000000,,,,0.000000,4.000000,4.000000,4.000000,4.000000,4.000000,,,,,,,,,,,,,,,,,,,,,,,,,
1577423066.632870,82.000000,0.000000,4241.538574,4327.179688,4219.487305,4171.794922,4231.794922,450.000000,3.000000,,,,0.000000,4.000000,4.000000,4.000000,4.000000,4.000000,,,,,,,,,,,,,,,,,,,,,,,,,
1577423066.640675,83.000000,0.000000,4251.282227,4335.384766,4230.769043,4189.230957,4235.384766,16194.000000,3.000000,,,,0.000000,4.000000,4.000000,4.000000,4.000000,4.000000,,,,,,,,,,,,,,,,,,,,,,,,,
1577423066.648480,84.000000,0.000000,4238.461426,4328.717773,4223.077148,4167.692383,4222.051270,450.000000,3.000000,,,,0.000000,4.000000,4.000000,4.000000,4.000000,4.000000,,,,,,,,,,,,,,,,,,,,,,,,,
1577423066.656182,85.000000,0.000000,4228.205078,4321.025879,4217.948730,4161.025879,4218.461426,450.000000,3.000000,,,,0.000000,4.000000,4.000000,4.000000,4.000000,4.000000,15.825589,8.390255,3.908384,2.185024,0.616091,6.099627,2.079176,0.964325,0.630899,0.541818,31.596733,3.900608,1.246536,1.798368,0.622273,8.792510,5.348320,2.180005,1.538748,0.652790,10.936766,6.763693,2.004883,1.929871,0.553007
1577423066.663887,86.000000,0.000000,4205.641113,4311.282227,4206.666504,4152.307617,4204.615234,450.000000,3.000000,,,,0.000000,4.000000,4.000000,4.000000,4.000000,4.000000,,,,,,,,,,,,,,,,,,,,,,,,,
1577423066.671692,87.000000,0.000000,4182.563965,4301.538574,4194.871582,4133.333496,4182.051270,16194.000000,3.000000,,,,0.000000,4.000000,4.000000,4.000000,4.000000,4.000000,,,,,,,,,,,,,,,,,,,,,,,,,
1577423066.679396,88.000000,0.000000,4202.051270,4314.871582,4205.128418,4146.153809,4194.871582,450.000000,3.000000,,,,0.000000,4.000000,4.000000,4.000000,4.000000,4.000000,,,,,,,,,,,,,,,,,,,,,,,,,
1577423066.687201,89.000000,0.000000,4215.897461,4314.358887,4209.743652,4152.820313,4209.743652,450.000000,3.000000,,,,0.000000,4.000000,4.000000,4.000000,4.000000,4.000000,,,,,,,,,,,,,,,,,,,,,,,,,
1577423066.694905,90.000000,0.000000,4189.743652,4297.436035,4196.922852,4132.820313,4184.102539,450.000000,3.000000,,,,0.000000,4.000000,4.000000,4.000000,4.000000,4.000000,,,,,,,,,,,,,,,,,,,,,,,,,
1577423066.702613,91.000000,0.000000,4178.461426,4306.153809,4190.256348,4132.307617,4166.153809,16194.000000,3.000000,,,,0.000000,4.000000,4.000000,4.000000,4.000000,4.000000,,,,,,,,,,,,,,,,,,,,,,,,,
1577423066.710421,92.000000,0.000000,4202.051270,4328.205078,4206.666504,4155.897461,4191.282227,450.000000,3.000000,,,,0.000000,4.000000,4.000000,4.000000,4.000000,4.000000,,,,,,,,,,,,,,,,,,,,,,,,,
1577423066.718229,93.000000,0.000000,4214.871582,4316.410156,4215.897461,4160.000000,4200.512695,450.000000,3.000000,,,,0.000000,4.000000,4.000000,4.000000,4.000000,4.000000,,,,,,,,,,,,,,,,,,,,,,,,,
1577423066.725932,94.000000,0.000000,4187.179688,4280.000000,4194.358887,4129.230957,4168.205078,450.000000,3.000000,,,,0.000000,4.000000,4.000000,4.000000,4.000000,4.000000,,,,,,,,,,,,,,,,,,,,,,,,,
1577423066.733736,95.000000,0.000000,4170.256348,4281.538574,4188.717773,4120.512695,4161.025879,16194.000000,3.000000,,,,0.000000,4.000000,4.000000,4.000000,4.000000,4.000000,,,,,,,,,,,,,,,,,,,,,,,,,
1577423066.741440,96.000000,0.000000,4183.077148,4302.051270,4198.461426,4130.256348,4175.384766,450.000000,3.000000,,,,0.000000,4.000000,4.000000,4.000000,4.000000,4.000000,,,,,,,,,,,,,,,,,,,,,,,,,
1577423066.749243,97.000000,0.000000,4183.077148,4298.974121,4196.410156,4128.717773,4171.794922,450.000000,3.000000,,,,0.000000,4.000000,4.000000,4.000000,4.000000,4.000000,,,,,,,,,,,,,,,,,,,,,,,,,
1577423066.756946,98.000000,0.000000,4184.102539,4297.948730,4208.205078,4137.948730,4169.230957,450.000000,3.000000,,,,0.000000,4.000000,4.000000,4.000000,4.000000,4.000000,,,,,,,,,,,,,,,,,,,,,,,,,
1577423066.764749,99.000000,0.000000,4197.948730,4304.615234,4222.563965,4146.666504,4177.436035,16194.000000,3.000000,,,,0.000000,4.000000,4.000000,4.000000,4.000000,4.000000,,,,,,,,,,,,,,,,,,,,,,,,,
1577423066.772452,100.000000,0.000000,4204.102539,4309.743652,4225.128418,4146.666504,4189.230957,450.000000,3.000000,,,,0.000000,4.000000,4.000000,4.000000,4.000000,4.000000,,,,,,,,,,,,,,,,,,,,,,,,,
1577423066.780256,101.000000,0.000000,4190.769043,4307.179688,4223.589844,4130.256348,4181.025879,450.000000,3.000000,,,,0.000000,4.000000,4.000000,4.000000,4.000000,4.000000,16.356361,8.028657,4.098253,2.364847,0.602663,6.365067,1.957243,1.091037,0.559968,0.566238,34.350826,3.817195,1.426162,1.840394,0.638203,8.758342,5.406962,2.117223,1.579430,0.638103,11.368948,6.426651,2.162475,2.045661,0.535246
1577423066.787958,102.000000,0.000000,4181.538574,4302.563965,4221.025879,4117.948730,4176.922852,450.000000,3.000000,,,,0.000000,4.000000,4.000000,4.000000,4.000000,4.000000,,,,,,,,,,,,,,,,,,,,,,,,,
1577423066.795761,103.000000,0.000000,4191.282227,4309.743652,4228.205078,4129.743652,4190.256348,16194.000000,3.000000,,,,0.000000,4.000000,4.000000,4.000000,4.000000,4.000000,,,,,,,,,,,,,,,,,,,,,,,,,
1577423066.803464,104.000000,0.000000,4190.256348,4318.974121,4227.179688,4126.666504,4188.717773,450.000000,3.000000,,,,0.000000,4.000000,4.000000,4.000000,4.000000,4.000000,,,,,,,,,,,,,,,,,,,,,,,,,
1577423066.811266,105.000000,0.000000,4195.897461,4336.922852,4230.769043,4130.256348,4203.077148,450.000000,3.000000,,,,0.000000,4.000000,4.000000,4.000000,4.000000,4.000000,,,,,,,,,,,,,,,,,,,,,,,,,
1577423066.818969,106.000000,0.000000,4234.871582,4356.922852,4264.615234,4167.692383,4232.820313,450.000000,3.000000,,,,0.000000,4.000000,4.000000,4.000000,4.000000,4.000000,,,,,,,,,,,,,,,,,,,,,,,,,
1577423066.826674,107.000000,0.000000,4259.487305,4344.615234,4276.410156,4179.487305,4235.384766,16194.000000,3.000000,,,,0.000000,4.000000,4.000000,4.000000,4.000000,4.000000,,,,,,,,,,,,,,,,,,,,,,,,,
1577423066.834480,108.000000,0.000000,4244.102539,4330.769043,4249.230957,4155.384766,4221.025879,450.000000,3.000000,,,,0.000000,4.000000,4.000000,4.000000,4.000000,4.000000,,,,,,,,,,,,,,,,,,,,,,,,,
1577423066.842185,109.000000,0.000000,4218.461426,4338.461426,4228.205078,4137.948730,4198.461426,450.000000,3.000000,,,,0.000000,4.000000,4.000000,4.000000,4.000000,4.000000,,,,,,,,,,,,,,,,,,,,,,,,,
1577423066.849991,110.000000,0.000000,4207.692383,4328.717773,4213.846191,4126.666504,4183.077148,450.000000,3.000000,,,,0.000000,4.000000,4.000000,4.000000,4.000000,4.000000,,,,,,,,,,,,,,,,,,,,,,,,,
1577423066.857696,111.000000,0.000000,4208.717773,4303.589844,4203.077148,4117.948730,4178.461426,16194.000000,3.000000,,,,0.000000,4.000000,4.000000,4.000000,4.000000,4.000000,,,,,,,,,,,,,,,,,,,,,,,,,
1577423066.865500,112.000000,0.000000,4216.410156,4309.230957,4217.436035,4130.769043,4185.641113,450.000000,3.000000,,,,0.000000,4.000000,4.000000,4.000000,4.000000,4.000000,,,,,,,,,,,,,,,,,,,,,,,,,
1577423066.873205,113.000000,0.000000,4230.769043,4333.333496,4232.820313,4146.153809,4198.461426,450.000000,3.000000,,,,0.000000,4.000000,4.000000,4.000000,4.000000,4.000000,,,,,,,,,,,,,,,,,,,,,,,,,
1577423066.881010,114.000000,0.000000,4213.846191,4323.589844,4207.692383,4128.717773,4178.974121,450.000000,3.000000,,,,0.000000,4.000000,4.000000,4.000000,4.000000,4.000000,,,,,,,,,,,,,,,,,,,,,,,,,
1577423066.888714,115.000000,0.000000,4195.897461,4298.461426,4183.589844,4109.743652,4164.615234,16194.000000,3.000000,,,,0.000000,4.000000,4.000000,4.000000,4.000000,4.000000,,,,,,,,,,,,,,,,,,,,,,,,,
1577423066.896519,116.000000,0.000000,4210.769043,4302.563965,4189.230957,4124.102539,4180.512695,450.000000,3.000000,,,,0.000000,4.000000,4.000000,4.000000,4.000000,4.000000,,,,,,,,,,,,,,,,,,,,,,,,,
1577423066.904223,117.000000,0.000000,4209.743652,4312.307617,4178.461426,4133.333496,4178.974121,450.000000,3.000000,,,,0.000000,4.000000,4.000000,4.000000,4.000000,4.000000,16.435677,7.140233,4.158770,2.410354,0.579160,6.623045,1.793196,1.136621,0.518555,0.610383,34.046780,3.625012,1.562216,1.751618,0.626078,8.684978,5.035603,1.969350,1.524087,0.617019,12.044520,5.818883,2.292223,2.068881,0.507997
1577423066.912027,118.000000,0.000000,4203.077148,4310.769043,4169.743652,4128.717773,4174.358887,450.000000,3.000000,,,,0.000000,4.000000,4.000000,4.000000,4.000000,4.000000,,,,,,,,,,,,,,,,,,,,,,,,,
1577423066.919730,119.000000,0.000000,4207.179688,4304.102539,4180.512695,4123.589844,4178.974121,16194.000000,3.000000,,,,0.000000,4.000000,4.000000,4.000000,4.000000,4.000000,,,,,,,,,,,,,,,,,,,,,,,,,
1577423066.927534,120.000000,0.000000,4200.512695,4302.051270,4178.461426,4115.897461,4174.358887,450.000000,3.000000,,,,0.000000,4.000000,4.000000,4.000000,4.000000,4.000000,,,,,,,,,,,,,,,,,,,,,,,,,
1577423066.935237,121.000000,0.000000,4187.692383,4306.153809,4165.641113,4112.307617,4161.538574,450.000000,3.000000,,,,0.000000,4.000000,4.000000,4.000000,4.000000,4.000000,,,,,,,,,,,,,,,,,,,,,,,,,
1577423066.943041,122.000000,0.000000,4169.230957,4297.948730,4160.000000,4109.230957,4147.692383,450.000000,3.000000,,,,0.000000,4.000000,4.000000,4.000000,4.000000,4.000000,,,,,,,,,,,,,,,,,,,,,,,,,
1577423066.950744,123.000000,0.000000,4176.410156,4301.538574,4180.000000,4119.487305,4160.000000,16194.000000,3.000000,,,,0.000000,4.000000,4.000000,4.000000,4.000000,4.000000,,,,,,,,,,,,,,,,,,,,,,,,,
1577423066.958451,124.000000,0.000000,4207.692383,4323.589844,4210.769043,4141.025879,4192.820313,450.000000,3.000000,,,,0.000000,4.000000,4.000000,4.000000,4.000000,4.000000,,,,,,,,,,,,,,,,,,,,,,,,,
1577423066.966257,125.000000,0.000000,4230.256348,4341.025879,4223.077148,4153.333496,4211.282227,450.000000,3.000000,,,,0.000000,4.000000,4.000000,4.000000,4.000000,4.000000,,,,,,,,,,,,,,,,,,,,,,,,,
1577423066.974064,126.000000,0.000000,4246.153809,4344.615234,4234.358887,4164.102539,4214.358887,450.000000,3.000000,,,,0.000000,4.000000,4.000000,4.000000,4.000000,4.000000,,,,,,,,,,,,,,,,,,,,,,,,,
1577423066.981767,127.000000,0.000000,4233.333496,4312.307617,4229.743652,4152.820313,4198.974121,233.000000,3.000000,,,,0.000000,4.000000,4.000000,4.000000,4.000000,4.000000,,,,,,,,,,,,,,,,,,,,,,,,,
1577423066.989473,0.000000,0.000000,4208.717773,4289.743652,4213.333496,4128.717773,4180.512695,450.000000,3.000000,,,,0.000000,4.000000,4.000000,4.000000,4.000000,4.000000,,,,,,,,,,,,,,,,,,,,,,,,,
1577423066.997279,1.000000,0.000000,4208.205078,4317.948730,4219.487305,4128.205078,4174.871582,450.000000,3.000000,,,,0.000000,4.000000,4.000000,4.000000,4.000000,4.000000,,,,,,,,,,,,,,,,,,,,,,,,,
1577423067.004984,2.000000,0.000000,4208.717773,4331.282227,4231.794922,4136.922852,4175.384766,16217.000000,3.000000,,,,0.000000,4.000000,4.000000,4.000000,4.000000,4.000000,,,,,,,,,,,,,,,,,,,,,,,,,
1577423067.012790,3.000000,0.000000,4204.615234,4311.794922,4232.307617,4141.025879,4175.897461,450.000000,3.000000,,,,0.000000,4.000000,4.000000,4.000000,4.000000,4.000000,,,,,,,,,,,,,,,,,,,,,,,,,
1577423067.020495,4.000000,0.000000,4205.641113,4307.692383,4222.051270,4135.897461,4169.743652,16185.000000,3.000000,,,,0.000000,4.000000,4.000000,4.000000,4.000000,4.000000,,,,,,,,,,,,,,,,,,,,,,,,,
1577423067.028301,5.000000,0.000000,4198.974121,4313.846191,4205.128418,4130.256348,4164.102539,450.000000,3.000000,,,,0.000000,4.000000,4.000000,4.000000,4.000000,4.000000,16.165693,6.051228,4.120265,2.313333,0.557058,6.977664,1.646115,1.084309,0.517200,0.670496,31.013601,3.428184,1.626922,1.548852,0.590757,8.527071,4.414096,1.789320,1.400917,0.598859,12.977132,5.102520,2.364283,1.980811,0.483412
1577423067.036106,6.000000,0.000000,4197.436035,4305.641113,4203.589844,4137.948730,4171.794922,16145.000000,3.000000,,,,0.000000,4.000000,4.000000,4.000000,4.000000,4.000000,,,,,,,,,,,,,,,,,,,,,,,,,
1577423067.043808,7.000000,0.000000,4198.461426,4287.692383,4203.077148,4136.410156,4176.410156,450.000000,3.000000,,,,0.000000,4.000000,4.000000,4.000000,4.000000,4.000000,,,,,,,,,,,,,,,,,,,,,,,,,
1577423067.051513,8.000000,0.000000,4188.717773,4287.179688,4190.256348,4121.025879,4162.563965,450.000000,3.000000,,,,0.000000,4.000000,4.000000,4.000000,4.000000,4.000000,,,,,,,,,,,,,,,,,,,,,,,,,
1577423067.059318,9.000000,0.000000,4189.230957,4296.922852,4182.563965,4115.897461,4157.948730,16143.000000,3.000000,,,,0.000000,4.000000,4.000000,4.000000,4.000000,4.000000,,,,,,,,,,,,,,,,,,,,,,,,,
1577423067.067022,10.000000,0.000000,4214.358887,4302.563965,4200.512695,4136.410156,4189.743652,450.000000,3.000000,,,,0.000000,4.000000,4.000000,4.000000,4.000000,4.000000,,,,,,,,,,,,,,,,,,,,,,,,,
1577423067.074827,11.000000,0.000000,4237.948730,4312.820313,4223.077148,4152.307617,4215.384766,16196.000000,3.000000,,,,0.000000,4.000000,4.000000,4.000000,4.000000,4.000000,,,,,,,,,,,,,,,,,,,,,,,,,
1577423067.082531,12.000000,0.000000,4241.025879,4316.922852,4217.948730,4141.538574,4211.794922,450.000000,3.000000,,,,0.000000,4.000000,4.000000,4.000000,4.000000,4.000000,,,,,,,,,,,,,,,,,,,,,,,,,
1577423067.090336,13.000000,0.000000,4260.512695,4323.589844,4221.025879,4153.333496,4225.641113,450.000000,3.000000,,,,0.000000,4.000000,4.000000,4.000000,4.000000,4.000000,,,,,,,,,,,,,,,,,,,,,,,,,
1577423067.098040,14.000000,0.000000,4276.410156,4322.563965,4228.205078,4165.641113,4227.179688,450.000000,3.000000,,,,0.000000,4.000000,4.000000,4.000000,4.000000,4.000000,,,,,,,,,,,,,,,,,,,,,,,,,
1577423067.105844,15.000000,0.000000,4240.000000,4301.025879,4200.512695,4135.384766,4193.846191,16196.000000,3.000000,,,,0.000000,4.000000,4.000000,4.000000,4.000000,4.000000,,,,,,,,,,,,,,,,,,,,,,,,,
1577423067.113547,16.000000,0.000000,4219.487305,4305.128418,4192.820313,4130.256348,4193.846191,0.000000,3.000000,,,,0.000000,4.000000,4.000000,4.000000,4.000000,4.000000,,,,,,,,,,,,,,,,,,,,,,,,,
1577423067.121351,17.000000,0.000000,4229.230957,4317.436035,4200.512695,4139.487305,4203.077148,0.000000,3.000000,,,,0.000000,4.000000,4.000000,4.000000,4.000000,4.000000,,,,,,,,,,,,,,,,,,,,,,,,,
1577423067.129055,18.000000,0.000000,4223.589844,4302.051270,4187.179688,4124.615234,4194.358887,0.000000,3.000000,,,,0.000000,4.000000,4.000000,4.000000,4.000000,4.000000,,,,,,,,,,,,,,,,,,,,,,,,,
1577423067.136761,19.000000,0.000000,4226.666504,4298.461426,4186.666504,4126.666504,4204.102539,0.000000,3.000000,,,,0.000000,4.000000,4.000000,4.000000,4.000000,4.000000,,,,,,,,,,,,,,,,,,,,,,,,,
1577423067.144568,20.000000,0.000000,4241.025879,4313.846191,4189.743652,4136.410156,4218.974121,0.000000,3.000000,,,,0.000000,4.000000,4.000000,4.000000,4.000000,4.000000,,,,,,,,,,,,,,,,,,,,,,,,,
1577423067.152375,21.000000,0.000000,4241.025879,4316.922852,4175.897461,4126.666504,4213.333496,0.000000,3.000000,,,,0.000000,4.000000,4.000000,4.000000,4.000000,4.000000,15.738064,5.140700,4.030109,2.124253,0.554837,7.546840,1.568538,0.964269,0.563355,0.742179,26.327667,3.355861,1.617044,1.305626,0.547769,8.215215,3.786086,1.651415,1.276591,0.595783,14.157259,4.462924,2.374032,1.801831,0.479553
1577423067.160078,22.000000,0.000000,4241.538574,4308.205078,4165.641113,4117.436035,4205.128418,0.000000,3.000000,,,,0.000000,4.000000,4.000000,4.000000,4.000000,4.000000,,,,,,,,,,,,,,,,,,,,,,,,,
1577423067.167881,23.000000,0.000000,4257.436035,4317.436035,4170.769043,4132.820313,4222.563965,0.000000,3.000000,,,,0.000000,4.000000,4.000000,4.000000,4.000000,4.000000,,,,,,,,,,,,,,,,,,,,,,,,,
1577423067.175583,24.000000,0.000000,4263.589844,4329.743652,4173.333496,4142.051270,4229.230957,0.000000,3.000000,,,,0.000000,4.000000,4.000000,4.000000,4.000000,4.000000,,,,,,,,,,,,,,,,,,,,,,,,,
1577423067.183386,25.000000,0.000000,4244.102539,4306.153809,4153.846191,4122.051270,4207.179688,0.000000,3.000000,,,,0.000000,4.000000,4.000000,4.000000,4.000000,4.000000,,,,,,,,,,,,,,,,,,,,,,,,,
1577423067.191088,26.000000,0.000000,4232.820313,4281.538574,4134.871582,4109.230957,4202.051270,0.000000,3.000000,,,,0.000000,4.000000,4.000000,4.000000,4.000000,4.000000,,,,,,,,,,,,,,,,,,,,,,,,,
1577423067.198793,27.000000,0.000000,4223.589844,4287.179688,4123.077148,4105.641113,4191.282227,0.000000,3.000000,,,,0.000000,4.000000,4.000000,4.000000,4.000000,4.000000,,,,,,,,,,,,,,,,,,,,,,,,,
1577423067.206599,28.000000,0.000000,4217.436035,4300.000000,4118.461426,4104.615234,4178.461426,0.000000,3.000000,,,,0.000000,4.000000,4.000000,4.000000,4.000000,4.000000,,,,,,,,,,,,,,,,,,,,,,,,,
1577423067.214404,29.000000,0.000000,4223.077148,4295.897461,4126.666504,4114.358887,4192.820313,0.000000,3.000000,,,,0.000000,4.000000,4.000000,4.000000,4.000000,4.000000,,,,,,,,,,,,,,,,,,,,,,,,,
1577423067.222106,30.000000,0.000000,4222.051270,4283.077148,4121.538574,4112.307617,4194.871582,0.000000,3.000000,,,,0.000000,4.000000,4.000000,4.000000,4.000000,4.000000,,,,,,,,,,,,,,,,,,,,,,,,,
1577423067.229908,31.000000,0.000000,4224.102539,4290.769043,4111.794922,4107.179688,4188.717773,0.000000,3.000000,,,,0.000000,4.000000,4.000000,4.000000,4.000000,4.000000,,,,,,,,,,,,,,,,,,,,,,,,,
1577423067.237610,32.000000,0.000000,4216.410156,4297.948730,4116.922852,4115.384766,4190.769043,0.000000,3.000000,,,,0.000000,4.000000,4.000000,4.000000,4.000000,4.000000,,,,,,,,,,,,,,,,,,,,,,,,,
1577423067.245315,33.000000,0.000000,4203.077148,4289.230957,4118.974121,4120.000000,4196.922852,0.000000,3.000000,,,,0.000000,4.000000,4.000000,4.000000,4.000000,4.000000,,,,,,,,,,,,,,,,,,,,,,,,,
1577423067.253119,34.000000,0.000000,4222.051270,4298.461426,4122.563965,4124.102539,4203.589844,0.000000,3.000000,,,,0.000000,4.000000,4.000000,4.000000,4.000000,4.000000,,,,,,,,,,,,,,,,,,,,,,,,,
1577423067.260824,35.000000,0.000000,4251.282227,4313.846191,4146.153809,4140.512695,4211.282227,0.000000,3.000000,,,,0.000000,4.000000,4.000000,4.000000,4.000000,4.000000,,,,,,,,,,,,,,,,,,,,,,,,,
1577423067.268628,36.000000,0.000000,4270.769043,4318.974121,4175.897461,4160.512695,4237.948730,0.000000,3.000000,,,,0.000000,4.000000,4.000000,4.000000,4.000000,4.000000,,,,,,,,,,,,,,,,,,,,,,,,,
1577423067.276332,37.000000,0.000000,4285.641113,4310.769043,4178.461426,4163.077148,4249.743652,0.000000,3.000000,,,,0.000000,4.000000,4.000000,4.000000,4.000000,4.000000,15.350262,4.600774,3.904833,1.941008,0.585354,8.255157,1.544133,0.839034,0.657936,0.821128,21.848490,3.406491,1.555557,1.129602,0.515274,7.733758,3.295233,1.621337,1.222682,0.615159,15.470136,3.969100,2.328105,1.598923,0.508078
1577423067.284136,38.000000,0.000000,4277.436035,4284.102539,4152.820313,4137.436035,4224.615234,0.000000,3.000000,,,,0.000000,4.000000,4.000000,4.000000,4.000000,4.000000,,,,,,,,,,,,,,,,,,,,,,,,,
1577423067.291840,39.000000,0.000000,4270.769043,4269.230957,4143.589844,4115.897461,4216.410156,0.000000,3.000000,,,,0.000000,4.000000,4.000000,4.000000,4.000000,4.000000,,,,,,,,,,,,,,,,,,,,,,,,,
1577423067.299645,40.000000,0.000000,4305.128418,4269.230957,4161.025879,4124.102539,4239.487305,0.000000,3.000000,,,,0.000000,4.000000,4.000000,4.000000,4.000000,4.000000,,,,,,,,,,,,,,,,,,,,,,,,,
1577423067.307349,41.000000,0.000000,4351.794922,4269.743652,4176.410156,4147.179688,4250.256348,0.000000,3.000000,,,,0.000000,4.000000,4.000000,4.000000,4.000000,4.000000,,,,,,,,,,,,,,,,,,,,,,,,,
1577423067.315152,42.000000,0.000000,4357.948730,4246.666504,4163.589844,4148.717773,4232.820313,0.000000,3.000000,,,,0.000000,4.000000,4.000000,4.000000,4.000000,4.000000,,,,,,,,,,,,,,,,,,,,,,,,,
1577423067.322856,43.000000,0.000000,4341.538574,4196.922852,4140.000000,4133.846191,4227.692383,0.000000,3.000000,,,,0.000000,4.000000,4.000000,4.000000,4.000000,4.000000,,,,,,,,,,,,,,,,,,,,,,,,,
1577423067.330659,44.000000,0.000000,4354.358887,4174.358887,4150.769043,4143.077148,4245.128418,0.000000,3.000000,,,,0.000000,4.000000,4.000000,4.000000,4.000000,4.000000,,,,,,,,,,,,,,,,,,,,,,,,,
1577423067.338363,45.000000,0.000000,4350.256348,4165.641113,4157.948730,4146.666504,4247.692383,0.000000,3.000000,,,,0.000000,4.000000,4.000000,4.000000,4.000000,4.000000,,,,,,,,,,,,,,,,,,,,,,,,,
1577423067.346165,46.000000,0.000000,4317.436035,4148.717773,4141.025879,4127.692383,4238.974121,0.000000,3.000000,,,,0.000000,4.000000,4.000000,4.000000,4.000000,4.000000,,,,,,,,,,,,,,,,,,,,,,,,,
1577423067.353869,47.000000,0.000000,4305.641113,4161.025879,4139.487305,4118.461426,4238.461426,0.000000,3.000000,,,,0.000000,4.000000,4.000000,4.000000,4.000000,4.000000,,,,,,,,,,,,,,,,,,,,,,,,,
1577423067.361671,48.000000,0.000000,4300.512695,4206.153809,4142.563965,4119.487305,4245.641113,0.000000,3.000000,,,,0.000000,4.000000,4.000000,4.000000,4.000000,4.000000,,,,,,,,,,,,,,,,,,,,,,,,,
1577423067.369374,49.000000,0.000000,4294.871582,4249.230957,4143.589844,4124.102539,4258.461426,0.000000,3.000000,,,,0.000000,4.000000,4.000000,4.000000,4.000000,4.000000,,,,,,,,,,,,,,,,,,,,,,,,,
