title:calm_1, start timestamp:2019-12-27T06:52:57.754989+03:00, stop timestamp:2019-12-27T06:53:28.726626+03:00, headset type:INSIGHT, headset serial:A2D200FB, headset firmware:930, subject name:Qasim, channels:75, sampling rate:eeg_128;pm_0.1;pow_8, samples:3974      , version:2.0
Timestamp,EEG.Counter,EEG.Interpolated,EEG.AF3,EEG.T7,EEG.Pz,EEG.T8,EEG.AF4,EEG.RawCq,EEG.Battery,MarkerIndex,MarkerType,MarkerValueInt,EEG.MarkerHardware,CQ.AF3,CQ.T7,CQ.Pz,CQ.T8,CQ.AF4,PM.Engagement.IsActive,PM.Engagement.Scaled,PM.Engagement.Raw,PM.Engagement.Min,PM.Engagement.Max,PM.Excitement.IsActive,PM.Excitement.Scaled,PM.Excitement.Raw,PM.Excitement.Min,PM.Excitement.Max,PM.LongTermExcitement,PM.Stress.IsActive,PM.Stress.Scaled,PM.Stress.Raw,PM.Stress.Min,PM.Stress.Max,PM.Relaxation.IsActive,PM.Relaxation.Scaled,PM.Relaxation.Raw,PM.Relaxation.Min,PM.Relaxation.Max,PM.Interest.IsActive,PM.Interest.Scaled,PM.Interest.Raw,PM.Interest.Min,PM.Interest.Max,PM.Focus.IsActive,PM.Focus.Scaled,PM.Focus.Raw,PM.Focus.Min,PM.Focus.Max,POW.AF3.Theta,POW.AF3.Alpha,POW.AF3.BetaL,POW.AF3.BetaH,POW.AF3.Gamma,POW.T7.Theta,POW.T7.Alpha,POW.T7.BetaL,POW.T7.BetaH,POW.T7.Gamma,POW.Pz.Theta,POW.Pz.Alpha,POW.Pz.BetaL,POW.Pz.BetaH,POW.Pz.Gamma,POW.T8.Theta,POW.T8.Alpha,POW.T8.BetaL,POW.T8.BetaH,POW.T8.Gamma,POW.AF4.Theta,POW.AF4.Alpha,POW.AF4.BetaL,POW.AF4.BetaH,POW.AF4.Gamma
1577418777.754989,40.000000,0.000000,4146.153809,4376.922852,4205.641113,4111.282227,4161.025879,0.000000,4.000000,,,,0.000000,4.000000,4.000000,0.000000,4.000000,4.000000,,,,,,,,,,,,,,,,,,,,,,,,,,,,,,,,,,,,,,,,,,,,,,,,,,,,,,,,
1577418777.762894,41.000000,0.000000,4163.077148,4355.384766,4227.692383,4127.179688,4175.897461,0.000000,4.000000,,,,0.000000,4.000000,4.000000,0.000000,4.000000,4.000000,,,,,,,,,,,,,,,,,,,,,,,,,,,,,,,,8.078671,3.012104,2.310227,3.320096,1.520707,0.830654,1.550027,1.519154,1.509282,1.664706,0.751188,1.518119,3.204038,43.659870,17.914877,1.298966,1.097758,1.663116,1.051786,0.439083,3.694295,1.902264,1.938171,1.274534,0.767866
1577418777.770700,42.000000,0.000000,4194.358887,4338.974121,4167.179688,4132.307617,4201.538574,0.000000,4.000000,,,,0.000000,4.000000,4.000000,0.000000,4.000000,4.000000,,,,,,,,,,,,,,,,,,,,,,,,,,,,,,,,,,,,,,,,,,,,,,,,,,,,,,,,
1577418777.778606,43.000000,0.000000,4183.589844,4350.769043,4167.179688,4131.282227,4197.948730,0.000000,4.000000,,,,0.000000,4.000000,4.000000,0.000000,4.000000,4.000000,,,,,,,,,,,,,,,,,,,,,,,,,,,,,,,,,,,,,,,,,,,,,,,,,,,,,,,,
1577418777.786411,44.000000,0.000000,4179.487305,4374.358887,4147.692383,4117.436035,4189.230957,0.000000,4.000000,,,,0.000000,4.000000,4.000000,0.000000,4.000000,4.000000,,,,,,,,,,,,,,,,,,,,,,,,,,,,,,,,,,,,,,,,,,,,,,,,,,,,,,,,
1577418777.794317,45.000000,0.000000,4180.512695,4365.128418,4161.025879,4117.436035,4191.794922,0.000000,4.000000,,,,0.000000,4.000000,4.000000,0.000000,4.000000,4.000000,,,,,,,,,,,,,,,,,,,,,,,,,,,,,,,,,,,,,,,,,,,,,,,,,,,,,,,,
1577418777.802122,46.000000,0.000000,4178.461426,4356.922852,4167.692383,4131.794922,4201.538574,0.000000,4.000000,,,,0.000000,4.000000,4.000000,0.000000,4.000000,4.000000,,,,,,,,,,,,,,,,,,,,,,,,,,,,,,,,,,,,,,,,,,,,,,,,,,,,,,,,
1577418777.810027,47.000000,0.000000,4189.743652,4377.436035,4156.922852,4123.589844,4212.307617,0.000000,4.000000,,,,0.000000,4.000000,4.000000,0.000000,4.000000,4.000000,,,,,,,,,,,,,,,,,,,,,,,,,,,,,,,,,,,,,,,,,,,,,,,,,,,,,,,,
1577418777.817833,48.000000,0.000000,4184.615234,4370.256348,4230.769043,4118.974121,4210.256348,0.000000,4.000000,,,,0.000000,4.000000,4.000000,0.000000,4.000000,4.000000,,,,,,,,,,,,,,,,,,,,,,,,,,,,,,,,,,,,,,,,,,,,,,,,,,,,,,,,
1577418777.825538,49.000000,0.000000,4186.153809,4357.948730,4214.358887,4122.563965,4218.974121,0.000000,4.000000,,,,0.000000,4.000000,4.000000,0.000000,4.000000,4.000000,,,,,,,,,,,,,,,,,,,,,,,,,,,,,,,,,,,,,,,,,,,,,,,,,,,,,,,,
1577418777.833344,50.000000,0.000000,4190.769043,4375.897461,4149.230957,4116.922852,4213.846191,0.000000,4.000000,,,,0.000000,4.000000,4.000000,0.000000,4.000000,4.000000,,,,,,,,,,,,,,,,,,,,,,,,,,,,,,,,,,,,,,,,,,,,,,,,,,,,,,,,
1577418777.841049,51.000000,0.000000,4191.282227,4394.871582,4098.974121,4107.179688,4196.922852,0.000000,4.000000,,,,0.000000,4.000000,4.000000,0.000000,4.000000,4.000000,,,,,,,,,,,,,,,,,,,,,,,,,,,,,,,,,,,,,,,,,,,,,,,,,,,,,,,,
1577418777.848954,52.000000,0.000000,4201.538574,4376.410156,4124.615234,4093.333252,4200.000000,0.000000,4.000000,,,,0.000000,4.000000,4.000000,0.000000,4.000000,4.000000,,,,,,,,,,,,,,,,,,,,,,,,,,,,,,,,,,,,,,,,,,,,,,,,,,,,,,,,
1577418777.856760,53.000000,0.000000,4181.538574,4357.436035,4295.384766,4091.794922,4195.897461,0.000000,4.000000,,,,0.000000,4.000000,4.000000,0.000000,4.000000,4.000000,,,,,,,,,,,,,,,,,,,,,,,,,,,,,,,,,,,,,,,,,,,,,,,,,,,,,,,,
1577418777.864566,54.000000,0.000000,4185.641113,4389.230957,4297.436035,4104.102539,4203.077148,0.000000,4.000000,,,,0.000000,4.000000,4.000000,0.000000,4.000000,4.000000,,,,,,,,,,,,,,,,,,,,,,,,,,,,,,,,,,,,,,,,,,,,,,,,,,,,,,,,
1577418777.872271,55.000000,0.000000,4224.615234,4401.538574,4145.128418,4119.487305,4213.333496,0.000000,4.000000,,,,0.000000,4.000000,4.000000,0.000000,4.000000,4.000000,,,,,,,,,,,,,,,,,,,,,,,,,,,,,,,,,,,,,,,,,,,,,,,,,,,,,,,,
1577418777.880076,56.000000,0.000000,4226.666504,4378.461426,4094.871826,4116.410156,4201.538574,0.000000,4.000000,,,,0.000000,4.000000,4.000000,0.000000,4.000000,4.000000,,,,,,,,,,,,,,,,,,,,,,,,,,,,,,,,,,,,,,,,,,,,,,,,,,,,,,,,
1577418777.887782,57.000000,0.000000,4204.615234,4363.589844,4129.743652,4090.769287,4191.794922,0.000000,4.000000,,,,0.000000,4.000000,4.000000,0.000000,4.000000,4.000000,,,,,,,,,,,,,,,,,,,,,,,,,,,,,,,,26.960249,4.388695,2.275126,3.231003,1.403245,1.024037,1.995535,1.667497,1.568779,1.593747,1.216522,1.625524,3.270293,44.609184,19.093203,1.393921,1.523525,1.504426,1.152210,0.404559,9.014883,2.069537,1.852831,1.391837,0.742848
1577418777.895587,58.000000,0.000000,4188.717773,4366.666504,4211.794922,4096.410156,4181.025879,0.000000,4.000000,,,,0.000000,4.000000,4.000000,0.000000,4.000000,4.000000,,,,,,,,,,,,,,,,,,,,,,,,,,,,,,,,,,,,,,,,,,,,,,,,,,,,,,,,
1577418777.903293,59.000000,0.000000,4207.179688,4399.487305,4233.846191,4113.333496,4187.692383,0.000000,4.000000,,,,0.000000,4.000000,4.000000,0.000000,4.000000,4.000000,,,,,,,,,,,,,,,,,,,,,,,,,,,,,,,,,,,,,,,,,,,,,,,,,,,,,,,,
1577418777.911098,60.000000,0.000000,4222.563965,4400.512695,4200.000000,4105.641113,4194.358887,0.000000,4.000000,,,,0.000000,4.000000,4.000000,0.000000,4.000000,4.000000,,,,,,,,,,,,,,,,,,,,,,,,,,,,,,,,,,,,,,,,,,,,,,,,,,,,,,,,
1577418777.918804,61.000000,0.000000,4211.282227,4376.410156,4164.102539,4111.282227,4180.000000,0.000000,4.000000,,,,0.000000,4.000000,4.000000,0.000000,4.000000,4.000000,,,,,,,,,,,,,,,,,,,,,,,,,,,,,,,,,,,,,,,,,,,,,,,,,,,,,,,,
1577418777.926609,62.000000,0.000000,4213.846191,4396.410156,4135.897461,4107.179688,4180.512695,0.000000,4.000000,,,,0.000000,4.000000,4.000000,0.000000,4.000000,4.000000,,,,,,,,,,,,,,,,,,,,,,,,,,,,,,,,,,,,,,,,,,,,,,,,,,,,,,,,
1577418777.934314,63.000000,0.000000,4188.717773,4408.205078,4191.794922,4090.256348,4160.000000,0.000000,4.000000,,,,0.000000,4.000000,4.000000,0.000000,4.000000,4.000000,,,,,,,,,,,,,,,,,,,,,,,,,,,,,,,,,,,,,,,,,,,,,,,,,,,,,,,,
1577418777.942220,64.000000,0.000000,4173.846191,4390.256348,4201.538574,4088.205078,4138.461426,450.000000,4.000000,,,,0.000000,4.000000,4.000000,0.000000,4.000000,4.000000,,,,,,,,,,,,,,,,,,,,,,,,,,,,,,,,,,,,,,,,,,,,,,,,,,,,,,,,
1577418777.950025,65.000000,0.000000,4193.333496,4389.743652,4181.538574,4094.871826,4150.256348,450.000000,4.000000,,,,0.000000,4.000000,4.000000,0.000000,4.000000,4.000000,,,,,,,,,,,,,,,,,,,,,,,,,,,,,,,,,,,,,,,,,,,,,,,,,,,,,,,,
1577418777.957831,66.000000,0.000000,4188.717773,4400.512695,4230.256348,4120.000000,4153.846191,16233.000000,4.000000,,,,0.000000,4.000000,4.000000,0.000000,4.000000,4.000000,,,,,,,,,,,,,,,,,,,,,,,,,,,,,,,,,,,,,,,,,,,,,,,,,,,,,,,,
1577418777.965536,67.000000,0.000000,4201.025879,4408.205078,4185.641113,4128.717773,4151.794922,450.000000,4.000000,,,,0.000000,4.000000,4.000000,0.000000,4.000000,4.000000,,,,,,,,,,,,,,,,,,,,,,,,,,,,,,,,,,,,,,,,,,,,,,,,,,,,,,,,
1577418777.973342,68.000000,0.000000,4207.179688,4391.282227,4168.717773,4125.128418,4137.436035,16241.000000,4.000000,,,,0.000000,4.000000,4.000000,0.000000,4.000000,4.000000,,,,,,,,,,,,,,,,,,,,,,,,,,,,,,,,,,,,,,,,,,,,,,,,,,,,,,,,
1577418777.981047,69.000000,0.000000,4189.743652,4380.512695,4175.897461,4130.256348,4118.461426,450.000000,4.000000,,,,0.000000,4.000000,4.000000,0.000000,4.000000,4.000000,,,,,,,,,,,,,,,,,,,,,,,,,,,,,,,,,,,,,,,,,,,,,,,,,,,,,,,,
1577418777.988952,70.000000,0.000000,4185.641113,4402.563965,4155.384766,4127.179688,4112.307617,33.000000,4.000000,,,,0.000000,4.000000,4.000000,0.000000,4.000000,4.000000,,,,,,,,,,,,,,,,,,,,,,,,,,,,,,,,,,,,,,,,,,,,,,,,,,,,,,,,
1577418777.996758,71.000000,0.000000,4180.512695,4408.205078,4235.897461,4135.384766,4105.128418,450.000000,4.000000,,,,0.000000,4.000000,4.000000,0.000000,4.000000,4.000000,,,,,,,,,,,,,,,,,,,,,,,,,,,,,,,,,,,,,,,,,,,,,,,,,,,,,,,,
1577418778.004664,72.000000,0.000000,4201.025879,4394.871582,4238.974121,4137.436035,4116.922852,450.000000,4.000000,,,,0.000000,4.000000,4.000000,0.000000,4.000000,4.000000,,,,,,,,,,,,,,,,,,,,,,,,,,,,,,,,,,,,,,,,,,,,,,,,,,,,,,,,
1577418778.012469,73.000000,0.000000,4218.974121,4392.820313,4176.922852,4141.538574,4126.153809,16203.000000,4.000000,,,,0.000000,4.000000,4.000000,0.000000,4.000000,4.000000,,,,,,,,,,,,,,,,,,,,,,,,,,,,,,,,62.244076,7.066614,2.634373,3.086411,1.392995,1.211458,2.428731,1.798981,1.536050,1.485065,1.856269,1.675205,3.337267,45.883873,20.623972,1.848255,2.009969,1.224791,1.203557,0.391157,18.726168,2.675593,1.791138,1.408008,0.719971
1577418778.020374,74.000000,0.000000,4198.974121,4397.948730,4136.410156,4143.589844,4112.307617,450.000000,4.000000,,,,0.000000,4.000000,4.000000,0.000000,4.000000,4.000000,,,,,,,,,,,,,,,,,,,,,,,,,,,,,,,,,,,,,,,,,,,,,,,,,,,,,,,,
1577418778.028180,75.000000,0.000000,4180.000000,4395.384766,4120.512695,4118.974121,4105.128418,16247.000000,4.000000,,,,0.000000,4.000000,4.000000,0.000000,4.000000,4.000000,,,,,,,,,,,,,,,,,,,,,,,,,,,,,,,,,,,,,,,,,,,,,,,,,,,,,,,,
1577418778.035885,76.000000,0.000000,4172.820313,4396.410156,4220.000000,4134.358887,4111.794922,450.000000,4.000000,,,,0.000000,4.000000,4.000000,0.000000,4.000000,4.000000,,,,,,,,,,,,,,,,,,,,,,,,,,,,,,,,,,,,,,,,,,,,,,,,,,,,,,,,
1577418778.043690,77.000000,0.000000,4205.641113,4416.410156,4276.410156,4170.256348,4142.563965,450.000000,4.000000,,,,0.000000,4.000000,4.000000,0.000000,4.000000,4.000000,,,,,,,,,,,,,,,,,,,,,,,,,,,,,,,,,,,,,,,,,,,,,,,,,,,,,,,,
1577418778.051396,78.000000,0.000000,4224.615234,4402.051270,4183.077148,4174.358887,4147.692383,450.000000,4.000000,,,,0.000000,4.000000,4.000000,0.000000,4.000000,4.000000,,,,,,,,,,,,,,,,,,,,,,,,,,,,,,,,,,,,,,,,,,,,,,,,,,,,,,,,
1577418778.059201,79.000000,0.000000,4189.743652,4375.897461,4085.641113,4167.692383,4108.717773,16247.000000,4.000000,,,,0.000000,4.000000,4.000000,0.000000,4.000000,4.000000,,,,,,,,,,,,,,,,,,,,,,,,,,,,,,,,,,,,,,,,,,,,,,,,,,,,,,,,
1577418778.066907,80.000000,0.000000,4176.922852,4380.000000,4107.179688,4162.563965,4112.307617,450.000000,4.000000,,,,0.000000,4.000000,4.000000,0.000000,4.000000,4.000000,,,,,,,,,,,,,,,,,,,,,,,,,,,,,,,,,,,,,,,,,,,,,,,,,,,,,,,,
1577418778.074712,81.000000,0.000000,4165.641113,4359.487305,4232.307617,4174.358887,4126.666504,450.000000,4.000000,,,,0.000000,4.000000,4.000000,0.000000,4.000000,4.000000,,,,,,,,,,,,,,,,,,,,,,,,,,,,,,,,,,,,,,,,,,,,,,,,,,,,,,,,
1577418778.082418,82.000000,0.000000,4162.051270,4355.897461,4223.589844,4182.563965,4116.922852,450.000000,4.000000,,,,0.000000,4.000000,4.000000,0.000000,4.000000,4.000000,,,,,,,,,,,,,,,,,,,,,,,,,,,,,,,,,,,,,,,,,,,,,,,,,,,,,,,,
1577418778.090323,83.000000,0.000000,4176.410156,4385.128418,4156.410156,4171.282227,4124.615234,16247.000000,4.000000,,,,0.000000,4.000000,4.000000,0.000000,4.000000,4.000000,,,,,,,,,,,,,,,,,,,,,,,,,,,,,,,,,,,,,,,,,,,,,,,,,,,,,,,,
1577418778.098129,84.000000,0.000000,4158.974121,4385.128418,4210.769043,4160.000000,4122.051270,450.000000,4.000000,,,,0.000000,4.000000,4.000000,0.000000,4.000000,4.000000,,,,,,,,,,,,,,,,,,,,,,,,,,,,,,,,,,,,,,,,,,,,,,,,,,,,,,,,
1577418778.106034,85.000000,0.000000,4148.717773,4381.025879,4193.333496,4145.128418,4106.153809,450.000000,4.000000,,,,0.000000,4.000000,4.000000,0.000000,4.000000,4.000000,,,,,,,,,,,,,,,,,,,,,,,,,,,,,,,,,,,,,,,,,,,,,,,,,,,,,,,,
1577418778.113840,86.000000,0.000000,4146.666504,4379.487305,4130.769043,4160.512695,4106.666504,450.000000,4.000000,,,,0.000000,4.000000,4.000000,0.000000,4.000000,4.000000,,,,,,,,,,,,,,,,,,,,,,,,,,,,,,,,,,,,,,,,,,,,,,,,,,,,,,,,
1577418778.121745,87.000000,0.000000,4155.897461,4380.000000,4099.487305,4187.692383,4121.025879,16247.000000,4.000000,,,,0.000000,4.000000,4.000000,0.000000,4.000000,4.000000,,,,,,,,,,,,,,,,,,,,,,,,,,,,,,,,,,,,,,,,,,,,,,,,,,,,,,,,
1577418778.129551,88.000000,0.000000,4152.820313,4370.769043,4129.743652,4162.051270,4120.000000,450.000000,4.000000,,,,0.000000,4.000000,4.000000,0.000000,4.000000,4.000000,,,,,,,,,,,,,,,,,,,,,,,,,,,,,,,,,,,,,,,,,,,,,,,,,,,,,,,,
1577418778.137456,89.000000,0.000000,4113.333496,4357.436035,4257.948730,4136.410156,4102.051270,450.000000,4.000000,,,,0.000000,4.000000,4.000000,0.000000,4.000000,4.000000,,,,,,,,,,,,,,,,,,,,,,,,,,,,,,,,109.515488,10.482899,3.332221,2.920320,1.475146,1.373700,2.709437,1.868717,1.420847,1.353121,2.538870,1.597687,3.369545,47.397533,22.207193,2.663372,2.475431,0.921008,1.181228,0.399509,31.558357,3.600659,1.765810,1.324757,0.703448
1577418778.145262,90.000000,0.000000,4135.384766,4370.256348,4274.871582,4148.717773,4122.563965,450.000000,4.000000,,,,0.000000,4.000000,4.000000,0.000000,4.000000,4.000000,,,,,,,,,,,,,,,,,,,,,,,,,,,,,,,,,,,,,,,,,,,,,,,,,,,,,,,,
1577418778.153167,91.000000,0.000000,4177.436035,4372.307617,4180.000000,4157.436035,4151.282227,16247.000000,4.000000,,,,0.000000,4.000000,4.000000,0.000000,4.000000,4.000000,,,,,,,,,,,,,,,,,,,,,,,,,,,,,,,,,,,,,,,,,,,,,,,,,,,,,,,,
1577418778.160973,92.000000,0.000000,4164.615234,4374.358887,4100.512695,4149.230957,4139.487305,450.000000,4.000000,,,,0.000000,4.000000,4.000000,0.000000,4.000000,4.000000,,,,,,,,,,,,,,,,,,,,,,,,,,,,,,,,,,,,,,,,,,,,,,,,,,,,,,,,
1577418778.168878,93.000000,0.000000,4144.615234,4371.282227,4111.794922,4144.615234,4135.384766,450.000000,4.000000,,,,0.000000,4.000000,4.000000,0.000000,4.000000,4.000000,,,,,,,,,,,,,,,,,,,,,,,,,,,,,,,,,,,,,,,,,,,,,,,,,,,,,,,,
1577418778.176684,94.000000,0.000000,4123.077148,4342.563965,4235.384766,4164.102539,4147.692383,450.000000,4.000000,,,,0.000000,4.000000,4.000000,0.000000,4.000000,4.000000,,,,,,,,,,,,,,,,,,,,,,,,,,,,,,,,,,,,,,,,,,,,,,,,,,,,,,,,
1577418778.184589,95.000000,0.000000,4140.000000,4361.025879,4237.948730,4163.589844,4153.846191,16247.000000,4.000000,,,,0.000000,4.000000,4.000000,0.000000,4.000000,4.000000,,,,,,,,,,,,,,,,,,,,,,,,,,,,,,,,,,,,,,,,,,,,,,,,,,,,,,,,
1577418778.192395,96.000000,0.000000,4176.922852,4381.025879,4161.538574,4136.922852,4154.358887,450.000000,4.000000,,,,0.000000,4.000000,4.000000,0.000000,4.000000,4.000000,,,,,,,,,,,,,,,,,,,,,,,,,,,,,,,,,,,,,,,,,,,,,,,,,,,,,,,,
1577418778.200100,97.000000,0.000000,4181.025879,4350.769043,4125.128418,4142.563965,4162.563965,450.000000,4.000000,,,,0.000000,4.000000,4.000000,0.000000,4.000000,4.000000,,,,,,,,,,,,,,,,,,,,,,,,,,,,,,,,,,,,,,,,,,,,,,,,,,,,,,,,
1577418778.207905,98.000000,0.000000,4179.487305,4342.051270,4115.897461,4152.307617,4175.384766,450.000000,4.000000,,,,0.000000,4.000000,4.000000,0.000000,4.000000,4.000000,,,,,,,,,,,,,,,,,,,,,,,,,,,,,,,,,,,,,,,,,,,,,,,,,,,,,,,,
1577418778.215611,99.000000,0.000000,4159.487305,4361.538574,4207.179688,4149.743652,4160.000000,16247.000000,4.000000,,,,0.000000,4.000000,4.000000,0.000000,4.000000,4.000000,,,,,,,,,,,,,,,,,,,,,,,,,,,,,,,,,,,,,,,,,,,,,,,,,,,,,,,,
1577418778.223416,100.000000,0.000000,4145.128418,4381.538574,4233.846191,4137.436035,4151.794922,450.000000,4.000000,,,,0.000000,4.000000,4.000000,0.000000,4.000000,4.000000,,,,,,,,,,,,,,,,,,,,,,,,,,,,,,,,,,,,,,,,,,,,,,,,,,,,,,,,
1577418778.231122,101.000000,0.000000,4164.615234,4373.333496,4182.563965,4121.025879,4175.897461,450.000000,4.000000,,,,0.000000,4.000000,4.000000,0.000000,4.000000,4.000000,,,,,,,,,,,,,,,,,,,,,,,,,,,,,,,,,,,,,,,,,,,,,,,,,,,,,,,,
1577418778.238927,102.000000,0.000000,4181.025879,4354.871582,4181.025879,4130.769043,4196.922852,450.000000,4.000000,,,,0.000000,4.000000,4.000000,0.000000,4.000000,4.000000,,,,,,,,,,,,,,,,,,,,,,,,,,,,,,,,,,,,,,,,,,,,,,,,,,,,,,,,
1577418778.246632,103.000000,0.000000,4187.692383,4378.974121,4152.820313,4128.717773,4197.948730,16247.000000,4.000000,,,,0.000000,4.000000,4.000000,0.000000,4.000000,4.000000,,,,,,,,,,,,,,,,,,,,,,,,,,,,,,,,,,,,,,,,,,,,,,,,,,,,,,,,
1577418778.254438,104.000000,0.000000,4172.820313,4383.589844,4164.102539,4115.897461,4173.846191,450.000000,4.000000,,,,0.000000,4.000000,4.000000,0.000000,4.000000,4.000000,,,,,,,,,,,,,,,,,,,,,,,,,,,,,,,,,,,,,,,,,,,,,,,,,,,,,,,,
1577418778.262143,105.000000,0.000000,4166.153809,4356.922852,4191.282227,4119.487305,4164.615234,450.000000,4.000000,,,,0.000000,4.000000,4.000000,0.000000,4.000000,4.000000,,,,,,,,,,,,,,,,,,,,,,,,,,,,,,,,156.904327,13.514236,4.115979,2.759389,1.601217,1.495054,2.742416,1.833221,1.263615,1.241332,3.079393,1.387032,3.350514,49.032845,23.493036,3.723972,2.828216,0.681548,1.109987,0.421244,44.268627,4.521374,1.758613,1.191667,0.689935
1577418778.270049,106.000000,0.000000,4180.512695,4371.282227,4176.922852,4112.820313,4187.692383,450.000000,4.000000,,,,0.000000,4.000000,4.000000,0.000000,4.000000,4.000000,,,,,,,,,,,,,,,,,,,,,,,,,,,,,,,,,,,,,,,,,,,,,,,,,,,,,,,,
1577418778.277854,107.000000,0.000000,4168.717773,4401.538574,4208.717773,4106.666504,4192.307617,16247.000000,4.000000,,,,0.000000,4.000000,4.000000,0.000000,4.000000,4.000000,,,,,,,,,,,,,,,,,,,,,,,,,,,,,,,,,,,,,,,,,,,,,,,,,,,,,,,,
1577418778.285760,108.000000,0.000000,4166.666504,4387.692383,4191.282227,4095.897461,4182.563965,450.000000,4.000000,,,,0.000000,4.000000,4.000000,0.000000,4.000000,4.000000,,,,,,,,,,,,,,,,,,,,,,,,,,,,,,,,,,,,,,,,,,,,,,,,,,,,,,,,
1577418778.293565,109.000000,0.000000,4186.666504,4358.974121,4176.410156,4083.589844,4174.358887,450.000000,4.000000,,,,0.000000,4.000000,4.000000,0.000000,4.000000,4.000000,,,,,,,,,,,,,,,,,,,,,,,,,,,,,,,,,,,,,,,,,,,,,,,,,,,,,,,,
1577418778.301471,110.000000,0.000000,4193.333496,4379.487305,4138.461426,4086.666748,4171.794922,450.000000,4.000000,,,,0.000000,4.000000,4.000000,0.000000,4.000000,4.000000,,,,,,,,,,,,,,,,,,,,,,,,,,,,,,,,,,,,,,,,,,,,,,,,,,,,,,,,
1577418778.309276,111.000000,0.000000,4183.077148,4408.717773,4126.666504,4087.692383,4171.794922,16247.000000,4.000000,,,,0.000000,4.000000,4.000000,0.000000,4.000000,4.000000,,,,,,,,,,,,,,,,,,,,,,,,,,,,,,,,,,,,,,,,,,,,,,,,,,,,,,,,
1577418778.317082,112.000000,0.000000,4155.897461,4385.641113,4277.436035,4087.692383,4145.128418,450.000000,4.000000,,,,0.000000,4.000000,4.000000,0.000000,4.000000,4.000000,,,,,,,,,,,,,,,,,,,,,,,,,,,,,,,,,,,,,,,,,,,,,,,,,,,,,,,,
1577418778.324787,113.000000,0.000000,4149.743652,4353.333496,4296.922852,4083.076904,4131.794922,450.000000,4.000000,,,,0.000000,4.000000,4.000000,0.000000,4.000000,4.000000,,,,,,,,,,,,,,,,,,,,,,,,,,,,,,,,,,,,,,,,,,,,,,,,,,,,,,,,
1577418778.332593,114.000000,0.000000,4161.538574,4347.179688,4153.846191,4082.564209,4145.128418,450.000000,4.000000,,,,0.000000,4.000000,4.000000,0.000000,4.000000,4.000000,,,,,,,,,,,,,,,,,,,,,,,,,,,,,,,,,,,,,,,,,,,,,,,,,,,,,,,,
1577418778.340298,115.000000,0.000000,4178.974121,4360.512695,4087.692383,4090.256348,4150.769043,16247.000000,4.000000,,,,0.000000,4.000000,4.000000,0.000000,4.000000,4.000000,,,,,,,,,,,,,,,,,,,,,,,,,,,,,,,,,,,,,,,,,,,,,,,,,,,,,,,,
1577418778.348104,116.000000,0.000000,4191.794922,4387.179688,4122.563965,4079.487061,4135.897461,450.000000,4.000000,,,,0.000000,4.000000,4.000000,0.000000,4.000000,4.000000,,,,,,,,,,,,,,,,,,,,,,,,,,,,,,,,,,,,,,,,,,,,,,,,,,,,,,,,
1577418778.355809,117.000000,0.000000,4150.256348,4400.000000,4230.256348,4081.538574,4087.179443,450.000000,4.000000,,,,0.000000,4.000000,4.000000,0.000000,4.000000,4.000000,,,,,,,,,,,,,,,,,,,,,,,,,,,,,,,,,,,,,,,,,,,,,,,,,,,,,,,,
1577418778.363714,118.000000,0.000000,4127.179688,4394.358887,4248.717773,4087.692383,4070.256348,450.000000,4.000000,,,,0.000000,4.000000,4.000000,0.000000,4.000000,4.000000,,,,,,,,,,,,,,,,,,,,,,,,,,,,,,,,,,,,,,,,,,,,,,,,,,,,,,,,
1577418778.371520,119.000000,0.000000,4149.743652,4384.102539,4187.179688,4070.256348,4092.820557,16247.000000,4.000000,,,,0.000000,4.000000,4.000000,0.000000,4.000000,4.000000,,,,,,,,,,,,,,,,,,,,,,,,,,,,,,,,,,,,,,,,,,,,,,,,,,,,,,,,
1577418778.379425,120.000000,0.000000,4167.179688,4397.948730,4152.307617,4072.820557,4095.897461,450.000000,4.000000,,,,0.000000,4.000000,4.000000,0.000000,4.000000,4.000000,,,,,,,,,,,,,,,,,,,,,,,,,,,,,,,,,,,,,,,,,,,,,,,,,,,,,,,,
1577418778.387231,121.000000,0.000000,4196.410156,4425.641113,4137.436035,4091.794922,4096.410156,450.000000,4.000000,,,,0.000000,4.000000,4.000000,0.000000,4.000000,4.000000,,,,,,,,,,,,,,,,,,,,,,,,,,,,,,,,189.797165,15.054509,4.656976,2.633652,1.725260,1.556750,2.523677,1.686247,1.115230,1.193562,3.296845,1.092708,3.276747,50.651985,24.195797,4.862912,3.004685,0.558131,1.042818,0.449874,53.132973,5.084685,1.729483,1.079994,0.677790
1577418778.395136,122.000000,0.000000,4202.051270,4405.128418,4189.230957,4097.948730,4085.128174,450.000000,4.000000,,,,0.000000,4.000000,4.000000,0.000000,4.000000,4.000000,,,,,,,,,,,,,,,,,,,,,,,,,,,,,,,,,,,,,,,,,,,,,,,,,,,,,,,,
1577418778.403042,123.000000,0.000000,4209.230957,4396.922852,4204.102539,4083.589844,4076.410156,16247.000000,4.000000,,,,0.000000,4.000000,4.000000,0.000000,4.000000,4.000000,,,,,,,,,,,,,,,,,,,,,,,,,,,,,,,,,,,,,,,,,,,,,,,,,,,,,,,,
1577418778.410847,124.000000,0.000000,4223.589844,4411.794922,4194.871582,4075.384521,4076.923096,450.000000,4.000000,,,,0.000000,4.000000,4.000000,0.000000,4.000000,4.000000,,,,,,,,,,,,,,,,,,,,,,,,,,,,,,,,,,,,,,,,,,,,,,,,,,,,,,,,
1577418778.418653,125.000000,0.000000,4196.922852,4385.641113,4233.333496,4096.410156,4062.564209,450.000000,4.000000,,,,0.000000,4.000000,4.000000,0.000000,4.000000,4.000000,,,,,,,,,,,,,,,,,,,,,,,,,,,,,,,,,,,,,,,,,,,,,,,,,,,,,,,,
1577418778.426358,126.000000,0.000000,4190.769043,4374.358887,4189.230957,4098.974121,4065.641113,450.000000,4.000000,,,,0.000000,4.000000,4.000000,0.000000,4.000000,4.000000,,,,,,,,,,,,,,,,,,,,,,,,,,,,,,,,,,,,,,,,,,,,,,,,,,,,,,,,
1577418778.434164,127.000000,0.000000,4204.102539,4405.128418,4182.051270,4103.589844,4075.384521,238.000000,4.000000,,,,0.000000,4.000000,4.000000,0.000000,4.000000,4.000000,,,,,,,,,,,,,,,,,,,,,,,,,,,,,,,,,,,,,,,,,,,,,,,,,,,,,,,,
1577418778.441869,0.000000,0.000000,4209.230957,4420.000000,4184.615234,4120.000000,4080.000000,450.000000,4.000000,,,,0.000000,4.000000,4.000000,0.000000,4.000000,4.000000,,,,,,,,,,,,,,,,,,,,,,,,,,,,,,,,,,,,,,,,,,,,,,,,,,,,,,,,
1577418778.449674,1.000000,0.000000,4195.897461,4393.333496,4155.897461,4114.358887,4080.512939,450.000000,4.000000,,,,0.000000,4.000000,4.000000,0.000000,4.000000,4.000000,,,,,,,,,,,,,,,,,,,,,,,,,,,,,,,,,,,,,,,,,,,,,,,,,,,,,,,,
1577418778.457380,2.000000,0.000000,4153.846191,4385.128418,4237.436035,4116.922852,4053.333252,16212.000000,4.000000,,,,0.000000,4.000000,4.000000,0.000000,4.000000,4.000000,,,,,,,,,,,,,,,,,,,,,,,,,,,,,,,,,,,,,,,,,,,,,,,,,,,,,,,,
1577418778.465185,3.000000,0.000000,4159.487305,4415.384766,4243.077148,4117.948730,4053.846191,450.000000,4.000000,,,,0.000000,4.000000,4.000000,0.000000,4.000000,4.000000,,,,,,,,,,,,,,,,,,,,,,,,,,,,,,,,,,,,,,,,,,,,,,,,,,,,,,,,
1577418778.472891,4.000000,0.000000,4188.205078,4407.692383,4183.077148,4121.025879,4087.179443,16233.000000,4.000000,,,,0.000000,4.000000,4.000000,0.000000,4.000000,4.000000,,,,,,,,,,,,,,,,,,,,,,,,,,,,,,,,,,,,,,,,,,,,,,,,,,,,,,,,
1577418778.480696,5.000000,0.000000,4187.692383,4389.743652,4145.128418,4144.102539,4104.102539,450.000000,4.000000,,,,0.000000,4.000000,4.000000,0.000000,4.000000,4.000000,,,,,,,,,,,,,,,,,,,,,,,,,,,,,,,,,,,,,,,,,,,,,,,,,,,,,,,,
1577418778.488401,6.000000,0.000000,4189.743652,4392.820313,4128.717773,4144.102539,4111.282227,19.000000,4.000000,,,,0.000000,4.000000,4.000000,0.000000,4.000000,4.000000,,,,,,,,,,,,,,,,,,,,,,,,,,,,,,,,,,,,,,,,,,,,,,,,,,,,,,,,
1577418778.496207,7.000000,0.000000,4170.769043,4385.641113,4225.128418,4144.615234,4097.436035,450.000000,4.000000,,,,0.000000,4.000000,4.000000,0.000000,4.000000,4.000000,,,,,,,,,,,,,,,,,,,,,,,,,,,,,,,,,,,,,,,,,,,,,,,,,,,,,,,,
1577418778.503912,8.000000,0.000000,4169.743652,4400.512695,4278.461426,4151.794922,4092.820557,450.000000,4.000000,,,,0.000000,4.000000,4.000000,0.000000,4.000000,4.000000,,,,,,,,,,,,,,,,,,,,,,,,,,,,,,,,,,,,,,,,,,,,,,,,,,,,,,,,
1577418778.511718,9.000000,0.000000,4193.846191,4407.692383,4188.717773,4147.179688,4103.589844,16191.000000,4.000000,,,,0.000000,4.000000,4.000000,0.000000,4.000000,4.000000,,,,,,,,,,,,,,,,,,,,,,,,,,,,,,,,196.693405,14.488368,4.721464,2.568266,1.819901,1.537671,2.140241,1.462129,1.019491,1.230608,3.136998,0.797977,3.185081,52.138287,24.219088,5.789837,2.978430,0.549962,1.025417,0.487826,55.485359,5.085318,1.646573,1.045465,0.674614
1577418778.519423,10.000000,0.000000,4185.128418,4383.589844,4099.487305,4154.358887,4105.641113,450.000000,4.000000,,,,0.000000,4.000000,4.000000,0.000000,4.000000,4.000000,,,,,,,,,,,,,,,,,,,,,,,,,,,,,,,,,,,,,,,,,,,,,,,,,,,,,,,,
1577418778.527228,11.000000,0.000000,4175.897461,4395.897461,4120.000000,4152.307617,4128.717773,16277.000000,4.000000,,,,0.000000,4.000000,4.000000,0.000000,4.000000,4.000000,,,,,,,,,,,,,,,,,,,,,,,,,,,,,,,,,,,,,,,,,,,,,,,,,,,,,,,,
1577418778.534934,12.000000,0.000000,4160.000000,4408.205078,4237.948730,4144.615234,4127.179688,450.000000,4.000000,,,,0.000000,4.000000,4.000000,0.000000,4.000000,4.000000,,,,,,,,,,,,,,,,,,,,,,,,,,,,,,,,,,,,,,,,,,,,,,,,,,,,,,,,
1577418778.542839,13.000000,0.000000,4153.333496,4385.128418,4226.666504,4136.922852,4099.487305,450.000000,4.000000,,,,0.000000,4.000000,4.000000,0.000000,4.000000,4.000000,,,,,,,,,,,,,,,,,,,,,,,,,,,,,,,,,,,,,,,,,,,,,,,,,,,,,,,,
1577418778.550645,14.000000,0.000000,4167.179688,4361.025879,4160.512695,4124.102539,4101.538574,450.000000,4.000000,,,,0.000000,4.000000,4.000000,0.000000,4.000000,4.000000,,,,,,,,,,,,,,,,,,,,,,,,,,,,,,,,,,,,,,,,,,,,,,,,,,,,,,,,
1577418778.558550,15.000000,0.000000,4153.846191,4369.230957,4212.307617,4133.333496,4111.282227,16277.000000,4.000000,,,,0.000000,4.000000,4.000000,0.000000,4.000000,4.000000,,,,,,,,,,,,,,,,,,,,,,,,,,,,,,,,,,,,,,,,,,,,,,,,,,,,,,,,
1577418778.566356,16.000000,0.000000,4146.153809,4397.436035,4192.820313,4141.538574,4116.410156,0.000000,4.000000,,,,0.000000,4.000000,4.000000,0.000000,4.000000,4.000000,,,,,,,,,,,,,,,,,,,,,,,,,,,,,,,,,,,,,,,,,,,,,,,,,,,,,,,,
1577418778.574261,17.000000,0.000000,4152.820313,4380.512695,4133.333496,4146.666504,4126.666504,0.000000,4.000000,,,,0.000000,4.000000,4.000000,0.000000,4.000000,4.000000,,,,,,,,,,,,,,,,,,,,,,,,,,,,,,,,,,,,,,,,,,,,,,,,,,,,,,,,
1577418778.582067,18.000000,0.000000,4170.769043,4366.666504,4106.666504,4149.743652,4131.794922,0.000000,4.000000,,,,0.000000,4.000000,4.000000,0.000000,4.000000,4.000000,,,,,,,,,,,,,,,,,,,,,,,,,,,,,,,,,,,,,,,,,,,,,,,,,,,,,,,,
1577418778.589972,19.000000,0.000000,4180.512695,4384.102539,4144.615234,4145.641113,4134.358887,0.000000,4.000000,,,,0.000000,4.000000,4.000000,0.000000,4.000000,4.000000,,,,,,,,,,,,,,,,,,,,,,,,,,,,,,,,,,,,,,,,,,,,,,,,,,,,,,,,
1577418778.597777,20.000000,0.000000,4169.743652,4380.000000,4263.077148,4170.256348,4150.256348,0.000000,4.000000,,,,0.000000,4.000000,4.000000,0.000000,4.000000,4.000000,,,,,,,,,,,,,,,,,,,,,,,,,,,,,,,,,,,,,,,,,,,,,,,,,,,,,,,,
1577418778.605483,21.000000,0.000000,4214.358887,4374.871582,4236.922852,4188.717773,4184.102539,0.000000,4.000000,,,,0.000000,4.000000,4.000000,0.000000,4.000000,4.000000,,,,,,,,,,,,,,,,,,,,,,,,,,,,,,,,,,,,,,,,,,,,,,,,,,,,,,,,
1577418778.613288,22.000000,0.000000,4250.769043,4346.153809,4140.000000,4174.871582,4196.922852,0.000000,4.000000,,,,0.000000,4.000000,4.000000,0.000000,4.000000,4.000000,,,,,,,,,,,,,,,,,,,,,,,,,,,,,,,,,,,,,,,,,,,,,,,,,,,,,,,,
1577418778.620993,23.000000,0.000000,4247.692383,4335.897461,4083.076904,4158.974121,4194.358887,0.000000,4.000000,,,,0.000000,4.000000,4.000000,0.000000,4.000000,4.000000,,,,,,,,,,,,,,,,,,,,,,,,,,,,,,,,,,,,,,,,,,,,,,,,,,,,,,,,
1577418778.628799,24.000000,0.000000,4291.794922,4370.256348,4109.743652,4147.692383,4232.820313,0.000000,4.000000,,,,0.000000,4.000000,4.000000,0.000000,4.000000,4.000000,,,,,,,,,,,,,,,,,,,,,,,,,,,,,,,,,,,,,,,,,,,,,,,,,,,,,,,,
1577418778.636504,25.000000,0.000000,4303.589844,4355.384766,4263.589844,4159.487305,4264.615234,0.000000,4.000000,,,,0.000000,4.000000,4.000000,0.000000,4.000000,4.000000,,,,,,,,,,,,,,,,,,,,,,,,,,,,,,,,175.417801,12.066250,4.254929,2.602978,1.875414,1.447718,1.754562,1.228977,1.002004,1.346503,2.672493,0.576536,3.109144,53.405907,23.693718,6.206862,2.759073,0.611408,1.066613,0.540317,50.888779,4.555610,1.495599,1.113397,0.696103
1577418778.644310,26.000000,0.000000,4317.948730,4351.794922,4215.897461,4166.153809,4272.820313,0.000000,4.000000,,,,0.000000,4.000000,4.000000,0.000000,4.000000,4.000000,,,,,,,,,,,,,,,,,,,,,,,,,,,,,,,,,,,,,,,,,,,,,,,,,,,,,,,,
1577418778.652015,27.000000,0.000000,4358.461426,4369.743652,4149.230957,4152.307617,4281.025879,0.000000,4.000000,,,,0.000000,4.000000,4.000000,0.000000,4.000000,4.000000,,,,,,,,,,,,,,,,,,,,,,,,,,,,,,,,,,,,,,,,,,,,,,,,,,,,,,,,
1577418778.659921,28.000000,0.000000,4332.820313,4358.461426,4186.666504,4175.897461,4271.282227,0.000000,4.000000,,,,0.000000,4.000000,4.000000,0.000000,4.000000,4.000000,,,,,,,,,,,,,,,,,,,,,,,,,,,,,,,,,,,,,,,,,,,,,,,,,,,,,,,,
1577418778.667726,29.000000,0.000000,4354.871582,4376.922852,4100.512695,4176.410156,4314.871582,0.000000,4.000000,,,,0.000000,4.000000,4.000000,0.000000,4.000000,4.000000,,,,,,,,,,,,,,,,,,,,,,,,,,,,,,,,,,,,,,,,,,,,,,,,,,,,,,,,
1577418778.675532,30.000000,0.000000,4327.692383,4344.615234,4193.846191,4157.436035,4306.153809,0.000000,4.000000,,,,0.000000,4.000000,4.000000,0.000000,4.000000,4.000000,,,,,,,,,,,,,,,,,,,,,,,,,,,,,,,,,,,,,,,,,,,,,,,,,,,,,,,,
1577418778.683237,31.000000,0.000000,4348.717773,4387.179688,4142.051270,4179.487305,4308.717773,0.000000,4.000000,,,,0.000000,4.000000,4.000000,0.000000,4.000000,4.000000,,,,,,,,,,,,,,,,,,,,,,,,,,,,,,,,,,,,,,,,,,,,,,,,,,,,,,,,
1577418778.691143,32.000000,0.000000,4459.487305,4425.641113,4114.358887,4136.922852,4399.487305,0.000000,4.000000,,,,0.000000,4.000000,4.000000,0.000000,4.000000,4.000000,,,,,,,,,,,,,,,,,,,,,,,,,,,,,,,,,,,,,,,,,,,,,,,,,,,,,,,,
1577418778.698948,33.000000,0.000000,4063.589844,4177.948730,4650.769043,4159.487305,4135.897461,0.000000,4.000000,,,,0.000000,4.000000,4.000000,0.000000,4.000000,4.000000,,,,,,,,,,,,,,,,,,,,,,,,,,,,,,,,,,,,,,,,,,,,,,,,,,,,,,,,
1577418778.706854,34.000000,0.000000,4289.743652,4449.230957,3803.076904,4161.025879,4236.410156,0.000000,4.000000,,,,0.000000,4.000000,4.000000,0.000000,4.000000,4.000000,,,,,,,,,,,,,,,,,,,,,,,,,,,,,,,,,,,,,,,,,,,,,,,,,,,,,,,,
1577418778.714659,35.000000,0.000000,4860.000000,4653.333496,3871.794922,4095.897461,4684.615234,0.000000,4.000000,,,,0.000000,4.000000,4.000000,0.000000,4.000000,4.000000,,,,,,,,,,,,,,,,,,,,,,,,,,,,,,,,,,,,,,,,,,,,,,,,,,,,,,,,
1577418778.722565,36.000000,0.000000,3808.718018,3937.948730,6095.384766,4288.205078,4017.948730,0.000000,4.000000,,,,0.000000,4.000000,4.000000,0.000000,4.000000,4.000000,,,,,,,,,,,,,,,,,,,,,,,,,,,,,,,,,,,,,,,,,,,,,,,,,,,,,,,,
1577418778.730370,37.000000,0.000000,3247.692383,3954.871826,4171.282227,3946.153809,3365.128174,0.000000,4.000000,,,,0.000000,4.000000,4.000000,0.000000,4.000000,4.000000,,,,,,,,,,,,,,,,,,,,,,,,,,,,,,,,,,,,,,,,,,,,,,,,,,,,,,,,
1577418778.738276,38.000000,0.000000,3884.615479,4445.641113,2175.897461,3544.102539,3711.794922,0.000000,4.000000,,,,0.000000,4.000000,4.000000,0.000000,4.000000,4.000000,,,,,,,,,,,,,,,,,,,,,,,,,,,,,,,,,,,,,,,,,,,,,,,,,,,,,,,,
1577418778.746081,39.000000,0.000000,3932.307617,4347.692383,3989.743652,3996.410156,3957.948730,0.000000,4.000000,,,,0.000000,4.000000,4.000000,0.000000,4.000000,4.000000,,,,,,,,,,,,,,,,,,,,,,,,,,,,,,,,,,,,,,,,,,,,,,,,,,,,,,,,
1577418778.753887,40.000000,0.000000,3976.923096,4356.922852,3837.435791,4120.000000,3994.871826,0.000000,4.000000,,,,0.000000,4.000000,4.000000,0.000000,4.000000,4.000000,,,,,,,,,,,,,,,,,,,,,,,,,,,,,,,,,,,,,,,,,,,,,,,,,,,,,,,,
1577418778.761592,41.000000,0.000000,4162.051270,4427.692383,3308.205078,4012.307617,4107.179688,0.000000,4.000000,,,,0.000000,4.000000,4.000000,0.000000,4.000000,4.000000,,,,,,,,,,,,,,,,,,,,,,,,,,,,,,,,133.235016,8.840330,3.389329,2.769224,1.897167,1.342524,1.521347,1.069398,1.061422,1.516880,2.085999,0.461317,3.044125,54.195057,22.859955,6.038289,2.398308,0.674681,1.137867,0.606279,40.445473,3.720928,1.269255,1.285611,0.760038
1577418778.769497,42.000000,0.000000,4208.717773,4414.871582,3810.256348,4168.717773,4208.717773,0.000000,4.000000,,,,0.000000,4.000000,4.000000,0.000000,4.000000,4.000000,,,,,,,,,,,,,,,,,,,,,,,,,,,,,,,,,,,,,,,,,,,,,,,,,,,,,,,,
1577418778.777303,43.000000,0.000000,4272.820313,4421.025879,3682.564209,4171.282227,4256.410156,0.000000,4.000000,,,,0.000000,4.000000,4.000000,0.000000,4.000000,4.000000,,,,,,,,,,,,,,,,,,,,,,,,,,,,,,,,,,,,,,,,,,,,,,,,,,,,,,,,
1577418778.785208,44.000000,0.000000,4282.051270,4408.717773,3728.205078,4179.487305,4270.256348,0.000000,4.000000,,,,0.000000,4.000000,4.000000,0.000000,4.000000,4.000000,,,,,,,,,,,,,,,,,,,,,,,,,,,,,,,,,,,,,,,,,,,,,,,,,,,,,,,,
1577418778.793013,45.000000,0.000000,4283.589844,4406.666504,3735.384521,4178.974121,4275.384766,0.000000,4.000000,,,,0.000000,4.000000,4.000000,0.000000,4.000000,4.000000,,,,,,,,,,,,,,,,,,,,,,,,,,,,,,,,,,,,,,,,,,,,,,,,,,,,,,,,
1577418778.800719,46.000000,0.000000,4293.846191,4389.743652,3729.230713,4167.179688,4284.615234,0.000000,4.000000,,,,0.000000,4.000000,4.000000,0.000000,4.000000,4.000000,,,,,,,,,,,,,,,,,,,,,,,,,,,,,,,,,,,,,,,,,,,,,,,,,,,,,,,,
1577418778.808524,47.000000,0.000000,4321.538574,4392.307617,3747.179443,4183.077148,4305.641113,0.000000,4.000000,,,,0.000000,4.000000,4.000000,0.000000,4.000000,4.000000,,,,,,,,,,,,,,,,,,,,,,,,,,,,,,,,,,,,,,,,,,,,,,,,,,,,,,,,
1577418778.816230,48.000000,0.000000,4326.666504,4393.333496,3721.025635,4168.205078,4303.589844,0.000000,4.000000,,,,0.000000,4.000000,4.000000,0.000000,4.000000,4.000000,,,,,,,,,,,,,,,,,,,,,,,,,,,,,,,,,,,,,,,,,,,,,,,,,,,,,,,,
1577418778.824035,49.000000,0.000000,4314.871582,4380.000000,3760.512939,4161.025879,4291.282227,0.000000,4.000000,,,,0.000000,4.000000,4.000000,0.000000,4.000000,4.000000,,,,,,,,,,,,,,,,,,,,,,,,,,,,,,,,,,,,,,,,,,,,,,,,,,,,,,,,
1577418778.831740,50.000000,0.000000,4325.128418,4379.487305,3748.205078,4165.641113,4298.461426,0.000000,4.000000,,,,0.000000,4.000000,4.000000,0.000000,4.000000,4.000000,,,,,,,,,,,,,,,,,,,,,,,,,,,,,,,,,,,,,,,,,,,,,,,,,,,,,,,,
1577418778.839646,51.000000,0.000000,4327.692383,4396.922852,3745.128174,4165.128418,4304.102539,0.000000,4.000000,,,,0.000000,4.000000,4.000000,0.000000,4.000000,4.000000,,,,,,,,,,,,,,,,,,,,,,,,,,,,,,,,,,,,,,,,,,,,,,,,,,,,,,,,
1577418778.847451,52.000000,0.000000,4309.230957,4409.230957,3768.718018,4152.307617,4285.641113,0.000000,4.000000,,,,0.000000,4.000000,4.000000,0.000000,4.000000,4.000000,,,,,,,,,,,,,,,,,,,,,,,,,,,,,,,,,,,,,,,,,,,,,,,,,,,,,,,,
1577418778.855357,53.000000,0.000000,4292.820313,4390.769043,3768.205078,4141.025879,4264.102539,0.000000,4.000000,,,,0.000000,4.000000,4.000000,0.000000,4.000000,4.000000,,,,,,,,,,,,,,,,,,,,,,,,,,,,,,,,,,,,,,,,,,,,,,,,,,,,,,,,
1577418778.863163,54.000000,0.000000,4280.512695,4383.077148,3778.974365,4145.641113,4260.512695,0.000000,4.000000,,,,0.000000,4.000000,4.000000,0.000000,4.000000,4.000000,,,,,,,,,,,,,,,,,,,,,,,,,,,,,,,,,,,,,,,,,,,,,,,,,,,,,,,,
1577418778.870968,55.000000,0.000000,4281.025879,4404.102539,3775.897461,4149.743652,4261.025879,0.000000,4.000000,,,,0.000000,4.000000,4.000000,0.000000,4.000000,4.000000,,,,,,,,,,,,,,,,,,,,,,,,,,,,,,,,,,,,,,,,,,,,,,,,,,,,,,,,
1577418778.878674,56.000000,0.000000,4277.948730,4405.641113,3775.384521,4143.589844,4252.820313,0.000000,4.000000,,,,0.000000,4.000000,4.000000,0.000000,4.000000,4.000000,,,,,,,,,,,,,,,,,,,,,,,,,,,,,,,,,,,,,,,,,,,,,,,,,,,,,,,,
1577418778.886479,57.000000,0.000000,4264.102539,4386.153809,3794.871826,4142.563965,4245.641113,0.000000,4.000000,,,,0.000000,4.000000,4.000000,0.000000,4.000000,4.000000,,,,,,,,,,,,,,,,,,,,,,,,,,,,,,,,86.398880,6.376599,2.834565,3.546977,2.675317,1.380367,1.583842,1.132975,1.268737,2.030282,3.061194,1.574214,4.273327,55.735168,26.585020,5.661759,2.247266,0.766507,1.308348,0.794200,29.021545,3.488001,1.394487,1.925708,1.332012
1577418778.894184,58.000000,0.000000,4266.153809,4372.307617,3783.076904,4148.205078,4245.641113,0.000000,4.000000,,,,0.000000,4.000000,4.000000,0.000000,4.000000,4.000000,,,,,,,,,,,,,,,,,,,,,,,,,,,,,,,,,,,,,,,,,,,,,,,,,,,,,,,,
1577418778.901990,59.000000,0.000000,4272.307617,4376.410156,3794.871826,4160.000000,4251.282227,0.000000,4.000000,,,,0.000000,4.000000,4.000000,0.000000,4.000000,4.000000,,,,,,,,,,,,,,,,,,,,,,,,,,,,,,,,,,,,,,,,,,,,,,,,,,,,,,,,
1577418778.909695,60.000000,0.000000,4274.871582,4387.179688,3805.641113,4164.615234,4259.487305,0.000000,4.000000,,,,0.000000,4.000000,4.000000,0.000000,4.000000,4.000000,,,,,,,,,,,,,,,,,,,,,,,,,,,,,,,,,,,,,,,,,,,,,,,,,,,,,,,,
1577418778.917601,61.000000,0.000000,4271.282227,4370.256348,3787.692383,4151.794922,4254.358887,0.000000,4.000000,,,,0.000000,4.000000,4.000000,0.000000,4.000000,4.000000,,,,,,,,,,,,,,,,,,,,,,,,,,,,,,,,,,,,,,,,,,,,,,,,,,,,,,,,
1577418778.925406,62.000000,0.000000,4263.589844,4360.000000,3803.076904,4152.307617,4249.743652,0.000000,4.000000,,,,0.000000,4.000000,4.000000,0.000000,4.000000,4.000000,,,,,,,,,,,,,,,,,,,,,,,,,,,,,,,,,,,,,,,,,,,,,,,,,,,,,,,,
1577418778.933212,63.000000,0.000000,4273.333496,4392.820313,3801.538574,4165.641113,4258.974121,0.000000,4.000000,,,,0.000000,4.000000,4.000000,0.000000,4.000000,4.000000,,,,,,,,,,,,,,,,,,,,,,,,,,,,,,,,,,,,,,,,,,,,,,,,,,,,,,,,
1577418778.940917,64.000000,0.000000,4278.974121,4396.410156,3788.718018,4164.102539,4262.563965,450.000000,4.000000,,,,0.000000,4.000000,4.000000,0.000000,4.000000,4.000000,,,,,,,,,,,,,,,,,,,,,,,,,,,,,,,,,,,,,,,,,,,,,,,,,,,,,,,,
1577418778.948823,65.000000,0.000000,4270.256348,4368.205078,3794.358887,4159.487305,4257.436035,450.000000,4.000000,,,,0.000000,4.000000,4.000000,0.000000,4.000000,4.000000,,,,,,,,,,,,,,,,,,,,,,,,,,,,,,,,,,,,,,,,,,,,,,,,,,,,,,,,
1577418778.956628,66.000000,0.000000,4268.717773,4373.846191,3785.128174,4161.025879,4254.358887,16129.000000,4.000000,,,,0.000000,4.000000,4.000000,0.000000,4.000000,4.000000,,,,,,,,,,,,,,,,,,,,,,,,,,,,,,,,,,,,,,,,,,,,,,,,,,,,,,,,
1577418778.964534,67.000000,0.000000,4273.846191,4387.179688,3797.435791,4165.128418,4254.358887,450.000000,4.000000,,,,0.000000,4.000000,4.000000,0.000000,4.000000,4.000000,,,,,,,,,,,,,,,,,,,,,,,,,,,,,,,,,,,,,,,,,,,,,,,,,,,,,,,,
1577418778.972339,68.000000,0.000000,4272.820313,4377.436035,3808.205078,4165.128418,4253.846191,16142.000000,4.000000,,,,0.000000,4.000000,4.000000,0.000000,4.000000,4.000000,,,,,,,,,,,,,,,,,,,,,,,,,,,,,,,,,,,,,,,,,,,,,,,,,,,,,,,,
1577418778.980044,69.000000,0.000000,4265.128418,4375.384766,3803.589844,4161.025879,4248.717773,450.000000,4.000000,,,,0.000000,4.000000,4.000000,1.000000,4.000000,4.000000,,,,,,,,,,,,,,,,,,,,,,,,,,,,,,,,,,,,,,,,,,,,,,,,,,,,,,,,
1577418778.987850,70.000000,0.000000,4262.051270,4382.563965,3814.871826,4161.025879,4247.179688,157.000000,4.000000,,,,0.000000,4.000000,4.000000,1.000000,4.000000,4.000000,,,,,,,,,,,,,,,,,,,,,,,,,,,,,,,,,,,,,,,,,,,,,,,,,,,,,,,,
1577418778.995555,71.000000,0.000000,4262.051270,4371.282227,3808.205078,4160.000000,4249.230957,450.000000,4.000000,,,,0.000000,4.000000,4.000000,1.000000,4.000000,4.000000,,,,,,,,,,,,,,,,,,,,,,,,,,,,,,,,,,,,,,,,,,,,,,,,,,,,,,,,
1577418779.003361,72.000000,0.000000,4251.794922,4356.922852,3803.076904,4157.436035,4237.436035,450.000000,4.000000,,,,0.000000,4.000000,4.000000,1.000000,4.000000,4.000000,,,,,,,,,,,,,,,,,,,,,,,,,,,,,,,,,,,,,,,,,,,,,,,,,,,,,,,,
1577418779.011066,73.000000,0.000000,4253.846191,4374.358887,3820.512939,4162.563965,4234.358887,16171.000000,4.000000,,,,0.000000,4.000000,4.000000,1.000000,4.000000,4.000000,,,,,,,,,,,,,,,,,,,,,,,,,,,,,,,,62.029778,10.108129,6.324122,7.384690,8.014297,2.025414,2.566621,1.914507,2.207053,4.409512,15.982835,11.730442,14.765351,66.237686,61.105129,6.743184,3.694142,1.606046,2.197882,1.788411,29.547298,8.625828,5.072215,5.056538,4.584746
1577418779.018871,74.000000,0.000000,4268.205078,4389.230957,3824.102539,4163.077148,4245.128418,450.000000,4.000000,,,,0.000000,4.000000,4.000000,1.000000,4.000000,4.000000,,,,,,,,,,,,,,,,,,,,,,,,,,,,,,,,,,,,,,,,,,,,,,,,,,,,,,,,
1577418779.026577,75.000000,0.000000,4263.589844,4375.384766,3821.025635,4162.051270,4244.615234,16183.000000,4.000000,,,,0.000000,4.000000,4.000000,1.000000,4.000000,4.000000,,,,,,,,,,,,,,,,,,,,,,,,,,,,,,,,,,,,,,,,,,,,,,,,,,,,,,,,
1577418779.034382,76.000000,0.000000,4266.153809,4384.615234,3815.384521,4171.282227,4245.128418,450.000000,4.000000,,,,0.000000,4.000000,4.000000,1.000000,4.000000,4.000000,,,,,,,,,,,,,,,,,,,,,,,,,,,,,,,,,,,,,,,,,,,,,,,,,,,,,,,,
1577418779.042088,77.000000,0.000000,4277.436035,4409.743652,3827.692383,4178.974121,4256.410156,450.000000,4.000000,,,,0.000000,4.000000,4.000000,1.000000,4.000000,4.000000,,,,,,,,,,,,,,,,,,,,,,,,,,,,,,,,,,,,,,,,,,,,,,,,,,,,,,,,
1577418779.049893,78.000000,0.000000,4262.051270,4391.282227,3839.487061,4168.205078,4251.794922,450.000000,4.000000,,,,0.000000,4.000000,4.000000,1.000000,4.000000,4.000000,,,,,,,,,,,,,,,,,,,,,,,,,,,,,,,,,,,,,,,,,,,,,,,,,,,,,,,,
1577418779.057598,79.000000,0.000000,4237.948730,4361.025879,3811.281982,4149.743652,4235.897461,16183.000000,4.000000,,,,0.000000,4.000000,4.000000,1.000000,4.000000,4.000000,,,,,,,,,,,,,,,,,,,,,,,,,,,,,,,,,,,,,,,,,,,,,,,,,,,,,,,,
1577418779.065404,80.000000,0.000000,4232.307617,4367.179688,3817.435791,4151.794922,4233.333496,450.000000,4.000000,,,,0.000000,4.000000,4.000000,1.000000,4.000000,4.000000,,,,,,,,,,,,,,,,,,,,,,,,,,,,,,,,,,,,,,,,,,,,,,,,,,,,,,,,
1577418779.073109,81.000000,0.000000,4242.563965,4392.820313,3840.000000,4160.512695,4235.384766,450.000000,4.000000,,,,0.000000,4.000000,4.000000,1.000000,4.000000,4.000000,,,,,,,,,,,,,,,,,,,,,,,,,,,,,,,,,,,,,,,,,,,,,,,,,,,,,,,,
1577418779.080915,82.000000,0.000000,4243.589844,4384.615234,3830.769287,4158.974121,4233.333496,450.000000,4.000000,,,,0.000000,4.000000,4.000000,1.000000,4.000000,4.000000,,,,,,,,,,,,,,,,,,,,,,,,,,,,,,,,,,,,,,,,,,,,,,,,,,,,,,,,
1577418779.088620,83.000000,0.000000,4236.410156,4365.128418,3836.410156,4163.077148,4235.384766,16183.000000,4.000000,,,,0.000000,4.000000,4.000000,1.000000,4.000000,4.000000,,,,,,,,,,,,,,,,,,,,,,,,,,,,,,,,,,,,,,,,,,,,,,,,,,,,,,,,
1577418779.096525,84.000000,0.000000,4244.102539,4373.333496,3833.846191,4167.179688,4239.487305,450.000000,4.000000,,,,0.000000,4.000000,4.000000,1.000000,4.000000,4.000000,,,,,,,,,,,,,,,,,,,,,,,,,,,,,,,,,,,,,,,,,,,,,,,,,,,,,,,,
1577418779.104331,85.000000,0.000000,4245.641113,4382.051270,3835.384521,4164.615234,4242.051270,450.000000,4.000000,,,,0.000000,4.000000,4.000000,1.000000,4.000000,4.000000,,,,,,,,,,,,,,,,,,,,,,,,,,,,,,,,,,,,,,,,,,,,,,,,,,,,,,,,
1577418779.112237,86.000000,0.000000,4243.589844,4380.512695,3848.718018,4165.641113,4244.615234,450.000000,4.000000,,,,0.000000,4.000000,4.000000,1.000000,4.000000,4.000000,,,,,,,,,,,,,,,,,,,,,,,,,,,,,,,,,,,,,,,,,,,,,,,,,,,,,,,,
1577418779.120042,87.000000,0.000000,4251.282227,4375.897461,3835.897461,4166.153809,4248.717773,16183.000000,4.000000,,,,0.000000,4.000000,4.000000,1.000000,4.000000,4.000000,,,,,,,,,,,,,,,,,,,,,,,,,,,,,,,,,,,,,,,,,,,,,,,,,,,,,,,,
1577418779.127948,88.000000,0.000000,4241.538574,4367.179688,3840.000000,4158.461426,4235.384766,450.000000,4.000000,,,,0.000000,4.000000,4.000000,1.000000,4.000000,4.000000,,,,,,,,,,,,,,,,,,,,,,,,,,,,,,,,,,,,,,,,,,,,,,,,,,,,,,,,
1577418779.135753,89.000000,0.000000,4228.717773,4370.769043,3842.051270,4148.717773,4218.974121,450.000000,4.000000,,,,0.000000,4.000000,4.000000,1.000000,4.000000,4.000000,,,,,,,,,,,,,,,,,,,,,,,,,,,,,,,,86.654968,27.713320,19.359020,17.788750,23.057423,3.999703,5.489027,4.125235,4.734470,10.738656,56.208534,43.211151,46.438126,97.750175,164.424408,11.992847,8.876227,4.510219,4.789773,4.654008,58.390327,26.419127,17.275961,13.666223,13.467241
1577418779.143659,90.000000,0.000000,4249.743652,4377.948730,3839.487061,4156.922852,4234.871582,450.000000,4.000000,,,,0.000000,4.000000,4.000000,1.000000,4.000000,4.000000,,,,,,,,,,,,,,,,,,,,,,,,,,,,,,,,,,,,,,,,,,,,,,,,,,,,,,,,
1577418779.151464,91.000000,0.000000,4274.358887,4379.487305,3845.128174,4168.717773,4257.436035,16183.000000,4.000000,,,,0.000000,4.000000,4.000000,1.000000,4.000000,4.000000,,,,,,,,,,,,,,,,,,,,,,,,,,,,,,,,,,,,,,,,,,,,,,,,,,,,,,,,
1577418779.159370,92.000000,0.000000,4276.922852,4381.538574,3834.358887,4156.410156,4252.820313,450.000000,4.000000,,,,0.000000,4.000000,4.000000,1.000000,4.000000,4.000000,,,,,,,,,,,,,,,,,,,,,,,,,,,,,,,,,,,,,,,,,,,,,,,,,,,,,,,,
1577418779.167175,93.000000,0.000000,4277.436035,4374.358887,3848.718018,4145.641113,4241.538574,450.000000,4.000000,,,,0.000000,4.000000,4.000000,1.000000,4.000000,4.000000,,,,,,,,,,,,,,,,,,,,,,,,,,,,,,,,,,,,,,,,,,,,,,,,,,,,,,,,
1577418779.175080,94.000000,0.000000,4283.589844,4368.205078,3847.692383,4138.974121,4238.461426,450.000000,4.000000,,,,0.000000,4.000000,4.000000,1.000000,4.000000,4.000000,,,,,,,,,,,,,,,,,,,,,,,,,,,,,,,,,,,,,,,,,,,,,,,,,,,,,,,,
1577418779.182885,95.000000,0.000000,4292.307617,4379.487305,3827.692383,4125.641113,4238.461426,16183.000000,4.000000,,,,0.000000,4.000000,4.000000,1.000000,4.000000,4.000000,,,,,,,,,,,,,,,,,,,,,,,,,,,,,,,,,,,,,,,,,,,,,,,,,,,,,,,,
1577418779.190791,96.000000,0.000000,4314.358887,4378.974121,3844.615479,4128.717773,4250.256348,450.000000,4.000000,,,,0.000000,4.000000,4.000000,1.000000,4.000000,4.000000,,,,,,,,,,,,,,,,,,,,,,,,,,,,,,,,,,,,,,,,,,,,,,,,,,,,,,,,
1577418779.198596,97.000000,0.000000,4363.589844,4381.538574,3853.846191,4146.153809,4283.589844,450.000000,4.000000,,,,0.000000,4.000000,4.000000,1.000000,4.000000,4.000000,,,,,,,,,,,,,,,,,,,,,,,,,,,,,,,,,,,,,,,,,,,,,,,,,,,,,,,,
1577418779.206301,98.000000,0.000000,4412.307617,4395.384766,3852.307617,4156.922852,4318.974121,450.000000,4.000000,,,,0.000000,4.000000,4.000000,1.000000,4.000000,4.000000,,,,,,,,,,,,,,,,,,,,,,,,,,,,,,,,,,,,,,,,,,,,,,,,,,,,,,,,
1577418779.214107,99.000000,0.000000,4446.153809,4387.179688,3843.076904,4149.230957,4336.410156,16183.000000,4.000000,,,,0.000000,4.000000,4.000000,1.000000,4.000000,4.000000,,,,,,,,,,,,,,,,,,,,,,,,,,,,,,,,,,,,,,,,,,,,,,,,,,,,,,,,
1577418779.221812,100.000000,0.000000,4489.230957,4386.666504,3842.564209,4147.692383,4356.922852,450.000000,4.000000,,,,0.000000,4.000000,4.000000,1.000000,4.000000,4.000000,,,,,,,,,,,,,,,,,,,,,,,,,,,,,,,,,,,,,,,,,,,,,,,,,,,,,,,,
1577418779.229718,101.000000,0.000000,4535.897461,4411.282227,3861.025635,4164.615234,4386.666504,450.000000,4.000000,,,,0.000000,4.000000,4.000000,1.000000,4.000000,4.000000,,,,,,,,,,,,,,,,,,,,,,,,,,,,,,,,,,,,,,,,,,,,,,,,,,,,,,,,
1577418779.237523,102.000000,0.000000,4564.102539,4402.563965,3844.615479,4157.948730,4398.461426,450.000000,4.000000,,,,0.000000,4.000000,4.000000,1.000000,4.000000,4.000000,,,,,,,,,,,,,,,,,,,,,,,,,,,,,,,,,,,,,,,,,,,,,,,,,,,,,,,,
1577418779.245329,103.000000,0.000000,4576.410156,4379.487305,3834.871826,4141.025879,4404.615234,16183.000000,4.000000,,,,0.000000,4.000000,4.000000,1.000000,4.000000,4.000000,,,,,,,,,,,,,,,,,,,,,,,,,,,,,,,,,,,,,,,,,,,,,,,,,,,,,,,,
1577418779.253034,104.000000,0.000000,4590.256348,4397.436035,3845.641113,4150.769043,4420.512695,450.000000,4.000000,,,,0.000000,4.000000,4.000000,1.000000,4.000000,4.000000,,,,,,,,,,,,,,,,,,,,,,,,,,,,,,,,,,,,,,,,,,,,,,,,,,,,,,,,
1577418779.260940,105.000000,0.000000,4590.769043,4387.179688,3840.000000,4143.077148,4414.871582,450.000000,4.000000,,,,0.000000,4.000000,4.000000,1.000000,4.000000,4.000000,,,,,,,,,,,,,,,,,,,,,,,,,,,,,,,,168.281128,63.004841,45.046341,36.444092,50.074348,7.694845,10.987552,8.118080,9.266207,21.936661,134.644348,102.927032,105.604080,156.137421,355.651276,23.260174,19.105778,10.405354,9.643905,9.985627,123.623596,60.915565,40.877987,29.261494,29.273230
1577418779.268745,106.000000,0.000000,4577.948730,4356.410156,3846.153809,4121.538574,4402.051270,450.000000,4.000000,,,,0.000000,4.000000,4.000000,1.000000,4.000000,4.000000,,,,,,,,,,,,,,,,,,,,,,,,,,,,,,,,,,,,,,,,,,,,,,,,,,,,,,,,
1577418779.276651,107.000000,0.000000,4589.743652,4373.333496,3848.205078,4133.333496,4422.563965,16183.000000,4.000000,,,,0.000000,4.000000,4.000000,1.000000,4.000000,4.000000,,,,,,,,,,,,,,,,,,,,,,,,,,,,,,,,,,,,,,,,,,,,,,,,,,,,,,,,
1577418779.284457,108.000000,0.000000,4599.487305,4381.025879,3844.102539,4144.615234,4440.000000,450.000000,4.000000,,,,0.000000,4.000000,4.000000,1.000000,4.000000,4.000000,,,,,,,,,,,,,,,,,,,,,,,,,,,,,,,,,,,,,,,,,,,,,,,,,,,,,,,,
1577418779.292362,109.000000,0.000000,4577.948730,4368.717773,3843.076904,4124.102539,4423.077148,450.000000,4.000000,,,,0.000000,4.000000,4.000000,1.000000,4.000000,4.000000,,,,,,,,,,,,,,,,,,,,,,,,,,,,,,,,,,,,,,,,,,,,,,,,,,,,,,,,
1577418779.300168,110.000000,0.000000,4570.256348,4375.897461,3834.871826,4109.230957,4410.769043,450.000000,4.000000,,,,0.000000,4.000000,4.000000,1.000000,4.000000,4.000000,,,,,,,,,,,,,,,,,,,,,,,,,,,,,,,,,,,,,,,,,,,,,,,,,,,,,,,,
1577418779.307973,111.000000,0.000000,4581.025879,4375.897461,3854.358887,4123.077148,4418.974121,16183.000000,4.000000,,,,0.000000,4.000000,4.000000,1.000000,4.000000,4.000000,,,,,,,,,,,,,,,,,,,,,,,,,,,,,,,,,,,,,,,,,,,,,,,,,,,,,,,,
1577418779.315679,112.000000,0.000000,4577.436035,4370.769043,3854.871826,4127.179688,4415.384766,450.000000,4.000000,,,,0.000000,4.000000,4.000000,1.000000,4.000000,4.000000,,,,,,,,,,,,,,,,,,,,,,,,,,,,,,,,,,,,,,,,,,,,,,,,,,,,,,,,
1577418779.323584,113.000000,0.000000,4568.205078,4375.897461,3847.692383,4124.102539,4403.077148,450.000000,4.000000,,,,0.000000,4.000000,4.000000,1.000000,4.000000,4.000000,,,,,,,,,,,,,,,,,,,,,,,,,,,,,,,,,,,,,,,,,,,,,,,,,,,,,,,,
1577418779.331390,114.000000,0.000000,4572.307617,4376.922852,3870.256348,4135.384766,4408.205078,450.000000,4.000000,,,,0.000000,4.000000,4.000000,1.000000,4.000000,4.000000,,,,,,,,,,,,,,,,,,,,,,,,,,,,,,,,,,,,,,,,,,,,,,,,,,,,,,,,
1577418779.339295,115.000000,0.000000,4587.692383,4378.461426,3862.051270,4143.589844,4421.025879,16183.000000,4.000000,,,,0.000000,4.000000,4.000000,1.000000,4.000000,4.000000,,,,,,,,,,,,,,,,,,,,,,,,,,,,,,,,,,,,,,,,,,,,,,,,,,,,,,,,
1577418779.347201,116.000000,1.000000,4583.077148,4378.347656,3866.666748,4143.589844,4418.290527,14434.888672,4.000000,,,,0.000000,4.000000,4.000000,1.000000,4.000000,4.000000,,,,,,,,,,,,,,,,,,,,,,,,,,,,,,,,,,,,,,,,,,,,,,,,,,,,,,,,
1577418779.355007,117.000000,1.000000,4578.461426,4378.233398,3871.281982,4143.589844,4415.555664,12686.777344,4.000000,,,,0.000000,4.000000,4.000000,1.000000,4.000000,4.000000,,,,,,,,,,,,,,,,,,,,,,,,,,,,,,,,,,,,,,,,,,,,,,,,,,,,,,,,
1577418779.362814,118.000000,1.000000,4573.846191,4378.119629,3875.897461,4143.589844,4412.820313,10938.666992,4.000000,,,,0.000000,4.000000,4.000000,1.000000,4.000000,4.000000,,,,,,,,,,,,,,,,,,,,,,,,,,,,,,,,,,,,,,,,,,,,,,,,,,,,,,,,
1577418779.370620,119.000000,1.000000,4569.230957,4378.005859,3880.512939,4143.589844,4410.085449,9190.555664,4.000000,,,,0.000000,4.000000,4.000000,1.000000,4.000000,4.000000,,,,,,,,,,,,,,,,,,,,,,,,,,,,,,,,,,,,,,,,,,,,,,,,,,,,,,,,
1577418779.378426,120.000000,1.000000,4564.615234,4377.891602,3885.128174,4143.589844,4407.350586,7442.444336,4.000000,,,,0.000000,4.000000,4.000000,1.000000,4.000000,4.000000,,,,,,,,,,,,,,,,,,,,,,,,,,,,,,,,,,,,,,,,,,,,,,,,,,,,,,,,
1577418779.386233,121.000000,1.000000,4560.000000,4377.777832,3889.743652,4143.589844,4404.615234,5694.333496,4.000000,,,,0.000000,4.000000,4.000000,1.000000,4.000000,4.000000,,,,,,,,,,,,,,,,,,,,,,,,,,,,,,,,286.775757,110.986572,80.526779,61.049355,85.471497,12.708708,18.490183,13.382698,15.250569,36.531979,242.044937,184.551163,185.593063,233.927048,611.919250,39.764496,33.382416,18.848852,16.256784,17.217836,215.638046,108.105988,73.337387,49.991203,49.913048
1577418779.394039,122.000000,1.000000,4555.384766,4377.663574,3894.358887,4143.589844,4401.880371,3946.222168,4.000000,,,,0.000000,4.000000,4.000000,1.000000,4.000000,4.000000,,,,,,,,,,,,,,,,,,,,,,,,,,,,,,,,,,,,,,,,,,,,,,,,,,,,,,,,
1577418779.401845,123.000000,1.000000,4550.769043,4377.549805,3898.974365,4143.589844,4399.145508,2198.111084,4.000000,,,,0.000000,4.000000,4.000000,1.000000,4.000000,4.000000,,,,,,,,,,,,,,,,,,,,,,,,,,,,,,,,,,,,,,,,,,,,,,,,,,,,,,,,
1577418779.409652,124.000000,0.000000,4546.153809,4377.436035,3903.589844,4143.589844,4396.410156,450.000000,4.000000,,,,0.000000,4.000000,4.000000,1.000000,4.000000,4.000000,,,,,,,,,,,,,,,,,,,,,,,,,,,,,,,,,,,,,,,,,,,,,,,,,,,,,,,,
1577418779.417356,125.000000,0.000000,4560.512695,4364.102539,3891.794922,4158.974121,4410.769043,450.000000,4.000000,,,,0.000000,4.000000,4.000000,1.000000,4.000000,4.000000,,,,,,,,,,,,,,,,,,,,,,,,,,,,,,,,,,,,,,,,,,,,,,,,,,,,,,,,
1577418779.425160,126.000000,0.000000,4558.461426,4370.769043,3883.076904,4141.538574,4404.615234,450.000000,4.000000,,,,0.000000,4.000000,4.000000,1.000000,4.000000,4.000000,,,,,,,,,,,,,,,,,,,,,,,,,,,,,,,,,,,,,,,,,,,,,,,,,,,,,,,,
1577418779.432965,127.000000,0.000000,4546.666504,4378.461426,3901.538574,4133.846191,4391.794922,238.000000,4.000000,,,,0.000000,4.000000,4.000000,1.000000,4.000000,4.000000,,,,,,,,,,,,,,,,,,,,,,,,,,,,,,,,,,,,,,,,,,,,,,,,,,,,,,,,
1577418779.440769,0.000000,0.000000,4547.692383,4373.333496,3897.948730,4144.615234,4390.256348,450.000000,4.000000,,,,0.000000,4.000000,4.000000,1.000000,4.000000,4.000000,,,,,,,,,,,,,,,,,,,,,,,,,,,,,,,,,,,,,,,,,,,,,,,,,,,,,,,,
1577418779.448474,1.000000,0.000000,4548.205078,4373.846191,3895.384521,4140.000000,4389.743652,450.000000,4.000000,,,,0.000000,4.000000,4.000000,1.000000,4.000000,4.000000,,,,,,,,,,,,,,,,,,,,,,,,,,,,,,,,,,,,,,,,,,,,,,,,,,,,,,,,
1577418779.456279,2.000000,0.000000,4537.948730,4369.743652,3886.153809,4124.615234,4380.512695,16216.000000,4.000000,,,,0.000000,4.000000,4.000000,1.000000,4.000000,4.000000,,,,,,,,,,,,,,,,,,,,,,,,,,,,,,,,,,,,,,,,,,,,,,,,,,,,,,,,
1577418779.464084,3.000000,0.000000,4522.051270,4357.436035,3885.128174,4120.512695,4373.846191,450.000000,4.000000,,,,0.000000,4.000000,4.000000,1.000000,4.000000,4.000000,,,,,,,,,,,,,,,,,,,,,,,,,,,,,,,,,,,,,,,,,,,,,,,,,,,,,,,,
1577418779.471889,4.000000,0.000000,4508.717773,4375.384766,3903.589844,4120.512695,4367.179688,16199.000000,4.000000,,,,0.000000,4.000000,4.000000,1.000000,4.000000,4.000000,,,,,,,,,,,,,,,,,,,,,,,,,,,,,,,,,,,,,,,,,,,,,,,,,,,,,,,,
1577418779.479593,5.000000,0.000000,4502.563965,4398.461426,3896.410156,4108.717773,4352.820313,450.000000,4.000000,,,,0.000000,4.000000,4.000000,2.000000,4.000000,4.000000,,,,,,,,,,,,,,,,,,,,,,,,,,,,,,,,,,,,,,,,,,,,,,,,,,,,,,,,
1577418779.487397,6.000000,0.000000,4490.769043,4381.538574,3892.820557,4104.615234,4338.974121,303.000000,4.000000,,,,0.000000,4.000000,4.000000,2.000000,4.000000,4.000000,,,,,,,,,,,,,,,,,,,,,,,,,,,,,,,,,,,,,,,,,,,,,,,,,,,,,,,,
1577418779.495102,7.000000,0.000000,4484.615234,4376.410156,3890.769287,4112.820313,4341.025879,450.000000,4.000000,,,,0.000000,4.000000,4.000000,2.000000,4.000000,4.000000,,,,,,,,,,,,,,,,,,,,,,,,,,,,,,,,,,,,,,,,,,,,,,,,,,,,,,,,
1577418779.502906,8.000000,0.000000,4488.205078,4395.384766,3899.487061,4116.922852,4355.384766,450.000000,4.000000,,,,0.000000,4.000000,4.000000,2.000000,4.000000,4.000000,,,,,,,,,,,,,,,,,,,,,,,,,,,,,,,,,,,,,,,,,,,,,,,,,,,,,,,,
1577418779.510610,9.000000,0.000000,4491.282227,4382.051270,3918.461426,4120.000000,4360.000000,16185.000000,4.000000,,,,0.000000,4.000000,4.000000,2.000000,4.000000,4.000000,,,,,,,,,,,,,,,,,,,,,,,,,,,,,,,,404.025269,159.107285,116.893433,85.301453,120.042511,17.872242,26.175926,18.543690,21.159143,50.750648,354.815399,267.950745,266.296204,310.331360,868.190613,57.566643,48.163200,27.871861,22.989399,24.573221,309.857819,156.167130,106.540306,70.613121,70.049202
1577418779.518414,10.000000,0.000000,4492.307617,4362.051270,3900.512939,4116.410156,4359.487305,450.000000,4.000000,,,,0.000000,4.000000,4.000000,2.000000,4.000000,4.000000,,,,,,,,,,,,,,,,,,,,,,,,,,,,,,,,,,,,,,,,,,,,,,,,,,,,,,,,
1577418779.526118,11.000000,0.000000,4497.436035,4385.641113,3902.564209,4120.512695,4368.717773,16220.000000,4.000000,,,,0.000000,4.000000,4.000000,2.000000,4.000000,4.000000,,,,,,,,,,,,,,,,,,,,,,,,,,,,,,,,,,,,,,,,,,,,,,,,,,,,,,,,
1577418779.533922,12.000000,0.000000,4510.769043,4398.461426,3923.076904,4134.871582,4383.077148,450.000000,4.000000,,,,0.000000,4.000000,4.000000,2.000000,4.000000,4.000000,,,,,,,,,,,,,,,,,,,,,,,,,,,,,,,,,,,,,,,,,,,,,,,,,,,,,,,,
1577418779.541627,13.000000,0.000000,4505.641113,4368.717773,3917.435791,4131.794922,4385.641113,450.000000,4.000000,,,,0.000000,4.000000,4.000000,2.000000,4.000000,4.000000,,,,,,,,,,,,,,,,,,,,,,,,,,,,,,,,,,,,,,,,,,,,,,,,,,,,,,,,
1577418779.549431,14.000000,0.000000,4479.487305,4364.615234,3910.256348,4119.487305,4367.179688,450.000000,4.000000,,,,0.000000,4.000000,4.000000,2.000000,4.000000,4.000000,,,,,,,,,,,,,,,,,,,,,,,,,,,,,,,,,,,,,,,,,,,,,,,,,,,,,,,,
1577418779.557135,15.000000,0.000000,4473.333496,4383.589844,3907.692383,4112.307617,4350.256348,16220.000000,4.000000,,,,0.000000,4.000000,4.000000,2.000000,4.000000,4.000000,,,,,,,,,,,,,,,,,,,,,,,,,,,,,,,,,,,,,,,,,,,,,,,,,,,,,,,,
1577418779.564840,16.000000,0.000000,4478.974121,4376.922852,3915.897461,4108.717773,4350.769043,0.000000,4.000000,,,,0.000000,4.000000,4.000000,2.000000,4.000000,4.000000,,,,,,,,,,,,,,,,,,,,,,,,,,,,,,,,,,,,,,,,,,,,,,,,,,,,,,,,
1577418779.572644,17.000000,0.000000,4481.538574,4386.666504,3911.794922,4116.410156,4360.512695,0.000000,4.000000,,,,0.000000,4.000000,4.000000,2.000000,4.000000,4.000000,,,,,,,,,,,,,,,,,,,,,,,,,,,,,,,,,,,,,,,,,,,,,,,,,,,,,,,,
1577418779.580349,18.000000,0.000000,4489.743652,4402.563965,3903.589844,4129.230957,4370.769043,0.000000,4.000000,,,,0.000000,4.000000,4.000000,2.000000,4.000000,4.000000,,,,,,,,,,,,,,,,,,,,,,,,,,,,,,,,,,,,,,,,,,,,,,,,,,,,,,,,
1577418779.588255,19.000000,0.000000,4490.769043,4375.384766,3913.846191,4130.769043,4370.769043,0.000000,4.000000,,,,0.000000,4.000000,4.000000,2.000000,4.000000,4.000000,,,,,,,,,,,,,,,,,,,,,,,,,,,,,,,,,,,,,,,,,,,,,,,,,,,,,,,,
1577418779.596061,20.000000,0.000000,4482.051270,4366.666504,3908.718018,4128.205078,4367.692383,0.000000,4.000000,,,,0.000000,4.000000,4.000000,2.000000,4.000000,4.000000,,,,,,,,,,,,,,,,,,,,,,,,,,,,,,,,,,,,,,,,,,,,,,,,,,,,,,,,
1577418779.603866,21.000000,0.000000,4487.692383,4385.128418,3919.487061,4146.153809,4382.563965,0.000000,4.000000,,,,0.000000,4.000000,4.000000,2.000000,4.000000,4.000000,,,,,,,,,,,,,,,,,,,,,,,,,,,,,,,,,,,,,,,,,,,,,,,,,,,,,,,,
1577418779.611572,22.000000,0.000000,4495.384766,4388.205078,3935.384521,4158.461426,4394.358887,0.000000,4.000000,,,,0.000000,4.000000,4.000000,2.000000,4.000000,4.000000,,,,,,,,,,,,,,,,,,,,,,,,,,,,,,,,,,,,,,,,,,,,,,,,,,,,,,,,
1577418779.619377,23.000000,0.000000,4489.230957,4389.230957,3923.589844,4144.615234,4386.666504,0.000000,4.000000,,,,0.000000,4.000000,4.000000,2.000000,4.000000,4.000000,,,,,,,,,,,,,,,,,,,,,,,,,,,,,,,,,,,,,,,,,,,,,,,,,,,,,,,,
1577418779.627082,24.000000,0.000000,4481.025879,4393.333496,3930.769287,4135.384766,4382.563965,0.000000,4.000000,,,,0.000000,4.000000,4.000000,2.000000,4.000000,4.000000,,,,,,,,,,,,,,,,,,,,,,,,,,,,,,,,,,,,,,,,,,,,,,,,,,,,,,,,
1577418779.634888,25.000000,0.000000,4486.153809,4393.846191,3934.871826,4135.384766,4385.641113,0.000000,4.000000,,,,0.000000,4.000000,4.000000,2.000000,4.000000,4.000000,,,,,,,,,,,,,,,,,,,,,,,,,,,,,,,,484.295135,193.196823,142.779572,101.396065,142.605576,21.649393,31.656563,21.931622,25.087599,59.999832,435.259857,326.754395,322.046204,359.231445,1042.081421,70.986755,58.823807,34.701668,27.692390,29.730213,377.435669,190.490707,130.075409,84.535675,83.197617
1577418779.642593,26.000000,0.000000,4487.692383,4377.948730,3934.871826,4139.487305,4385.128418,0.000000,4.000000,,,,0.000000,4.000000,4.000000,2.000000,4.000000,4.000000,,,,,,,,,,,,,,,,,,,,,,,,,,,,,,,,,,,,,,,,,,,,,,,,,,,,,,,,
1577418779.650399,27.000000,0.000000,4475.384766,4355.384766,3944.615479,4146.666504,4379.487305,0.000000,4.000000,,,,0.000000,4.000000,4.000000,2.000000,4.000000,4.000000,,,,,,,,,,,,,,,,,,,,,,,,,,,,,,,,,,,,,,,,,,,,,,,,,,,,,,,,
1577418779.658104,28.000000,0.000000,4463.589844,4368.205078,3925.128174,4141.538574,4366.666504,0.000000,4.000000,,,,0.000000,4.000000,4.000000,2.000000,4.000000,4.000000,,,,,,,,,,,,,,,,,,,,,,,,,,,,,,,,,,,,,,,,,,,,,,,,,,,,,,,,
1577418779.665909,29.000000,0.000000,4459.487305,4387.179688,3918.974365,4142.051270,4358.461426,0.000000,4.000000,,,,0.000000,4.000000,4.000000,2.000000,4.000000,4.000000,,,,,,,,,,,,,,,,,,,,,,,,,,,,,,,,,,,,,,,,,,,,,,,,,,,,,,,,
1577418779.673615,30.000000,0.000000,4456.410156,4373.333496,3924.102539,4148.717773,4359.487305,0.000000,4.000000,,,,0.000000,4.000000,4.000000,2.000000,4.000000,4.000000,,,,,,,,,,,,,,,,,,,,,,,,,,,,,,,,,,,,,,,,,,,,,,,,,,,,,,,,
1577418779.681521,31.000000,1.000000,4455.327637,4374.187988,3927.521484,4147.464355,4361.253418,0.000000,4.000000,,,,0.000000,4.000000,4.000000,2.000000,4.000000,4.000000,,,,,,,,,,,,,,,,,,,,,,,,,,,,,,,,,,,,,,,,,,,,,,,,,,,,,,,,
1577418779.689327,32.000000,1.000000,4454.245117,4375.042969,3930.940186,4146.210938,4363.020020,0.000000,4.000000,,,,0.000000,4.000000,4.000000,2.000000,4.000000,4.000000,,,,,,,,,,,,,,,,,,,,,,,,,,,,,,,,,,,,,,,,,,,,,,,,,,,,,,,,
1577418779.697133,33.000000,1.000000,4453.162598,4375.897461,3934.358887,4144.957031,4364.786133,0.000000,4.000000,,,,0.000000,4.000000,4.000000,2.000000,4.000000,4.000000,,,,,,,,,,,,,,,,,,,,,,,,,,,,,,,,,,,,,,,,,,,,,,,,,,,,,,,,
1577418779.704939,34.000000,1.000000,4452.079590,4376.751953,3937.777832,4143.703613,4366.552734,0.000000,4.000000,,,,0.000000,4.000000,4.000000,2.000000,4.000000,4.000000,,,,,,,,,,,,,,,,,,,,,,,,,,,,,,,,,,,,,,,,,,,,,,,,,,,,,,,,
1577418779.712745,35.000000,1.000000,4450.997070,4377.606934,3941.196533,4142.450195,4368.318848,0.000000,4.000000,,,,0.000000,4.000000,4.000000,2.000000,4.000000,4.000000,,,,,,,,,,,,,,,,,,,,,,,,,,,,,,,,,,,,,,,,,,,,,,,,,,,,,,,,
1577418779.720551,36.000000,1.000000,4449.914551,4378.461426,3944.615479,4141.196777,4370.085449,0.000000,4.000000,,,,0.000000,4.000000,4.000000,2.000000,4.000000,4.000000,,,,,,,,,,,,,,,,,,,,,,,,,,,,,,,,,,,,,,,,,,,,,,,,,,,,,,,,
1577418779.728357,37.000000,1.000000,4448.832031,4379.316406,3948.034180,4139.942871,4371.852051,0.000000,4.000000,,,,0.000000,4.000000,4.000000,2.000000,4.000000,4.000000,,,,,,,,,,,,,,,,,,,,,,,,,,,,,,,,,,,,,,,,,,,,,,,,,,,,,,,,
1577418779.736163,38.000000,1.000000,4447.749512,4380.170898,3951.452881,4138.689453,4373.618164,0.000000,4.000000,,,,0.000000,4.000000,4.000000,2.000000,4.000000,4.000000,,,,,,,,,,,,,,,,,,,,,,,,,,,,,,,,,,,,,,,,,,,,,,,,,,,,,,,,
1577418779.743969,39.000000,0.000000,4446.666504,4381.025879,3954.871826,4137.436035,4375.384766,0.000000,4.000000,,,,0.000000,4.000000,4.000000,2.000000,4.000000,4.000000,,,,,,,,,,,,,,,,,,,,,,,,,,,,,,,,,,,,,,,,,,,,,,,,,,,,,,,,
1577418779.751674,40.000000,0.000000,4435.897461,4398.461426,3961.538574,4144.102539,4370.256348,0.000000,4.000000,,,,0.000000,4.000000,4.000000,2.000000,4.000000,4.000000,,,,,,,,,,,,,,,,,,,,,,,,,,,,,,,,,,,,,,,,,,,,,,,,,,,,,,,,
1577418779.759478,41.000000,0.000000,4415.384766,4371.794922,3938.974365,4132.307617,4338.461426,0.000000,4.000000,,,,0.000000,4.000000,4.000000,2.000000,4.000000,4.000000,,,,,,,,,,,,,,,,,,,,,,,,,,,,,,,,502.623688,201.544830,149.278625,103.546791,145.131622,22.736841,33.007935,22.371420,25.633913,60.988579,458.095612,340.266541,333.238739,361.693146,1071.791504,75.286118,61.673367,37.020115,28.676022,30.873659,396.103485,199.249191,135.899002,86.806046,84.697357
1577418779.767282,42.000000,0.000000,4406.153809,4345.641113,3951.281982,4140.000000,4328.205078,0.000000,4.000000,,,,0.000000,4.000000,4.000000,2.000000,4.000000,4.000000,,,,,,,,,,,,,,,,,,,,,,,,,,,,,,,,,,,,,,,,,,,,,,,,,,,,,,,,
1577418779.774986,43.000000,0.000000,4409.743652,4358.461426,3955.897461,4148.717773,4344.102539,0.000000,4.000000,,,,0.000000,4.000000,4.000000,2.000000,4.000000,4.000000,,,,,,,,,,,,,,,,,,,,,,,,,,,,,,,,,,,,,,,,,,,,,,,,,,,,,,,,
1577418779.782790,44.000000,0.000000,4400.000000,4381.025879,3946.153809,4142.051270,4344.615234,0.000000,4.000000,,,,0.000000,4.000000,4.000000,2.000000,4.000000,4.000000,,,,,,,,,,,,,,,,,,,,,,,,,,,,,,,,,,,,,,,,,,,,,,,,,,,,,,,,
1577418779.790494,45.000000,0.000000,4381.538574,4381.025879,3955.384521,4140.512695,4329.743652,0.000000,4.000000,,,,0.000000,4.000000,4.000000,2.000000,4.000000,4.000000,,,,,,,,,,,,,,,,,,,,,,,,,,,,,,,,,,,,,,,,,,,,,,,,,,,,,,,,
1577418779.798298,46.000000,0.000000,4376.410156,4379.487305,3952.307617,4137.436035,4317.436035,0.000000,4.000000,,,,0.000000,4.000000,4.000000,2.000000,4.000000,4.000000,,,,,,,,,,,,,,,,,,,,,,,,,,,,,,,,,,,,,,,,,,,,,,,,,,,,,,,,
1577418779.806002,47.000000,0.000000,4379.487305,4375.897461,3960.512939,4134.358887,4316.922852,0.000000,4.000000,,,,0.000000,4.000000,4.000000,2.000000,4.000000,4.000000,,,,,,,,,,,,,,,,,,,,,,,,,,,,,,,,,,,,,,,,,,,,,,,,,,,,,,,,
1577418779.813806,48.000000,0.000000,4392.820313,4371.794922,3960.512939,4146.666504,4329.743652,0.000000,4.000000,,,,0.000000,4.000000,4.000000,2.000000,4.000000,4.000000,,,,,,,,,,,,,,,,,,,,,,,,,,,,,,,,,,,,,,,,,,,,,,,,,,,,,,,,
1577418779.821510,49.000000,0.000000,4397.436035,4376.410156,3948.718018,4152.307617,4337.948730,0.000000,4.000000,,,,0.000000,4.000000,4.000000,2.000000,4.000000,4.000000,,,,,,,,,,,,,,,,,,,,,,,,,,,,,,,,,,,,,,,,,,,,,,,,,,,,,,,,
1577418779.829314,50.000000,0.000000,4380.000000,4382.051270,3952.820557,4139.487305,4328.717773,0.000000,4.000000,,,,0.000000,4.000000,4.000000,2.000000,4.000000,4.000000,,,,,,,,,,,,,,,,,,,,,,,,,,,,,,,,,,,,,,,,,,,,,,,,,,,,,,,,
1577418779.837018,51.000000,0.000000,4368.205078,4375.384766,3944.102539,4132.820313,4319.487305,0.000000,4.000000,,,,0.000000,4.000000,4.000000,2.000000,4.000000,4.000000,,,,,,,,,,,,,,,,,,,,,,,,,,,,,,,,,,,,,,,,,,,,,,,,,,,,,,,,
1577418779.844722,52.000000,0.000000,4359.487305,4365.641113,3952.307617,4139.487305,4313.333496,0.000000,4.000000,,,,0.000000,4.000000,4.000000,2.000000,4.000000,4.000000,,,,,,,,,,,,,,,,,,,,,,,,,,,,,,,,,,,,,,,,,,,,,,,,,,,,,,,,
1577418779.852427,53.000000,0.000000,4341.025879,4377.436035,3961.538574,4135.384766,4297.436035,0.000000,4.000000,,,,0.000000,4.000000,4.000000,2.000000,4.000000,4.000000,,,,,,,,,,,,,,,,,,,,,,,,,,,,,,,,,,,,,,,,,,,,,,,,,,,,,,,,
1577418779.860333,54.000000,0.000000,4320.000000,4378.974121,3950.256348,4118.461426,4273.846191,0.000000,4.000000,,,,0.000000,4.000000,4.000000,2.000000,4.000000,4.000000,,,,,,,,,,,,,,,,,,,,,,,,,,,,,,,,,,,,,,,,,,,,,,,,,,,,,,,,
1577418779.868138,55.000000,0.000000,4299.487305,4360.000000,3959.487061,4116.410156,4251.794922,0.000000,4.000000,,,,0.000000,4.000000,4.000000,2.000000,4.000000,4.000000,,,,,,,,,,,,,,,,,,,,,,,,,,,,,,,,,,,,,,,,,,,,,,,,,,,,,,,,
1577418779.875944,56.000000,0.000000,4277.948730,4367.692383,3955.384521,4129.230957,4232.307617,0.000000,4.000000,,,,0.000000,4.000000,4.000000,2.000000,4.000000,4.000000,,,,,,,,,,,,,,,,,,,,,,,,,,,,,,,,,,,,,,,,,,,,,,,,,,,,,,,,
1577418779.883750,57.000000,0.000000,4256.922852,4383.077148,3956.923096,4136.410156,4224.615234,0.000000,4.000000,,,,0.000000,4.000000,4.000000,2.000000,4.000000,4.000000,,,,,,,,,,,,,,,,,,,,,,,,,,,,,,,,454.200806,181.125732,133.972214,90.849174,126.655029,20.696224,29.663481,19.657953,22.579575,53.331158,412.559631,303.527252,295.863617,314.732178,945.686951,68.885521,55.686375,34.003395,25.541298,27.571831,359.237671,179.145645,121.900726,76.550583,73.978889
1577418779.891555,58.000000,0.000000,4240.512695,4380.512695,3972.307617,4132.820313,4224.615234,0.000000,4.000000,,,,0.000000,4.000000,4.000000,2.000000,4.000000,4.000000,,,,,,,,,,,,,,,,,,,,,,,,,,,,,,,,,,,,,,,,,,,,,,,,,,,,,,,,
1577418779.899260,59.000000,0.000000,4222.563965,4383.077148,3955.897461,4130.256348,4214.358887,0.000000,4.000000,,,,0.000000,4.000000,4.000000,2.000000,4.000000,4.000000,,,,,,,,,,,,,,,,,,,,,,,,,,,,,,,,,,,,,,,,,,,,,,,,,,,,,,,,
1577418779.907064,60.000000,0.000000,4194.871582,4392.820313,3945.128174,4135.384766,4186.153809,0.000000,4.000000,,,,0.000000,4.000000,4.000000,2.000000,4.000000,4.000000,,,,,,,,,,,,,,,,,,,,,,,,,,,,,,,,,,,,,,,,,,,,,,,,,,,,,,,,
1577418779.914769,61.000000,0.000000,4169.743652,4378.461426,3946.153809,4134.871582,4158.974121,0.000000,4.000000,,,,0.000000,4.000000,4.000000,2.000000,4.000000,4.000000,,,,,,,,,,,,,,,,,,,,,,,,,,,,,,,,,,,,,,,,,,,,,,,,,,,,,,,,
1577418779.922574,62.000000,0.000000,4144.615234,4362.051270,3956.923096,4134.358887,4147.692383,0.000000,4.000000,,,,0.000000,4.000000,4.000000,2.000000,4.000000,4.000000,,,,,,,,,,,,,,,,,,,,,,,,,,,,,,,,,,,,,,,,,,,,,,,,,,,,,,,,
1577418779.930279,63.000000,0.000000,4111.794922,4381.025879,3961.025635,4136.922852,4132.820313,0.000000,4.000000,,,,0.000000,4.000000,4.000000,2.000000,4.000000,4.000000,,,,,,,,,,,,,,,,,,,,,,,,,,,,,,,,,,,,,,,,,,,,,,,,,,,,,,,,
1577418779.937984,64.000000,0.000000,4081.538574,4394.871582,3942.564209,4126.153809,4106.153809,450.000000,4.000000,,,,0.000000,4.000000,4.000000,2.000000,4.000000,4.000000,,,,,,,,,,,,,,,,,,,,,,,,,,,,,,,,,,,,,,,,,,,,,,,,,,,,,,,,
1577418779.945690,65.000000,1.000000,4066.495605,4393.219238,3945.583984,4125.641113,4095.384521,450.000000,4.000000,,,,0.000000,4.000000,4.000000,2.000000,4.000000,4.000000,,,,,,,,,,,,,,,,,,,,,,,,,,,,,,,,,,,,,,,,,,,,,,,,,,,,,,,,
1577418779.953497,66.000000,1.000000,4051.452881,4391.566895,3948.604004,4125.128418,4084.615479,16216.000000,4.000000,,,,0.000000,4.000000,4.000000,2.000000,4.000000,4.000000,,,,,,,,,,,,,,,,,,,,,,,,,,,,,,,,,,,,,,,,,,,,,,,,,,,,,,,,
1577418779.961303,67.000000,1.000000,4036.410156,4389.914551,3951.624023,4124.615234,4073.846191,450.000000,4.000000,,,,0.000000,4.000000,4.000000,2.000000,4.000000,4.000000,,,,,,,,,,,,,,,,,,,,,,,,,,,,,,,,,,,,,,,,,,,,,,,,,,,,,,,,
1577418779.969110,68.000000,1.000000,4021.367432,4388.262207,3954.643799,4124.102539,4063.076904,16199.000000,4.000000,,,,0.000000,4.000000,4.000000,2.000000,4.000000,4.000000,,,,,,,,,,,,,,,,,,,,,,,,,,,,,,,,,,,,,,,,,,,,,,,,,,,,,,,,
1577418779.976916,69.000000,1.000000,4006.324707,4386.609863,3957.663818,4123.589844,4052.307617,450.000000,4.000000,,,,0.000000,4.000000,4.000000,2.000000,4.000000,4.000000,,,,,,,,,,,,,,,,,,,,,,,,,,,,,,,,,,,,,,,,,,,,,,,,,,,,,,,,
1577418779.984723,70.000000,1.000000,3991.281982,4384.957031,3960.683838,4123.077148,4041.538574,303.000000,4.000000,,,,0.000000,4.000000,4.000000,2.000000,4.000000,4.000000,,,,,,,,,,,,,,,,,,,,,,,,,,,,,,,,,,,,,,,,,,,,,,,,,,,,,,,,
1577418779.992529,71.000000,1.000000,3976.239258,4383.304688,3963.703613,4122.563965,4030.769287,450.000000,4.000000,,,,0.000000,4.000000,4.000000,2.000000,4.000000,4.000000,,,,,,,,,,,,,,,,,,,,,,,,,,,,,,,,,,,,,,,,,,,,,,,,,,,,,,,,
1577418780.000336,72.000000,1.000000,3961.196533,4381.652344,3966.723633,4122.051270,4020.000000,450.000000,4.000000,,,,0.000000,4.000000,4.000000,2.000000,4.000000,4.000000,,,,,,,,,,,,,,,,,,,,,,,,,,,,,,,,,,,,,,,,,,,,,,,,,,,,,,,,
1577418780.008143,73.000000,0.000000,3946.153809,4380.000000,3969.743652,4121.538574,4009.230713,16181.000000,4.000000,,,,0.000000,4.000000,4.000000,2.000000,4.000000,4.000000,,,,,,,,,,,,,,,,,,,,,,,,,,,,,,,,355.939423,139.349457,102.360497,67.746452,93.732430,16.252047,22.786533,14.716778,16.998552,39.725372,317.200806,229.766907,223.287613,233.539993,708.387512,54.143639,43.018776,26.737719,19.389881,20.992701,279.572937,137.416611,93.122330,57.418373,54.844887
1577418780.015847,74.000000,0.000000,3946.153809,4373.846191,3978.461426,4130.256348,4006.666748,450.000000,4.000000,,,,0.000000,4.000000,4.000000,2.000000,4.000000,4.000000,,,,,,,,,,,,,,,,,,,,,,,,,,,,,,,,,,,,,,,,,,,,,,,,,,,,,,,,
1577418780.023652,75.000000,0.000000,3952.820557,4364.615234,3979.487061,4133.333496,4007.692383,16229.000000,4.000000,,,,0.000000,4.000000,4.000000,2.000000,4.000000,4.000000,,,,,,,,,,,,,,,,,,,,,,,,,,,,,,,,,,,,,,,,,,,,,,,,,,,,,,,,
1577418780.031358,76.000000,0.000000,3963.076904,4382.051270,3987.179443,4149.230957,4024.615479,450.000000,4.000000,,,,0.000000,4.000000,4.000000,2.000000,4.000000,4.000000,,,,,,,,,,,,,,,,,,,,,,,,,,,,,,,,,,,,,,,,,,,,,,,,,,,,,,,,
1577418780.039263,77.000000,0.000000,3978.461426,4408.717773,3988.718018,4160.000000,4042.564209,450.000000,4.000000,,,,0.000000,4.000000,4.000000,2.000000,4.000000,4.000000,,,,,,,,,,,,,,,,,,,,,,,,,,,,,,,,,,,,,,,,,,,,,,,,,,,,,,,,
1577418780.047069,78.000000,0.000000,3982.051270,4385.128418,4000.000000,4157.948730,4046.666748,450.000000,4.000000,,,,0.000000,4.000000,4.000000,2.000000,4.000000,4.000000,,,,,,,,,,,,,,,,,,,,,,,,,,,,,,,,,,,,,,,,,,,,,,,,,,,,,,,,
1577418780.054977,79.000000,1.000000,3972.535645,4381.139648,3997.264893,4153.105469,4037.264893,16220.000000,4.000000,,,,0.000000,4.000000,4.000000,2.000000,4.000000,4.000000,,,,,,,,,,,,,,,,,,,,,,,,,,,,,,,,,,,,,,,,,,,,,,,,,,,,,,,,
1577418780.062785,80.000000,1.000000,3963.020020,4377.150879,3994.530029,4148.262207,4027.863281,3956.444336,4.000000,,,,0.000000,4.000000,4.000000,2.000000,4.000000,4.000000,,,,,,,,,,,,,,,,,,,,,,,,,,,,,,,,,,,,,,,,,,,,,,,,,,,,,,,,
1577418780.070593,81.000000,1.000000,3953.504395,4373.162598,3991.794922,4143.418945,4018.461426,5709.666504,4.000000,,,,0.000000,4.000000,4.000000,2.000000,4.000000,4.000000,,,,,,,,,,,,,,,,,,,,,,,,,,,,,,,,,,,,,,,,,,,,,,,,,,,,,,,,
1577418780.078401,82.000000,1.000000,3943.988525,4369.173828,3989.059814,4138.575684,4009.059814,7462.888672,4.000000,,,,0.000000,4.000000,4.000000,2.000000,4.000000,4.000000,,,,,,,,,,,,,,,,,,,,,,,,,,,,,,,,,,,,,,,,,,,,,,,,,,,,,,,,
1577418780.086209,83.000000,1.000000,3934.472900,4365.185059,3986.324707,4133.732422,3999.658203,9216.111328,4.000000,,,,0.000000,4.000000,4.000000,2.000000,4.000000,4.000000,,,,,,,,,,,,,,,,,,,,,,,,,,,,,,,,,,,,,,,,,,,,,,,,,,,,,,,,
1577418780.094017,84.000000,1.000000,3924.957275,4361.196777,3983.589844,4128.888672,3990.256348,10969.333008,4.000000,,,,0.000000,4.000000,4.000000,2.000000,4.000000,4.000000,,,,,,,,,,,,,,,,,,,,,,,,,,,,,,,,,,,,,,,,,,,,,,,,,,,,,,,,
1577418780.101825,85.000000,1.000000,3915.441650,4357.208008,3980.854736,4124.045410,3980.854736,12722.555664,4.000000,,,,0.000000,4.000000,4.000000,2.000000,4.000000,4.000000,,,,,,,,,,,,,,,,,,,,,,,,,,,,,,,,,,,,,,,,,,,,,,,,,,,,,,,,
1577418780.109633,86.000000,1.000000,3905.926025,4353.219238,3978.119629,4119.202148,3971.452881,14475.777344,4.000000,,,,0.000000,4.000000,4.000000,2.000000,4.000000,4.000000,,,,,,,,,,,,,,,,,,,,,,,,,,,,,,,,,,,,,,,,,,,,,,,,,,,,,,,,
1577418780.117441,87.000000,0.000000,3896.410156,4349.230957,3975.384521,4114.358887,3962.051270,16229.000000,4.000000,,,,0.000000,4.000000,4.000000,2.000000,4.000000,4.000000,,,,,,,,,,,,,,,,,,,,,,,,,,,,,,,,,,,,,,,,,,,,,,,,,,,,,,,,
1577418780.125346,88.000000,0.000000,3923.589844,4381.538574,3984.102539,4127.692383,3984.615479,450.000000,4.000000,,,,0.000000,4.000000,4.000000,2.000000,4.000000,4.000000,,,,,,,,,,,,,,,,,,,,,,,,,,,,,,,,,,,,,,,,,,,,,,,,,,,,,,,,
1577418780.133153,89.000000,0.000000,3938.461426,4401.538574,3990.769287,4135.897461,4004.102539,450.000000,4.000000,,,,0.000000,4.000000,4.000000,2.000000,4.000000,4.000000,,,,,,,,,,,,,,,,,,,,,,,,,,,,,,,,241.318726,90.421883,65.125366,41.860947,57.263821,10.892891,14.681929,9.178198,10.753613,24.648857,202.127487,143.929901,139.727600,143.720673,438.863983,36.224964,28.008524,17.728352,12.275363,13.337426,184.406906,88.265755,59.279358,35.772449,33.624905
1577418780.140959,90.000000,0.000000,3934.871826,4379.487305,3983.589844,4135.384766,4008.205078,450.000000,4.000000,,,,0.000000,4.000000,4.000000,2.000000,4.000000,4.000000,,,,,,,,,,,,,,,,,,,,,,,,,,,,,,,,,,,,,,,,,,,,,,,,,,,,,,,,
1577418780.148765,91.000000,0.000000,3936.410156,4367.692383,3996.410156,4140.512695,4014.358887,16229.000000,4.000000,,,,0.000000,4.000000,4.000000,2.000000,4.000000,4.000000,,,,,,,,,,,,,,,,,,,,,,,,,,,,,,,,,,,,,,,,,,,,,,,,,,,,,,,,
1577418780.156571,92.000000,0.000000,3949.743652,4390.769043,4001.025635,4141.025879,4027.692383,450.000000,4.000000,,,,0.000000,4.000000,4.000000,2.000000,4.000000,4.000000,,,,,,,,,,,,,,,,,,,,,,,,,,,,,,,,,,,,,,,,,,,,,,,,,,,,,,,,
1577418780.164476,93.000000,0.000000,3947.692383,4376.410156,4002.051270,4134.871582,4028.205078,450.000000,4.000000,,,,0.000000,4.000000,4.000000,2.000000,4.000000,4.000000,,,,,,,,,,,,,,,,,,,,,,,,,,,,,,,,,,,,,,,,,,,,,,,,,,,,,,,,
1577418780.172281,94.000000,0.000000,3931.794922,4336.922852,3997.948730,4128.205078,4014.358887,450.000000,4.000000,,,,0.000000,4.000000,4.000000,2.000000,4.000000,4.000000,,,,,,,,,,,,,,,,,,,,,,,,,,,,,,,,,,,,,,,,,,,,,,,,,,,,,,,,
1577418780.179989,95.000000,1.000000,3931.680908,4338.689453,3998.062744,4128.091309,4014.073975,2203.222168,4.000000,,,,0.000000,4.000000,4.000000,2.000000,4.000000,4.000000,,,,,,,,,,,,,,,,,,,,,,,,,,,,,,,,,,,,,,,,,,,,,,,,,,,,,,,,
1577418780.187797,96.000000,1.000000,3931.566895,4340.456055,3998.176758,4127.977051,4013.789063,3956.444336,4.000000,,,,0.000000,4.000000,4.000000,2.000000,4.000000,4.000000,,,,,,,,,,,,,,,,,,,,,,,,,,,,,,,,,,,,,,,,,,,,,,,,,,,,,,,,
1577418780.195605,97.000000,1.000000,3931.452881,4342.222168,3998.290527,4127.863281,4013.504395,5709.666504,4.000000,,,,0.000000,4.000000,4.000000,2.000000,4.000000,4.000000,,,,,,,,,,,,,,,,,,,,,,,,,,,,,,,,,,,,,,,,,,,,,,,,,,,,,,,,
1577418780.203412,98.000000,1.000000,3931.339111,4343.988770,3998.404541,4127.749512,4013.219482,7462.888672,4.000000,,,,0.000000,4.000000,4.000000,2.000000,4.000000,4.000000,,,,,,,,,,,,,,,,,,,,,,,,,,,,,,,,,,,,,,,,,,,,,,,,,,,,,,,,
1577418780.211220,99.000000,1.000000,3931.225098,4345.754883,3998.518555,4127.635254,4012.934570,9216.111328,4.000000,,,,0.000000,4.000000,4.000000,2.000000,4.000000,4.000000,,,,,,,,,,,,,,,,,,,,,,,,,,,,,,,,,,,,,,,,,,,,,,,,,,,,,,,,
1577418780.219028,100.000000,1.000000,3931.111084,4347.521484,3998.632568,4127.521484,4012.649658,10969.333008,4.000000,,,,0.000000,4.000000,4.000000,2.000000,4.000000,4.000000,,,,,,,,,,,,,,,,,,,,,,,,,,,,,,,,,,,,,,,,,,,,,,,,,,,,,,,,
1577418780.226836,101.000000,1.000000,3930.997070,4349.287598,3998.746338,4127.407227,4012.364746,12722.555664,4.000000,,,,0.000000,4.000000,4.000000,2.000000,4.000000,4.000000,,,,,,,,,,,,,,,,,,,,,,,,,,,,,,,,,,,,,,,,,,,,,,,,,,,,,,,,
1577418780.234643,102.000000,1.000000,3930.883301,4351.054199,3998.860352,4127.293457,4012.079834,14475.777344,4.000000,,,,0.000000,4.000000,4.000000,2.000000,4.000000,4.000000,,,,,,,,,,,,,,,,,,,,,,,,,,,,,,,,,,,,,,,,,,,,,,,,,,,,,,,,
1577418780.242451,103.000000,0.000000,3930.769287,4352.820313,3998.974365,4127.179688,4011.794922,16229.000000,4.000000,,,,0.000000,4.000000,4.000000,2.000000,4.000000,4.000000,,,,,,,,,,,,,,,,,,,,,,,,,,,,,,,,,,,,,,,,,,,,,,,,,,,,,,,,
1577418780.250357,104.000000,0.000000,3930.256348,4350.256348,4006.666748,4125.641113,4009.230713,450.000000,4.000000,,,,0.000000,4.000000,4.000000,2.000000,4.000000,4.000000,,,,,,,,,,,,,,,,,,,,,,,,,,,,,,,,,,,,,,,,,,,,,,,,,,,,,,,,
1577418780.258163,105.000000,0.000000,3941.025635,4385.128418,4002.564209,4125.128418,4010.256348,450.000000,4.000000,,,,0.000000,4.000000,4.000000,2.000000,4.000000,4.000000,,,,,,,,,,,,,,,,,,,,,,,,,,,,,,,,141.911026,48.462189,33.095226,20.429926,27.386999,6.156672,7.709983,4.601637,5.613785,12.267619,102.742996,70.960701,68.921242,69.490768,213.315674,20.386217,14.996791,9.673389,6.240020,6.803481,101.086090,46.117634,30.210342,17.723089,16.222330
1577418780.265969,106.000000,0.000000,3946.153809,4374.871582,4006.666748,4129.743652,4012.820557,450.000000,4.000000,,,,0.000000,4.000000,4.000000,2.000000,4.000000,4.000000,,,,,,,,,,,,,,,,,,,,,,,,,,,,,,,,,,,,,,,,,,,,,,,,,,,,,,,,
1577418780.273775,107.000000,0.000000,3949.743652,4341.025879,3997.948730,4128.205078,4013.846191,16229.000000,4.000000,,,,0.000000,4.000000,4.000000,2.000000,4.000000,4.000000,,,,,,,,,,,,,,,,,,,,,,,,,,,,,,,,,,,,,,,,,,,,,,,,,,,,,,,,
1577418780.281681,108.000000,0.000000,3956.410156,4360.000000,3997.435791,4125.641113,4015.384521,450.000000,4.000000,,,,0.000000,4.000000,4.000000,2.000000,4.000000,4.000000,,,,,,,,,,,,,,,,,,,,,,,,,,,,,,,,,,,,,,,,,,,,,,,,,,,,,,,,
1577418780.289486,109.000000,0.000000,3961.538574,4385.128418,4015.897461,4129.743652,4023.589844,450.000000,4.000000,,,,0.000000,4.000000,4.000000,2.000000,4.000000,4.000000,,,,,,,,,,,,,,,,,,,,,,,,,,,,,,,,,,,,,,,,,,,,,,,,,,,,,,,,
1577418780.297292,110.000000,0.000000,3969.230713,4366.666504,4003.076904,4131.282227,4031.281982,450.000000,4.000000,,,,0.000000,4.000000,4.000000,2.000000,4.000000,4.000000,,,,,,,,,,,,,,,,,,,,,,,,,,,,,,,,,,,,,,,,,,,,,,,,,,,,,,,,
1577418780.304997,111.000000,0.000000,3978.461426,4353.846191,4004.102539,4139.487305,4032.820557,16229.000000,4.000000,,,,0.000000,4.000000,4.000000,2.000000,4.000000,4.000000,,,,,,,,,,,,,,,,,,,,,,,,,,,,,,,,,,,,,,,,,,,,,,,,,,,,,,,,
1577418780.312802,112.000000,0.000000,3986.153809,4375.384766,4014.871826,4148.717773,4037.948730,450.000000,4.000000,,,,0.000000,4.000000,4.000000,2.000000,4.000000,4.000000,,,,,,,,,,,,,,,,,,,,,,,,,,,,,,,,,,,,,,,,,,,,,,,,,,,,,,,,
1577418780.320509,113.000000,1.000000,3983.076904,4373.903320,4011.225098,4145.185059,4034.131104,450.000000,4.000000,,,,0.000000,4.000000,4.000000,2.000000,4.000000,4.000000,,,,,,,,,,,,,,,,,,,,,,,,,,,,,,,,,,,,,,,,,,,,,,,,,,,,,,,,
1577418780.328316,114.000000,1.000000,3980.000000,4372.421875,4007.578369,4141.652344,4030.313477,450.000000,4.000000,,,,0.000000,4.000000,4.000000,2.000000,4.000000,4.000000,,,,,,,,,,,,,,,,,,,,,,,,,,,,,,,,,,,,,,,,,,,,,,,,,,,,,,,,
1577418780.336123,115.000000,1.000000,3976.923096,4370.939941,4003.931641,4138.119629,4026.495605,450.000000,4.000000,,,,0.000000,4.000000,4.000000,2.000000,4.000000,4.000000,,,,,,,,,,,,,,,,,,,,,,,,,,,,,,,,,,,,,,,,,,,,,,,,,,,,,,,,
1577418780.343929,116.000000,1.000000,3973.846191,4369.458496,4000.284912,4134.586914,4022.677979,450.000000,4.000000,,,,0.000000,4.000000,4.000000,2.000000,4.000000,4.000000,,,,,,,,,,,,,,,,,,,,,,,,,,,,,,,,,,,,,,,,,,,,,,,,,,,,,,,,
1577418780.351736,117.000000,1.000000,3970.769287,4367.977051,3996.638184,4131.054199,4018.860352,450.000000,4.000000,,,,0.000000,4.000000,4.000000,2.000000,4.000000,4.000000,,,,,,,,,,,,,,,,,,,,,,,,,,,,,,,,,,,,,,,,,,,,,,,,,,,,,,,,
1577418780.359543,118.000000,1.000000,3967.692383,4366.495605,3992.991455,4127.521484,4015.042725,450.000000,4.000000,,,,0.000000,4.000000,4.000000,2.000000,4.000000,4.000000,,,,,,,,,,,,,,,,,,,,,,,,,,,,,,,,,,,,,,,,,,,,,,,,,,,,,,,,
1577418780.367350,119.000000,1.000000,3964.615479,4365.014160,3989.344727,4123.988770,4011.225098,450.000000,4.000000,,,,0.000000,4.000000,4.000000,2.000000,4.000000,4.000000,,,,,,,,,,,,,,,,,,,,,,,,,,,,,,,,,,,,,,,,,,,,,,,,,,,,,,,,
1577418780.375156,120.000000,1.000000,3961.538574,4363.532715,3985.697998,4120.456055,4007.407471,450.000000,4.000000,,,,0.000000,4.000000,4.000000,2.000000,4.000000,4.000000,,,,,,,,,,,,,,,,,,,,,,,,,,,,,,,,,,,,,,,,,,,,,,,,,,,,,,,,
1577418780.382963,121.000000,0.000000,3958.461426,4362.051270,3982.051270,4116.922852,4003.589844,450.000000,4.000000,,,,0.000000,4.000000,4.000000,2.000000,4.000000,4.000000,,,,,,,,,,,,,,,,,,,,,,,,,,,,,,,,75.301895,21.523254,12.607271,7.245972,9.242846,2.979716,3.310110,1.838008,2.501956,4.709455,37.915791,24.983053,24.154030,23.727333,73.019615,9.787761,6.527589,4.263333,2.421813,2.644314,46.106464,19.369558,11.660179,6.542999,5.645531
1577418780.390668,122.000000,0.000000,3958.461426,4375.384766,4008.718018,4124.615234,4008.718018,450.000000,4.000000,,,,0.000000,4.000000,4.000000,2.000000,4.000000,4.000000,,,,,,,,,,,,,,,,,,,,,,,,,,,,,,,,,,,,,,,,,,,,,,,,,,,,,,,,
1577418780.398473,123.000000,0.000000,3965.128174,4383.077148,4013.333252,4140.000000,4017.948730,16229.000000,4.000000,,,,0.000000,4.000000,4.000000,2.000000,4.000000,4.000000,,,,,,,,,,,,,,,,,,,,,,,,,,,,,,,,,,,,,,,,,,,,,,,,,,,,,,,,
1577418780.406178,124.000000,0.000000,3969.230713,4383.077148,4006.666748,4139.487305,4029.230713,450.000000,4.000000,,,,0.000000,4.000000,4.000000,2.000000,4.000000,4.000000,,,,,,,,,,,,,,,,,,,,,,,,,,,,,,,,,,,,,,,,,,,,,,,,,,,,,,,,
1577418780.413884,125.000000,0.000000,3970.769287,4373.846191,4004.102539,4135.897461,4037.435791,450.000000,4.000000,,,,0.000000,4.000000,4.000000,2.000000,4.000000,4.000000,,,,,,,,,,,,,,,,,,,,,,,,,,,,,,,,,,,,,,,,,,,,,,,,,,,,,,,,
1577418780.421789,126.000000,0.000000,3965.128174,4368.205078,4011.281982,4143.589844,4036.410156,450.000000,4.000000,,,,0.000000,4.000000,4.000000,2.000000,4.000000,4.000000,,,,,,,,,,,,,,,,,,,,,,,,,,,,,,,,,,,,,,,,,,,,,,,,,,,,,,,,
1577418780.429595,127.000000,0.000000,3954.358887,4366.666504,4018.461426,4138.461426,4027.692383,238.000000,4.000000,,,,0.000000,4.000000,4.000000,2.000000,4.000000,4.000000,,,,,,,,,,,,,,,,,,,,,,,,,,,,,,,,,,,,,,,,,,,,,,,,,,,,,,,,
1577418780.437401,0.000000,0.000000,3949.230713,4356.410156,4000.000000,4113.846191,4020.512939,450.000000,4.000000,,,,0.000000,4.000000,4.000000,2.000000,4.000000,4.000000,,,,,,,,,,,,,,,,,,,,,,,,,,,,,,,,,,,,,,,,,,,,,,,,,,,,,,,,
1577418780.445207,1.000000,0.000000,3952.307617,4345.128418,4007.692383,4111.282227,4024.102539,450.000000,4.000000,,,,0.000000,4.000000,4.000000,2.000000,4.000000,4.000000,,,,,,,,,,,,,,,,,,,,,,,,,,,,,,,,,,,,,,,,,,,,,,,,,,,,,,,,
1577418780.452912,2.000000,0.000000,3969.743652,4356.922852,4019.487061,4127.692383,4040.000000,16243.000000,4.000000,,,,0.000000,4.000000,4.000000,2.000000,4.000000,4.000000,,,,,,,,,,,,,,,,,,,,,,,,,,,,,,,,,,,,,,,,,,,,,,,,,,,,,,,,
1577418780.460818,3.000000,0.000000,3983.589844,4374.871582,4011.794922,4133.333496,4050.769287,450.000000,4.000000,,,,0.000000,4.000000,4.000000,2.000000,4.000000,4.000000,,,,,,,,,,,,,,,,,,,,,,,,,,,,,,,,,,,,,,,,,,,,,,,,,,,,,,,,
1577418780.468724,4.000000,1.000000,3982.791992,4373.447266,4012.421631,4132.478516,4049.515625,16199.000000,4.000000,,,,0.000000,4.000000,4.000000,2.000000,4.000000,4.000000,,,,,,,,,,,,,,,,,,,,,,,,,,,,,,,,,,,,,,,,,,,,,,,,,,,,,,,,
1577418780.476529,5.000000,1.000000,3981.994385,4372.022949,4013.048340,4131.624023,4048.262207,450.000000,4.000000,,,,0.000000,4.000000,4.000000,2.000000,4.000000,4.000000,,,,,,,,,,,,,,,,,,,,,,,,,,,,,,,,,,,,,,,,,,,,,,,,,,,,,,,,
1577418780.484335,6.000000,1.000000,3981.196533,4370.598145,4013.675293,4130.769043,4047.008545,303.000000,4.000000,,,,0.000000,4.000000,4.000000,2.000000,4.000000,4.000000,,,,,,,,,,,,,,,,,,,,,,,,,,,,,,,,,,,,,,,,,,,,,,,,,,,,,,,,
1577418780.492141,7.000000,1.000000,3980.398926,4369.173828,4014.302002,4129.914551,4045.754883,450.000000,4.000000,,,,0.000000,4.000000,4.000000,2.000000,4.000000,4.000000,,,,,,,,,,,,,,,,,,,,,,,,,,,,,,,,,,,,,,,,,,,,,,,,,,,,,,,,
1577418780.499947,8.000000,1.000000,3979.601074,4367.749512,4014.928711,4129.060059,4044.501465,450.000000,4.000000,,,,0.000000,4.000000,4.000000,2.000000,4.000000,4.000000,,,,,,,,,,,,,,,,,,,,,,,,,,,,,,,,,,,,,,,,,,,,,,,,,,,,,,,,
1577418780.507753,9.000000,1.000000,3978.803467,4366.324707,4015.555664,4128.205078,4043.247803,16181.000000,4.000000,,,,0.000000,4.000000,4.000000,2.000000,4.000000,4.000000,,,,,,,,,,,,,,,,,,,,,,,,,,,,,,,,40.765335,9.449570,3.680190,1.741776,1.837125,1.403597,1.577132,0.786637,1.268244,1.587626,9.238739,5.312797,4.773958,4.473770,13.644397,4.695519,2.683288,1.670045,0.748509,0.813838,20.101336,7.953518,3.583396,1.833739,1.328651
1577418780.515559,10.000000,1.000000,3978.005615,4364.900391,4016.182373,4127.350586,4041.994385,450.000000,4.000000,,,,0.000000,4.000000,4.000000,2.000000,4.000000,4.000000,,,,,,,,,,,,,,,,,,,,,,,,,,,,,,,,,,,,,,,,,,,,,,,,,,,,,,,,
1577418780.523364,11.000000,1.000000,3977.208008,4363.475586,4016.809082,4126.495605,4040.740723,16229.000000,4.000000,,,,0.000000,4.000000,4.000000,2.000000,4.000000,4.000000,,,,,,,,,,,,,,,,,,,,,,,,,,,,,,,,,,,,,,,,,,,,,,,,,,,,,,,,
1577418780.531170,12.000000,0.000000,3976.410156,4362.051270,4017.435791,4125.641113,4039.487061,450.000000,4.000000,,,,0.000000,4.000000,4.000000,2.000000,4.000000,4.000000,,,,,,,,,,,,,,,,,,,,,,,,,,,,,,,,,,,,,,,,,,,,,,,,,,,,,,,,
1577418780.538874,13.000000,0.000000,3984.615479,4358.461426,4003.076904,4126.153809,4044.615479,450.000000,4.000000,,,,0.000000,4.000000,4.000000,2.000000,4.000000,4.000000,,,,,,,,,,,,,,,,,,,,,,,,,,,,,,,,,,,,,,,,,,,,,,,,,,,,,,,,
1577418780.546579,14.000000,0.000000,3996.410156,4356.922852,4006.666748,4127.692383,4052.820557,450.000000,4.000000,,,,0.000000,4.000000,4.000000,2.000000,4.000000,4.000000,,,,,,,,,,,,,,,,,,,,,,,,,,,,,,,,,,,,,,,,,,,,,,,,,,,,,,,,
1577418780.554284,15.000000,0.000000,4015.897461,4353.333496,4013.846191,4140.512695,4065.128174,16228.000000,4.000000,,,,0.000000,4.000000,4.000000,2.000000,4.000000,4.000000,,,,,,,,,,,,,,,,,,,,,,,,,,,,,,,,,,,,,,,,,,,,,,,,,,,,,,,,
1577418780.562089,16.000000,0.000000,4026.153809,4356.922852,4013.846191,4142.563965,4069.230713,0.000000,4.000000,,,,0.000000,4.000000,4.000000,2.000000,4.000000,4.000000,,,,,,,,,,,,,,,,,,,,,,,,,,,,,,,,,,,,,,,,,,,,,,,,,,,,,,,,
1577418780.569894,17.000000,0.000000,4013.846191,4373.333496,4017.435791,4133.333496,4061.025635,0.000000,4.000000,,,,0.000000,4.000000,4.000000,2.000000,4.000000,4.000000,,,,,,,,,,,,,,,,,,,,,,,,,,,,,,,,,,,,,,,,,,,,,,,,,,,,,,,,
1577418780.577699,18.000000,0.000000,4013.846191,4373.846191,4005.128174,4123.077148,4055.897461,0.000000,4.000000,,,,0.000000,4.000000,4.000000,2.000000,4.000000,4.000000,,,,,,,,,,,,,,,,,,,,,,,,,,,,,,,,,,,,,,,,,,,,,,,,,,,,,,,,
1577418780.585403,19.000000,0.000000,4017.435791,4352.307617,4011.794922,4120.000000,4054.358887,0.000000,4.000000,,,,0.000000,4.000000,4.000000,2.000000,4.000000,4.000000,,,,,,,,,,,,,,,,,,,,,,,,,,,,,,,,,,,,,,,,,,,,,,,,,,,,,,,,
1577418780.593207,20.000000,0.000000,4010.256348,4355.384766,4020.512939,4127.692383,4057.948730,0.000000,4.000000,,,,0.000000,4.000000,4.000000,2.000000,4.000000,4.000000,,,,,,,,,,,,,,,,,,,,,,,,,,,,,,,,,,,,,,,,,,,,,,,,,,,,,,,,
1577418780.600912,21.000000,0.000000,4015.384521,4367.692383,4021.538574,4135.384766,4064.615479,0.000000,4.000000,,,,0.000000,4.000000,4.000000,2.000000,4.000000,4.000000,,,,,,,,,,,,,,,,,,,,,,,,,,,,,,,,,,,,,,,,,,,,,,,,,,,,,,,,
1577418780.608716,22.000000,0.000000,4018.461426,4353.333496,4022.051270,4131.794922,4063.076904,0.000000,4.000000,,,,0.000000,4.000000,4.000000,2.000000,4.000000,4.000000,,,,,,,,,,,,,,,,,,,,,,,,,,,,,,,,,,,,,,,,,,,,,,,,,,,,,,,,
1577418780.616421,23.000000,0.000000,4012.307617,4354.871582,4004.615479,4121.025879,4060.000000,0.000000,4.000000,,,,0.000000,4.000000,4.000000,2.000000,4.000000,4.000000,,,,,,,,,,,,,,,,,,,,,,,,,,,,,,,,,,,,,,,,,,,,,,,,,,,,,,,,
1577418780.624225,24.000000,0.000000,4007.179443,4370.256348,4015.897461,4120.000000,4058.461426,0.000000,4.000000,,,,0.000000,4.000000,4.000000,2.000000,4.000000,4.000000,,,,,,,,,,,,,,,,,,,,,,,,,,,,,,,,,,,,,,,,,,,,,,,,,,,,,,,,
1577418780.631930,25.000000,0.000000,4008.205078,4355.897461,4021.025635,4122.563965,4055.897461,0.000000,4.000000,,,,0.000000,4.000000,4.000000,2.000000,4.000000,4.000000,,,,,,,,,,,,,,,,,,,,,,,,,,,,,,,,27.131355,6.263461,1.773210,0.572173,0.335480,0.899182,1.535267,0.727170,1.066893,0.941129,2.355957,1.116485,0.377048,0.345058,0.809333,3.203211,1.742751,0.915875,0.336950,0.361538,12.204566,5.760847,1.846721,0.814073,0.454663
1577418780.639635,26.000000,0.000000,4015.897461,4346.153809,4001.025635,4121.025879,4058.461426,0.000000,4.000000,,,,0.000000,4.000000,4.000000,2.000000,4.000000,4.000000,,,,,,,,,,,,,,,,,,,,,,,,,,,,,,,,,,,,,,,,,,,,,,,,,,,,,,,,
1577418780.647440,27.000000,0.000000,4025.128174,4365.641113,4015.897461,4124.615234,4065.128174,0.000000,4.000000,,,,0.000000,4.000000,4.000000,2.000000,4.000000,4.000000,,,,,,,,,,,,,,,,,,,,,,,,,,,,,,,,,,,,,,,,,,,,,,,,,,,,,,,,
1577418780.655146,28.000000,0.000000,4037.948730,4382.563965,4026.666748,4130.769043,4072.820557,0.000000,4.000000,,,,0.000000,4.000000,4.000000,2.000000,4.000000,4.000000,,,,,,,,,,,,,,,,,,,,,,,,,,,,,,,,,,,,,,,,,,,,,,,,,,,,,,,,
1577418780.662951,29.000000,0.000000,4045.641113,4367.692383,4027.179443,4140.512695,4082.564209,0.000000,4.000000,,,,0.000000,4.000000,4.000000,2.000000,4.000000,4.000000,,,,,,,,,,,,,,,,,,,,,,,,,,,,,,,,,,,,,,,,,,,,,,,,,,,,,,,,
1577418780.670756,30.000000,0.000000,4050.769287,4344.615234,4028.718018,4149.743652,4087.692383,0.000000,4.000000,,,,0.000000,4.000000,4.000000,2.000000,4.000000,4.000000,,,,,,,,,,,,,,,,,,,,,,,,,,,,,,,,,,,,,,,,,,,,,,,,,,,,,,,,
1577418780.678461,31.000000,0.000000,4059.487061,4347.692383,4026.153809,4149.743652,4089.743652,0.000000,4.000000,,,,0.000000,4.000000,4.000000,2.000000,4.000000,4.000000,,,,,,,,,,,,,,,,,,,,,,,,,,,,,,,,,,,,,,,,,,,,,,,,,,,,,,,,
1577418780.686166,32.000000,0.000000,4062.564209,4370.256348,4035.897461,4146.153809,4096.410156,0.000000,4.000000,,,,0.000000,4.000000,4.000000,2.000000,4.000000,4.000000,,,,,,,,,,,,,,,,,,,,,,,,,,,,,,,,,,,,,,,,,,,,,,,,,,,,,,,,
1577418780.693970,33.000000,0.000000,4057.948730,4374.871582,4020.000000,4139.487305,4093.846191,0.000000,4.000000,,,,0.000000,4.000000,4.000000,2.000000,4.000000,4.000000,,,,,,,,,,,,,,,,,,,,,,,,,,,,,,,,,,,,,,,,,,,,,,,,,,,,,,,,
1577418780.701675,34.000000,0.000000,4047.692383,4343.589844,4011.794922,4130.256348,4081.538574,0.000000,4.000000,,,,0.000000,4.000000,4.000000,2.000000,4.000000,4.000000,,,,,,,,,,,,,,,,,,,,,,,,,,,,,,,,,,,,,,,,,,,,,,,,,,,,,,,,
1577418780.709480,35.000000,0.000000,4049.230713,4342.051270,4033.846191,4125.641113,4084.615479,0.000000,4.000000,,,,0.000000,4.000000,4.000000,2.000000,4.000000,4.000000,,,,,,,,,,,,,,,,,,,,,,,,,,,,,,,,,,,,,,,,,,,,,,,,,,,,,,,,
1577418780.717185,36.000000,0.000000,4061.538574,4374.358887,4028.205078,4121.025879,4097.436035,0.000000,4.000000,,,,0.000000,4.000000,4.000000,2.000000,4.000000,4.000000,,,,,,,,,,,,,,,,,,,,,,,,,,,,,,,,,,,,,,,,,,,,,,,,,,,,,,,,
1577418780.724990,37.000000,0.000000,4065.641113,4369.230957,4025.128174,4123.077148,4104.615234,0.000000,4.000000,,,,0.000000,4.000000,4.000000,2.000000,4.000000,4.000000,,,,,,,,,,,,,,,,,,,,,,,,,,,,,,,,,,,,,,,,,,,,,,,,,,,,,,,,
1577418780.732695,38.000000,0.000000,4067.179443,4348.717773,4026.153809,4125.641113,4108.717773,0.000000,4.000000,,,,0.000000,4.000000,4.000000,2.000000,4.000000,4.000000,,,,,,,,,,,,,,,,,,,,,,,,,,,,,,,,,,,,,,,,,,,,,,,,,,,,,,,,
1577418780.740500,39.000000,0.000000,4070.256348,4357.948730,4022.564209,4126.666504,4108.717773,0.000000,4.000000,,,,0.000000,4.000000,4.000000,2.000000,4.000000,4.000000,,,,,,,,,,,,,,,,,,,,,,,,,,,,,,,,,,,,,,,,,,,,,,,,,,,,,,,,
1577418780.748206,40.000000,1.000000,4069.971436,4356.695313,4024.444336,4123.532715,4105.698242,0.000000,4.000000,,,,0.000000,4.000000,4.000000,2.000000,4.000000,4.000000,,,,,,,,,,,,,,,,,,,,,,,,,,,,,,,,,,,,,,,,,,,,,,,,,,,,,,,,
1577418780.756013,41.000000,1.000000,4069.686523,4355.441406,4026.324707,4120.398926,4102.678223,0.000000,4.000000,,,,0.000000,4.000000,4.000000,2.000000,4.000000,4.000000,,,,,,,,,,,,,,,,,,,,,,,,,,,,,,,,21.706070,5.627078,1.877052,0.490756,0.257311,0.839032,2.062433,0.898720,1.085378,0.927283,2.241185,1.020017,0.170629,0.192605,0.291831,2.890539,1.808511,0.793299,0.276562,0.290842,10.490038,6.147066,1.908805,0.725144,0.398758
1577418780.763819,42.000000,1.000000,4069.401611,4354.187988,4028.205078,4117.265137,4099.658203,0.000000,4.000000,,,,0.000000,4.000000,4.000000,2.000000,4.000000,4.000000,,,,,,,,,,,,,,,,,,,,,,,,,,,,,,,,,,,,,,,,,,,,,,,,,,,,,,,,
1577418780.771625,43.000000,1.000000,4069.116699,4352.934570,4030.085449,4114.130859,4096.638184,0.000000,4.000000,,,,0.000000,4.000000,4.000000,2.000000,4.000000,4.000000,,,,,,,,,,,,,,,,,,,,,,,,,,,,,,,,,,,,,,,,,,,,,,,,,,,,,,,,
1577418780.779432,44.000000,1.000000,4068.831787,4351.681152,4031.965820,4110.997070,4093.618164,0.000000,4.000000,,,,0.000000,4.000000,4.000000,2.000000,4.000000,4.000000,,,,,,,,,,,,,,,,,,,,,,,,,,,,,,,,,,,,,,,,,,,,,,,,,,,,,,,,
1577418780.787238,45.000000,1.000000,4068.547119,4350.427246,4033.846191,4107.863281,4090.598389,0.000000,4.000000,,,,0.000000,4.000000,4.000000,2.000000,4.000000,4.000000,,,,,,,,,,,,,,,,,,,,,,,,,,,,,,,,,,,,,,,,,,,,,,,,,,,,,,,,
1577418780.795044,46.000000,1.000000,4068.262207,4349.173828,4035.726563,4104.729492,4087.578369,0.000000,4.000000,,,,0.000000,4.000000,4.000000,2.000000,4.000000,4.000000,,,,,,,,,,,,,,,,,,,,,,,,,,,,,,,,,,,,,,,,,,,,,,,,,,,,,,,,
1577418780.802851,47.000000,1.000000,4067.977295,4347.920410,4037.606934,4101.595215,4084.558350,0.000000,4.000000,,,,0.000000,4.000000,4.000000,2.000000,4.000000,4.000000,,,,,,,,,,,,,,,,,,,,,,,,,,,,,,,,,,,,,,,,,,,,,,,,,,,,,,,,
1577418780.810657,48.000000,0.000000,4067.692383,4346.666504,4039.487061,4098.461426,4081.538574,0.000000,4.000000,,,,0.000000,4.000000,4.000000,2.000000,4.000000,4.000000,,,,,,,,,,,,,,,,,,,,,,,,,,,,,,,,,,,,,,,,,,,,,,,,,,,,,,,,
1577418780.818362,49.000000,0.000000,4067.179443,4363.077148,4029.743652,4101.025879,4079.487061,0.000000,4.000000,,,,0.000000,4.000000,4.000000,2.000000,4.000000,4.000000,,,,,,,,,,,,,,,,,,,,,,,,,,,,,,,,,,,,,,,,,,,,,,,,,,,,,,,,
1577418780.826166,50.000000,0.000000,4075.897461,4356.922852,4050.256348,4117.948730,4092.820557,0.000000,4.000000,,,,0.000000,4.000000,4.000000,2.000000,4.000000,4.000000,,,,,,,,,,,,,,,,,,,,,,,,,,,,,,,,,,,,,,,,,,,,,,,,,,,,,,,,
1577418780.833971,51.000000,0.000000,4090.256348,4346.153809,4053.846191,4123.077148,4102.563965,0.000000,4.000000,,,,0.000000,4.000000,4.000000,2.000000,4.000000,4.000000,,,,,,,,,,,,,,,,,,,,,,,,,,,,,,,,,,,,,,,,,,,,,,,,,,,,,,,,
1577418780.841775,52.000000,0.000000,4098.461426,4353.846191,4049.230713,4121.025879,4109.230957,0.000000,4.000000,,,,0.000000,4.000000,4.000000,2.000000,4.000000,4.000000,,,,,,,,,,,,,,,,,,,,,,,,,,,,,,,,,,,,,,,,,,,,,,,,,,,,,,,,
1577418780.849479,53.000000,0.000000,4095.897461,4374.358887,4054.358887,4122.051270,4113.333496,0.000000,4.000000,,,,0.000000,4.000000,4.000000,2.000000,4.000000,4.000000,,,,,,,,,,,,,,,,,,,,,,,,,,,,,,,,,,,,,,,,,,,,,,,,,,,,,,,,
1577418780.857283,54.000000,0.000000,4085.128174,4360.512695,4036.410156,4112.307617,4104.102539,0.000000,4.000000,,,,0.000000,4.000000,4.000000,2.000000,4.000000,4.000000,,,,,,,,,,,,,,,,,,,,,,,,,,,,,,,,,,,,,,,,,,,,,,,,,,,,,,,,
1577418780.864987,55.000000,0.000000,4078.974365,4334.358887,4043.589844,4112.307617,4096.922852,0.000000,4.000000,,,,0.000000,4.000000,4.000000,2.000000,4.000000,4.000000,,,,,,,,,,,,,,,,,,,,,,,,,,,,,,,,,,,,,,,,,,,,,,,,,,,,,,,,
1577418780.872791,56.000000,0.000000,4085.641113,4353.846191,4049.230713,4126.153809,4103.077148,0.000000,4.000000,,,,0.000000,4.000000,4.000000,2.000000,4.000000,4.000000,,,,,,,,,,,,,,,,,,,,,,,,,,,,,,,,,,,,,,,,,,,,,,,,,,,,,,,,
1577418780.880495,57.000000,0.000000,4086.666748,4368.717773,4035.384521,4127.692383,4104.102539,0.000000,4.000000,,,,0.000000,4.000000,4.000000,2.000000,4.000000,4.000000,,,,,,,,,,,,,,,,,,,,,,,,,,,,,,,,20.346968,5.358306,2.047704,0.462865,0.223076,0.952861,2.677529,1.045311,1.041835,0.951727,2.502496,0.989769,0.165980,0.181211,0.258908,2.719077,2.047269,0.737248,0.254752,0.238207,10.288225,6.485533,2.032304,0.672628,0.347745
1577418780.888299,58.000000,0.000000,4077.435791,4348.205078,4043.076904,4116.922852,4093.846191,0.000000,4.000000,,,,0.000000,4.000000,4.000000,2.000000,4.000000,4.000000,,,,,,,,,,,,,,,,,,,,,,,,,,,,,,,,,,,,,,,,,,,,,,,,,,,,,,,,
1577418780.896003,59.000000,0.000000,4074.358887,4352.820313,4041.025635,4107.692383,4086.153809,0.000000,4.000000,,,,0.000000,4.000000,4.000000,2.000000,4.000000,4.000000,,,,,,,,,,,,,,,,,,,,,,,,,,,,,,,,,,,,,,,,,,,,,,,,,,,,,,,,
1577418780.903807,60.000000,0.000000,4081.538574,4372.820313,4044.102539,4116.410156,4092.820557,0.000000,4.000000,,,,0.000000,4.000000,4.000000,2.000000,4.000000,4.000000,,,,,,,,,,,,,,,,,,,,,,,,,,,,,,,,,,,,,,,,,,,,,,,,,,,,,,,,
1577418780.911611,61.000000,0.000000,4092.307617,4355.897461,4042.051270,4126.666504,4104.102539,0.000000,4.000000,,,,0.000000,4.000000,4.000000,2.000000,4.000000,4.000000,,,,,,,,,,,,,,,,,,,,,,,,,,,,,,,,,,,,,,,,,,,,,,,,,,,,,,,,
1577418780.919315,62.000000,0.000000,4084.102539,4345.128418,4024.615479,4118.461426,4103.589844,0.000000,4.000000,,,,0.000000,4.000000,4.000000,2.000000,4.000000,4.000000,,,,,,,,,,,,,,,,,,,,,,,,,,,,,,,,,,,,,,,,,,,,,,,,,,,,,,,,
1577418780.927119,63.000000,0.000000,4068.718018,4359.487305,4042.564209,4117.436035,4094.358887,0.000000,4.000000,,,,0.000000,4.000000,4.000000,2.000000,4.000000,4.000000,,,,,,,,,,,,,,,,,,,,,,,,,,,,,,,,,,,,,,,,,,,,,,,,,,,,,,,,
1577418780.934822,64.000000,0.000000,4083.589844,4366.153809,4059.487061,4128.717773,4096.410156,450.000000,4.000000,,,,0.000000,4.000000,4.000000,2.000000,4.000000,4.000000,,,,,,,,,,,,,,,,,,,,,,,,,,,,,,,,,,,,,,,,,,,,,,,,,,,,,,,,
1577418780.942526,65.000000,0.000000,4098.974121,4369.743652,4065.641113,4134.871582,4109.230957,450.000000,4.000000,,,,0.000000,4.000000,4.000000,2.000000,4.000000,4.000000,,,,,,,,,,,,,,,,,,,,,,,,,,,,,,,,,,,,,,,,,,,,,,,,,,,,,,,,
1577418780.950330,66.000000,0.000000,4098.974121,4376.410156,4063.589844,4134.358887,4113.333496,16245.000000,4.000000,,,,0.000000,4.000000,4.000000,2.000000,4.000000,4.000000,,,,,,,,,,,,,,,,,,,,,,,,,,,,,,,,,,,,,,,,,,,,,,,,,,,,,,,,
1577418780.958034,67.000000,0.000000,4101.025879,4357.948730,4049.743652,4125.128418,4112.820313,450.000000,4.000000,,,,0.000000,4.000000,4.000000,2.000000,4.000000,4.000000,,,,,,,,,,,,,,,,,,,,,,,,,,,,,,,,,,,,,,,,,,,,,,,,,,,,,,,,
1577418780.965838,68.000000,0.000000,4096.410156,4338.461426,4053.333252,4120.512695,4114.358887,16218.000000,4.000000,,,,0.000000,4.000000,4.000000,2.000000,4.000000,4.000000,,,,,,,,,,,,,,,,,,,,,,,,,,,,,,,,,,,,,,,,,,,,,,,,,,,,,,,,
1577418780.973542,69.000000,0.000000,4095.897461,4354.871582,4041.538574,4124.615234,4116.922852,450.000000,4.000000,,,,0.000000,4.000000,4.000000,2.000000,4.000000,4.000000,,,,,,,,,,,,,,,,,,,,,,,,,,,,,,,,,,,,,,,,,,,,,,,,,,,,,,,,
1577418780.981346,70.000000,0.000000,4103.589844,4358.461426,4034.358887,4126.153809,4122.051270,317.000000,4.000000,,,,0.000000,4.000000,4.000000,2.000000,4.000000,4.000000,,,,,,,,,,,,,,,,,,,,,,,,,,,,,,,,,,,,,,,,,,,,,,,,,,,,,,,,
1577418780.989050,71.000000,0.000000,4108.205078,4343.589844,4042.051270,4128.717773,4129.230957,450.000000,4.000000,,,,0.000000,4.000000,4.000000,2.000000,4.000000,4.000000,,,,,,,,,,,,,,,,,,,,,,,,,,,,,,,,,,,,,,,,,,,,,,,,,,,,,,,,
1577418780.996854,72.000000,0.000000,4113.846191,4359.487305,4033.333252,4133.333496,4134.871582,450.000000,4.000000,,,,0.000000,4.000000,4.000000,2.000000,4.000000,4.000000,,,,,,,,,,,,,,,,,,,,,,,,,,,,,,,,,,,,,,,,,,,,,,,,,,,,,,,,
1577418781.004558,73.000000,0.000000,4115.384766,4370.256348,4032.307617,4129.230957,4131.282227,16182.000000,4.000000,,,,0.000000,4.000000,4.000000,2.000000,4.000000,4.000000,,,,,,,,,,,,,,,,,,,,,,,,,,,,,,,,19.710478,5.339295,2.102638,0.460039,0.193037,1.138177,3.196660,1.159269,0.940473,0.983577,2.707702,0.949640,0.163584,0.166384,0.240697,2.591923,2.296633,0.718744,0.259673,0.195389,10.039025,6.487556,2.075287,0.632571,0.284016
1577418781.012362,74.000000,0.000000,4117.948730,4362.563965,4026.153809,4120.512695,4126.153809,450.000000,4.000000,,,,0.000000,4.000000,4.000000,2.000000,4.000000,4.000000,,,,,,,,,,,,,,,,,,,,,,,,,,,,,,,,,,,,,,,,,,,,,,,,,,,,,,,,
1577418781.020066,75.000000,0.000000,4128.205078,4354.871582,4041.025635,4121.025879,4134.871582,16231.000000,4.000000,,,,0.000000,4.000000,4.000000,2.000000,4.000000,4.000000,,,,,,,,,,,,,,,,,,,,,,,,,,,,,,,,,,,,,,,,,,,,,,,,,,,,,,,,
1577418781.027870,76.000000,0.000000,4130.256348,4351.282227,4061.538574,4124.615234,4143.077148,450.000000,4.000000,,,,0.000000,4.000000,4.000000,2.000000,4.000000,4.000000,,,,,,,,,,,,,,,,,,,,,,,,,,,,,,,,,,,,,,,,,,,,,,,,,,,,,,,,
1577418781.035573,77.000000,0.000000,4127.692383,4353.846191,4034.358887,4117.948730,4136.410156,450.000000,4.000000,,,,0.000000,4.000000,4.000000,2.000000,4.000000,4.000000,,,,,,,,,,,,,,,,,,,,,,,,,,,,,,,,,,,,,,,,,,,,,,,,,,,,,,,,
1577418781.043377,78.000000,0.000000,4117.948730,4354.871582,4026.666748,4119.487305,4121.538574,450.000000,4.000000,,,,0.000000,4.000000,4.000000,2.000000,4.000000,4.000000,,,,,,,,,,,,,,,,,,,,,,,,,,,,,,,,,,,,,,,,,,,,,,,,,,,,,,,,
1577418781.051081,79.000000,0.000000,4105.641113,4354.871582,4037.948730,4127.692383,4113.333496,16231.000000,4.000000,,,,0.000000,4.000000,4.000000,2.000000,4.000000,4.000000,,,,,,,,,,,,,,,,,,,,,,,,,,,,,,,,,,,,,,,,,,,,,,,,,,,,,,,,
1577418781.058884,80.000000,0.000000,4110.769043,4360.512695,4037.435791,4131.794922,4121.538574,450.000000,4.000000,,,,0.000000,4.000000,4.000000,2.000000,4.000000,4.000000,,,,,,,,,,,,,,,,,,,,,,,,,,,,,,,,,,,,,,,,,,,,,,,,,,,,,,,,
1577418781.066588,81.000000,0.000000,4111.282227,4358.974121,4041.538574,4126.666504,4122.051270,450.000000,4.000000,,,,0.000000,4.000000,4.000000,2.000000,4.000000,4.000000,,,,,,,,,,,,,,,,,,,,,,,,,,,,,,,,,,,,,,,,,,,,,,,,,,,,,,,,
1577418781.074392,82.000000,0.000000,4097.948730,4334.871582,4026.666748,4106.153809,4108.717773,450.000000,4.000000,,,,0.000000,4.000000,4.000000,2.000000,4.000000,4.000000,,,,,,,,,,,,,,,,,,,,,,,,,,,,,,,,,,,,,,,,,,,,,,,,,,,,,,,,
1577418781.082096,83.000000,0.000000,4104.102539,4325.128418,4032.820557,4101.025879,4116.922852,16231.000000,4.000000,,,,0.000000,4.000000,4.000000,2.000000,4.000000,4.000000,,,,,,,,,,,,,,,,,,,,,,,,,,,,,,,,,,,,,,,,,,,,,,,,,,,,,,,,
1577418781.089899,84.000000,0.000000,4129.230957,4354.871582,4040.512939,4118.461426,4140.512695,450.000000,4.000000,,,,0.000000,4.000000,4.000000,2.000000,4.000000,4.000000,,,,,,,,,,,,,,,,,,,,,,,,,,,,,,,,,,,,,,,,,,,,,,,,,,,,,,,,
1577418781.097603,85.000000,0.000000,4125.128418,4368.717773,4021.538574,4111.794922,4134.358887,450.000000,4.000000,,,,0.000000,4.000000,4.000000,2.000000,4.000000,4.000000,,,,,,,,,,,,,,,,,,,,,,,,,,,,,,,,,,,,,,,,,,,,,,,,,,,,,,,,
1577418781.105407,86.000000,0.000000,4108.205078,4341.025879,4025.128174,4095.897461,4117.948730,450.000000,4.000000,,,,0.000000,4.000000,4.000000,2.000000,4.000000,4.000000,,,,,,,,,,,,,,,,,,,,,,,,,,,,,,,,,,,,,,,,,,,,,,,,,,,,,,,,
1577418781.113111,87.000000,0.000000,4122.563965,4327.692383,4031.281982,4104.615234,4132.307617,16231.000000,4.000000,,,,0.000000,4.000000,4.000000,2.000000,4.000000,4.000000,,,,,,,,,,,,,,,,,,,,,,,,,,,,,,,,,,,,,,,,,,,,,,,,,,,,,,,,
1577418781.120914,88.000000,0.000000,4129.743652,4349.743652,4037.435791,4113.846191,4142.563965,450.000000,4.000000,,,,0.000000,4.000000,4.000000,2.000000,4.000000,4.000000,,,,,,,,,,,,,,,,,,,,,,,,,,,,,,,,,,,,,,,,,,,,,,,,,,,,,,,,
1577418781.128618,89.000000,0.000000,4113.333496,4349.230957,4035.897461,4101.025879,4127.692383,450.000000,4.000000,,,,0.000000,4.000000,4.000000,2.000000,4.000000,4.000000,,,,,,,,,,,,,,,,,,,,,,,,,,,,,,,,18.064215,5.270119,1.982598,0.475564,0.167268,1.278705,3.430449,1.207386,0.817752,1.018709,2.701298,0.912815,0.169974,0.155795,0.238649,2.452343,2.441726,0.743424,0.284660,0.167208,9.233877,6.011536,1.988735,0.602277,0.217419
1577418781.136322,90.000000,0.000000,4110.769043,4326.666504,4027.179443,4096.410156,4122.051270,450.000000,4.000000,,,,0.000000,4.000000,4.000000,2.000000,4.000000,4.000000,,,,,,,,,,,,,,,,,,,,,,,,,,,,,,,,,,,,,,,,,,,,,,,,,,,,,,,,
1577418781.144126,91.000000,0.000000,4114.871582,4325.128418,4047.179443,4108.717773,4128.205078,16231.000000,4.000000,,,,0.000000,4.000000,4.000000,2.000000,4.000000,4.000000,,,,,,,,,,,,,,,,,,,,,,,,,,,,,,,,,,,,,,,,,,,,,,,,,,,,,,,,
1577418781.151830,92.000000,0.000000,4112.820313,4352.820313,4050.256348,4105.641113,4125.128418,450.000000,4.000000,,,,0.000000,4.000000,4.000000,2.000000,4.000000,4.000000,,,,,,,,,,,,,,,,,,,,,,,,,,,,,,,,,,,,,,,,,,,,,,,,,,,,,,,,
1577418781.159634,93.000000,0.000000,4114.358887,4374.358887,4047.179443,4097.436035,4123.077148,450.000000,4.000000,,,,0.000000,4.000000,4.000000,2.000000,4.000000,4.000000,,,,,,,,,,,,,,,,,,,,,,,,,,,,,,,,,,,,,,,,,,,,,,,,,,,,,,,,
1577418781.167438,94.000000,0.000000,4120.512695,4355.897461,4053.333252,4101.538574,4129.743652,450.000000,4.000000,,,,0.000000,4.000000,4.000000,2.000000,4.000000,4.000000,,,,,,,,,,,,,,,,,,,,,,,,,,,,,,,,,,,,,,,,,,,,,,,,,,,,,,,,
1577418781.175142,95.000000,0.000000,4124.615234,4335.897461,4038.461426,4099.487305,4132.820313,16231.000000,4.000000,,,,0.000000,4.000000,4.000000,2.000000,4.000000,4.000000,,,,,,,,,,,,,,,,,,,,,,,,,,,,,,,,,,,,,,,,,,,,,,,,,,,,,,,,
1577418781.182846,96.000000,0.000000,4126.666504,4355.897461,4046.666748,4101.538574,4140.000000,450.000000,4.000000,,,,0.000000,4.000000,4.000000,2.000000,4.000000,4.000000,,,,,,,,,,,,,,,,,,,,,,,,,,,,,,,,,,,,,,,,,,,,,,,,,,,,,,,,
1577418781.190650,97.000000,0.000000,4137.436035,4381.538574,4053.846191,4109.743652,4149.743652,450.000000,4.000000,,,,0.000000,4.000000,4.000000,2.000000,4.000000,4.000000,,,,,,,,,,,,,,,,,,,,,,,,,,,,,,,,,,,,,,,,,,,,,,,,,,,,,,,,
1577418781.198354,98.000000,0.000000,4150.769043,4361.025879,4048.205078,4113.333496,4153.333496,450.000000,4.000000,,,,0.000000,4.000000,4.000000,2.000000,4.000000,4.000000,,,,,,,,,,,,,,,,,,,,,,,,,,,,,,,,,,,,,,,,,,,,,,,,,,,,,,,,
1577418781.206157,99.000000,0.000000,4157.948730,4347.179688,4067.692383,4126.153809,4161.025879,16231.000000,4.000000,,,,0.000000,4.000000,4.000000,2.000000,4.000000,4.000000,,,,,,,,,,,,,,,,,,,,,,,,,,,,,,,,,,,,,,,,,,,,,,,,,,,,,,,,
1577418781.213861,100.000000,0.000000,4164.615234,4362.563965,4065.128174,4134.358887,4162.563965,450.000000,4.000000,,,,0.000000,4.000000,4.000000,2.000000,4.000000,4.000000,,,,,,,,,,,,,,,,,,,,,,,,,,,,,,,,,,,,,,,,,,,,,,,,,,,,,,,,
1577418781.221665,101.000000,0.000000,4158.461426,4344.102539,4054.358887,4124.615234,4147.179688,450.000000,4.000000,,,,0.000000,4.000000,4.000000,2.000000,4.000000,4.000000,,,,,,,,,,,,,,,,,,,,,,,,,,,,,,,,,,,,,,,,,,,,,,,,,,,,,,,,
1577418781.229369,102.000000,0.000000,4152.307617,4333.846191,4052.820557,4119.487305,4138.461426,450.000000,4.000000,,,,0.000000,4.000000,4.000000,2.000000,4.000000,4.000000,,,,,,,,,,,,,,,,,,,,,,,,,,,,,,,,,,,,,,,,,,,,,,,,,,,,,,,,
1577418781.237172,103.000000,0.000000,4155.384766,4355.897461,4056.410156,4125.128418,4147.179688,16231.000000,4.000000,,,,0.000000,4.000000,4.000000,2.000000,4.000000,4.000000,,,,,,,,,,,,,,,,,,,,,,,,,,,,,,,,,,,,,,,,,,,,,,,,,,,,,,,,
1577418781.244876,104.000000,0.000000,4157.948730,4360.512695,4072.820557,4128.205078,4151.794922,450.000000,4.000000,,,,0.000000,4.000000,4.000000,2.000000,4.000000,4.000000,,,,,,,,,,,,,,,,,,,,,,,,,,,,,,,,,,,,,,,,,,,,,,,,,,,,,,,,
1577418781.252680,105.000000,0.000000,4155.384766,4346.153809,4064.102539,4117.436035,4141.538574,450.000000,4.000000,,,,0.000000,4.000000,4.000000,2.000000,4.000000,4.000000,,,,,,,,,,,,,,,,,,,,,,,,,,,,,,,,14.580422,4.908411,1.702314,0.501975,0.150231,1.266106,3.282763,1.167133,0.712253,1.057846,2.513038,0.904430,0.184619,0.160446,0.251571,2.268796,2.419129,0.801103,0.320652,0.155665,7.810009,5.077809,1.762041,0.583037,0.162468
1577418781.260384,106.000000,0.000000,4138.974121,4351.794922,4056.923096,4106.153809,4126.666504,450.000000,4.000000,,,,0.000000,4.000000,4.000000,2.000000,4.000000,4.000000,,,,,,,,,,,,,,,,,,,,,,,,,,,,,,,,,,,,,,,,,,,,,,,,,,,,,,,,
1577418781.268187,107.000000,0.000000,4131.282227,4372.307617,4060.000000,4103.077148,4118.974121,16231.000000,4.000000,,,,0.000000,4.000000,4.000000,2.000000,4.000000,4.000000,,,,,,,,,,,,,,,,,,,,,,,,,,,,,,,,,,,,,,,,,,,,,,,,,,,,,,,,
1577418781.275891,108.000000,0.000000,4145.641113,4373.846191,4060.000000,4106.666504,4129.743652,450.000000,4.000000,,,,0.000000,4.000000,4.000000,2.000000,4.000000,4.000000,,,,,,,,,,,,,,,,,,,,,,,,,,,,,,,,,,,,,,,,,,,,,,,,,,,,,,,,
1577418781.283695,109.000000,0.000000,4162.051270,4369.743652,4074.358887,4121.025879,4152.307617,450.000000,4.000000,,,,0.000000,4.000000,4.000000,2.000000,4.000000,4.000000,,,,,,,,,,,,,,,,,,,,,,,,,,,,,,,,,,,,,,,,,,,,,,,,,,,,,,,,
1577418781.291399,110.000000,0.000000,4169.743652,4366.666504,4065.128174,4125.128418,4162.051270,450.000000,4.000000,,,,0.000000,4.000000,4.000000,2.000000,4.000000,4.000000,,,,,,,,,,,,,,,,,,,,,,,,,,,,,,,,,,,,,,,,,,,,,,,,,,,,,,,,
1577418781.299202,111.000000,0.000000,4167.179688,4355.897461,4066.666748,4120.000000,4157.948730,16231.000000,4.000000,,,,0.000000,4.000000,4.000000,2.000000,4.000000,4.000000,,,,,,,,,,,,,,,,,,,,,,,,,,,,,,,,,,,,,,,,,,,,,,,,,,,,,,,,
1577418781.306906,112.000000,0.000000,4163.589844,4360.000000,4084.102539,4123.589844,4155.897461,450.000000,4.000000,,,,0.000000,4.000000,4.000000,2.000000,4.000000,4.000000,,,,,,,,,,,,,,,,,,,,,,,,,,,,,,,,,,,,,,,,,,,,,,,,,,,,,,,,
1577418781.314610,113.000000,0.000000,4168.717773,4373.846191,4070.256348,4124.615234,4155.384766,450.000000,4.000000,,,,0.000000,4.000000,4.000000,2.000000,4.000000,4.000000,,,,,,,,,,,,,,,,,,,,,,,,,,,,,,,,,,,,,,,,,,,,,,,,,,,,,,,,
1577418781.322414,114.000000,0.000000,4166.666504,4358.974121,4066.666748,4122.051270,4146.666504,450.000000,4.000000,,,,0.000000,4.000000,4.000000,2.000000,4.000000,4.000000,,,,,,,,,,,,,,,,,,,,,,,,,,,,,,,,,,,,,,,,,,,,,,,,,,,,,,,,
1577418781.330118,115.000000,0.000000,4162.563965,4338.974121,4058.974365,4120.512695,4144.615234,16231.000000,4.000000,,,,0.000000,4.000000,4.000000,2.000000,4.000000,4.000000,,,,,,,,,,,,,,,,,,,,,,,,,,,,,,,,,,,,,,,,,,,,,,,,,,,,,,,,
1577418781.337922,116.000000,0.000000,4167.179688,4348.717773,4053.333252,4122.051270,4153.333496,450.000000,4.000000,,,,0.000000,4.000000,4.000000,2.000000,4.000000,4.000000,,,,,,,,,,,,,,,,,,,,,,,,,,,,,,,,,,,,,,,,,,,,,,,,,,,,,,,,
1577418781.345726,117.000000,0.000000,4167.179688,4367.179688,4072.307617,4117.436035,4150.256348,450.000000,4.000000,,,,0.000000,4.000000,4.000000,2.000000,4.000000,4.000000,,,,,,,,,,,,,,,,,,,,,,,,,,,,,,,,,,,,,,,,,,,,,,,,,,,,,,,,
1577418781.353430,118.000000,0.000000,4163.077148,4364.102539,4073.333252,4114.871582,4143.589844,450.000000,4.000000,,,,0.000000,4.000000,4.000000,2.000000,4.000000,4.000000,,,,,,,,,,,,,,,,,,,,,,,,,,,,,,,,,,,,,,,,,,,,,,,,,,,,,,,,
1577418781.361134,119.000000,0.000000,4167.692383,4351.794922,4085.641113,4131.794922,4153.846191,16231.000000,4.000000,,,,0.000000,4.000000,4.000000,2.000000,4.000000,4.000000,,,,,,,,,,,,,,,,,,,,,,,,,,,,,,,,,,,,,,,,,,,,,,,,,,,,,,,,
1577418781.368938,120.000000,0.000000,4178.974121,4367.692383,4095.897461,4141.538574,4164.102539,450.000000,4.000000,,,,0.000000,4.000000,4.000000,2.000000,4.000000,4.000000,,,,,,,,,,,,,,,,,,,,,,,,,,,,,,,,,,,,,,,,,,,,,,,,,,,,,,,,
1577418781.376741,121.000000,0.000000,4184.102539,4389.230957,4088.205078,4131.282227,4166.666504,450.000000,4.000000,,,,0.000000,4.000000,4.000000,2.000000,4.000000,4.000000,,,,,,,,,,,,,,,,,,,,,,,,,,,,,,,,10.554014,4.299126,1.307564,0.527791,0.148929,1.093694,2.790626,1.024049,0.648577,1.107157,2.114756,0.935229,0.210873,0.190366,0.275829,2.028772,2.230358,0.861586,0.359168,0.161085,6.213284,3.942627,1.415086,0.571731,0.134274
1577418781.384445,122.000000,0.000000,4181.538574,4357.948730,4103.589844,4131.794922,4163.589844,450.000000,4.000000,,,,0.000000,4.000000,4.000000,2.000000,4.000000,4.000000,,,,,,,,,,,,,,,,,,,,,,,,,,,,,,,,,,,,,,,,,,,,,,,,,,,,,,,,
1577418781.392149,123.000000,0.000000,4180.000000,4323.077148,4107.692383,4134.871582,4157.948730,16231.000000,4.000000,,,,0.000000,4.000000,4.000000,2.000000,4.000000,4.000000,,,,,,,,,,,,,,,,,,,,,,,,,,,,,,,,,,,,,,,,,,,,,,,,,,,,,,,,
1577418781.399953,124.000000,0.000000,4174.871582,4349.743652,4101.538574,4124.102539,4156.922852,450.000000,4.000000,,,,0.000000,4.000000,4.000000,2.000000,4.000000,4.000000,,,,,,,,,,,,,,,,,,,,,,,,,,,,,,,,,,,,,,,,,,,,,,,,,,,,,,,,
1577418781.407657,125.000000,0.000000,4168.717773,4376.922852,4089.743652,4120.512695,4151.794922,450.000000,4.000000,,,,0.000000,4.000000,4.000000,2.000000,4.000000,4.000000,,,,,,,,,,,,,,,,,,,,,,,,,,,,,,,,,,,,,,,,,,,,,,,,,,,,,,,,
1577418781.415461,126.000000,0.000000,4168.717773,4355.384766,4074.871826,4124.102539,4145.641113,450.000000,4.000000,,,,0.000000,4.000000,4.000000,2.000000,4.000000,4.000000,,,,,,,,,,,,,,,,,,,,,,,,,,,,,,,,,,,,,,,,,,,,,,,,,,,,,,,,
1577418781.423265,127.000000,0.000000,4178.461426,4347.179688,4101.025879,4132.820313,4156.410156,238.000000,4.000000,,,,0.000000,4.000000,4.000000,2.000000,4.000000,4.000000,,,,,,,,,,,,,,,,,,,,,,,,,,,,,,,,,,,,,,,,,,,,,,,,,,,,,,,,
1577418781.430969,0.000000,0.000000,4187.179688,4369.230957,4107.179688,4138.974121,4168.205078,450.000000,4.000000,,,,0.000000,4.000000,4.000000,2.000000,4.000000,4.000000,,,,,,,,,,,,,,,,,,,,,,,,,,,,,,,,,,,,,,,,,,,,,,,,,,,,,,,,
1577418781.438673,1.000000,0.000000,4178.461426,4356.410156,4083.589844,4135.384766,4161.025879,450.000000,4.000000,,,,0.000000,4.000000,4.000000,2.000000,4.000000,4.000000,,,,,,,,,,,,,,,,,,,,,,,,,,,,,,,,,,,,,,,,,,,,,,,,,,,,,,,,
1577418781.446477,2.000000,0.000000,4177.948730,4326.666504,4076.923096,4136.410156,4156.410156,16237.000000,4.000000,,,,0.000000,4.000000,4.000000,2.000000,4.000000,4.000000,,,,,,,,,,,,,,,,,,,,,,,,,,,,,,,,,,,,,,,,,,,,,,,,,,,,,,,,
1577418781.454281,3.000000,0.000000,4195.384766,4344.102539,4077.948730,4140.000000,4168.717773,450.000000,4.000000,,,,0.000000,4.000000,4.000000,2.000000,4.000000,4.000000,,,,,,,,,,,,,,,,,,,,,,,,,,,,,,,,,,,,,,,,,,,,,,,,,,,,,,,,
1577418781.461985,4.000000,0.000000,4192.307617,4373.846191,4092.820557,4140.512695,4176.410156,16214.000000,4.000000,,,,0.000000,4.000000,4.000000,2.000000,4.000000,4.000000,,,,,,,,,,,,,,,,,,,,,,,,,,,,,,,,,,,,,,,,,,,,,,,,,,,,,,,,
1577418781.469789,5.000000,0.000000,4186.153809,4361.025879,4086.153809,4143.077148,4172.820313,450.000000,4.000000,,,,0.000000,4.000000,4.000000,2.000000,4.000000,4.000000,,,,,,,,,,,,,,,,,,,,,,,,,,,,,,,,,,,,,,,,,,,,,,,,,,,,,,,,
1577418781.477593,6.000000,0.000000,4189.230957,4336.922852,4073.333252,4143.077148,4166.666504,318.000000,4.000000,,,,0.000000,4.000000,4.000000,2.000000,4.000000,4.000000,,,,,,,,,,,,,,,,,,,,,,,,,,,,,,,,,,,,,,,,,,,,,,,,,,,,,,,,
1577418781.485297,7.000000,0.000000,4180.512695,4355.897461,4072.820557,4134.871582,4161.538574,450.000000,4.000000,,,,0.000000,4.000000,4.000000,2.000000,4.000000,4.000000,,,,,,,,,,,,,,,,,,,,,,,,,,,,,,,,,,,,,,,,,,,,,,,,,,,,,,,,
1577418781.493101,8.000000,0.000000,4169.230957,4375.897461,4054.358887,4125.641113,4155.384766,450.000000,4.000000,,,,0.000000,4.000000,4.000000,2.000000,4.000000,4.000000,,,,,,,,,,,,,,,,,,,,,,,,,,,,,,,,,,,,,,,,,,,,,,,,,,,,,,,,
1577418781.500804,9.000000,0.000000,4174.871582,4360.000000,4062.564209,4138.974121,4156.922852,16178.000000,4.000000,,,,0.000000,4.000000,4.000000,2.000000,4.000000,4.000000,,,,,,,,,,,,,,,,,,,,,,,,,,,,,,,,7.229641,3.663500,0.917057,0.539008,0.168145,0.831646,2.132731,0.804601,0.631855,1.175988,1.698841,1.002359,0.238600,0.247276,0.305334,1.808585,1.940599,0.892381,0.389521,0.182019,4.980264,2.945227,1.039007,0.559200,0.141052
1577418781.508608,10.000000,0.000000,4190.769043,4351.794922,4070.256348,4151.794922,4166.666504,450.000000,4.000000,,,,0.000000,4.000000,4.000000,2.000000,4.000000,4.000000,,,,,,,,,,,,,,,,,,,,,,,,,,,,,,,,,,,,,,,,,,,,,,,,,,,,,,,,
1577418781.516312,11.000000,0.000000,4200.000000,4354.871582,4063.076904,4144.102539,4178.974121,16226.000000,4.000000,,,,0.000000,4.000000,4.000000,2.000000,4.000000,4.000000,,,,,,,,,,,,,,,,,,,,,,,,,,,,,,,,,,,,,,,,,,,,,,,,,,,,,,,,
1577418781.524116,12.000000,0.000000,4193.846191,4344.615234,4080.000000,4142.563965,4183.077148,450.000000,4.000000,,,,0.000000,4.000000,4.000000,2.000000,4.000000,4.000000,,,,,,,,,,,,,,,,,,,,,,,,,,,,,,,,,,,,,,,,,,,,,,,,,,,,,,,,
1577418781.531819,13.000000,0.000000,4192.307617,4348.717773,4080.512939,4143.589844,4175.384766,450.000000,4.000000,,,,0.000000,4.000000,4.000000,2.000000,4.000000,4.000000,,,,,,,,,,,,,,,,,,,,,,,,,,,,,,,,,,,,,,,,,,,,,,,,,,,,,,,,
1577418781.539623,14.000000,0.000000,4194.871582,4362.051270,4079.487061,4137.436035,4170.256348,450.000000,4.000000,,,,0.000000,4.000000,4.000000,2.000000,4.000000,4.000000,,,,,,,,,,,,,,,,,,,,,,,,,,,,,,,,,,,,,,,,,,,,,,,,,,,,,,,,
