title:calm_2, start timestamp:2019-12-27T06:53:48.365230+03:00, stop timestamp:2019-12-27T06:54:19.420826+03:00, headset type:INSIGHT, headset serial:A2D200FB, headset firmware:930, subject name:Qasim, channels:75, sampling rate:eeg_128;pm_0.1;pow_8, samples:3985      , version:2.0
Timestamp,EEG.Counter,EEG.Interpolated,EEG.AF3,EEG.T7,EEG.Pz,EEG.T8,EEG.AF4,EEG.RawCq,EEG.Battery,MarkerIndex,MarkerType,MarkerValueInt,EEG.MarkerHardware,CQ.AF3,CQ.T7,CQ.Pz,CQ.T8,CQ.AF4,PM.Engagement.IsActive,PM.Engagement.Scaled,PM.Engagement.Raw,PM.Engagement.Min,PM.Engagement.Max,PM.Excitement.IsActive,PM.Excitement.Scaled,PM.Excitement.Raw,PM.Excitement.Min,PM.Excitement.Max,PM.LongTermExcitement,PM.Stress.IsActive,PM.Stress.Scaled,PM.Stress.Raw,PM.Stress.Min,PM.Stress.Max,PM.Relaxation.IsActive,PM.Relaxation.Scaled,PM.Relaxation.Raw,PM.Relaxation.Min,PM.Relaxation.Max,PM.Interest.IsActive,PM.Interest.Scaled,PM.Interest.Raw,PM.Interest.Min,PM.Interest.Max,PM.Focus.IsActive,PM.Focus.Scaled,PM.Focus.Raw,PM.Focus.Min,PM.Focus.Max,POW.AF3.Theta,POW.AF3.Alpha,POW.AF3.BetaL,POW.AF3.BetaH,POW.AF3.Gamma,POW.T7.Theta,POW.T7.Alpha,POW.T7.BetaL,POW.T7.BetaH,POW.T7.Gamma,POW.Pz.Theta,POW.Pz.Alpha,POW.Pz.BetaL,POW.Pz.BetaH,POW.Pz.Gamma,POW.T8.Theta,POW.T8.Alpha,POW.T8.BetaL,POW.T8.BetaH,POW.T8.Gamma,POW.AF4.Theta,POW.AF4.Alpha,POW.AF4.BetaL,POW.AF4.BetaH,POW.AF4.Gamma
1577418828.365230,5.000000,0.000000,4171.282227,4349.743652,4123.589844,4141.025879,4185.128418,450.000000,4.000000,,,,0.000000,4.000000,4.000000,0.000000,4.000000,4.000000,,,,,,,,,,,,,,,,,,,,,,,,,,,,,,,,,,,,,,,,,,,,,,,,,,,,,,,,
1577418828.372932,6.000000,0.000000,4164.102539,4366.153809,4142.051270,4130.769043,4184.615234,14.000000,4.000000,,,,0.000000,4.000000,4.000000,0.000000,4.000000,4.000000,,,,,,,,,,,,,,,,,,,,,,,,,,,,,,,,,,,,,,,,,,,,,,,,,,,,,,,,
1577418828.380734,7.000000,0.000000,4161.538574,4371.794922,4165.128418,4132.820313,4173.333496,450.000000,4.000000,,,,0.000000,4.000000,4.000000,0.000000,4.000000,4.000000,,,,,,,,,,,,,,,,,,,,,,,,,,,,,,,,,,,,,,,,,,,,,,,,,,,,,,,,
1577418828.388437,8.000000,0.000000,4176.410156,4349.230957,4178.461426,4126.666504,4176.410156,450.000000,4.000000,,,,0.000000,4.000000,4.000000,0.000000,4.000000,4.000000,,,,,,,,,,,,,,,,,,,,,,,,,,,,,,,,,,,,,,,,,,,,,,,,,,,,,,,,
1577418828.396239,9.000000,0.000000,4174.871582,4310.256348,4174.358887,4147.179688,4189.230957,16166.000000,4.000000,,,,0.000000,4.000000,4.000000,0.000000,4.000000,4.000000,,,,,,,,,,,,,,,,,,,,,,,,,,,,,,,,3.135422,3.458366,1.901475,0.948003,0.916373,1.327652,0.808293,2.046232,2.338452,2.109578,12.748453,6.528734,7.093654,47.964352,19.229630,1.430064,1.075185,1.699905,0.949756,0.773321,3.232149,2.885943,2.085881,0.827234,0.871771
1577418828.403941,10.000000,0.000000,4185.641113,4324.102539,4126.666504,4154.358887,4207.692383,450.000000,4.000000,,,,0.000000,4.000000,4.000000,0.000000,4.000000,4.000000,,,,,,,,,,,,,,,,,,,,,,,,,,,,,,,,,,,,,,,,,,,,,,,,,,,,,,,,
1577418828.411744,11.000000,0.000000,4184.615234,4344.615234,4171.282227,4132.307617,4220.000000,16211.000000,4.000000,,,,0.000000,4.000000,4.000000,0.000000,4.000000,4.000000,,,,,,,,,,,,,,,,,,,,,,,,,,,,,,,,,,,,,,,,,,,,,,,,,,,,,,,,
1577418828.419446,12.000000,0.000000,4185.128418,4347.692383,4187.179688,4132.820313,4215.384766,450.000000,4.000000,,,,0.000000,4.000000,4.000000,0.000000,4.000000,4.000000,,,,,,,,,,,,,,,,,,,,,,,,,,,,,,,,,,,,,,,,,,,,,,,,,,,,,,,,
1577418828.427149,13.000000,0.000000,4208.205078,4345.641113,4138.974121,4123.589844,4197.436035,450.000000,4.000000,,,,0.000000,4.000000,4.000000,0.000000,4.000000,4.000000,,,,,,,,,,,,,,,,,,,,,,,,,,,,,,,,,,,,,,,,,,,,,,,,,,,,,,,,
1577418828.434951,14.000000,0.000000,4187.179688,4326.153809,4216.410156,4124.615234,4185.641113,450.000000,4.000000,,,,0.000000,4.000000,4.000000,0.000000,4.000000,4.000000,,,,,,,,,,,,,,,,,,,,,,,,,,,,,,,,,,,,,,,,,,,,,,,,,,,,,,,,
1577418828.442654,15.000000,0.000000,4187.179688,4330.769043,4235.384766,4133.846191,4206.666504,16211.000000,4.000000,,,,0.000000,4.000000,4.000000,0.000000,4.000000,4.000000,,,,,,,,,,,,,,,,,,,,,,,,,,,,,,,,,,,,,,,,,,,,,,,,,,,,,,,,
1577418828.450456,16.000000,0.000000,4142.051270,4296.922852,4279.487305,4091.794922,4161.538574,0.000000,4.000000,,,,0.000000,4.000000,4.000000,0.000000,4.000000,4.000000,,,,,,,,,,,,,,,,,,,,,,,,,,,,,,,,,,,,,,,,,,,,,,,,,,,,,,,,
1577418828.458159,17.000000,0.000000,4127.179688,4317.436035,4253.846191,4096.410156,4137.436035,0.000000,4.000000,,,,0.000000,4.000000,4.000000,0.000000,4.000000,4.000000,,,,,,,,,,,,,,,,,,,,,,,,,,,,,,,,,,,,,,,,,,,,,,,,,,,,,,,,
1577418828.465961,18.000000,0.000000,4385.128418,4463.077148,3730.256348,4105.641113,4327.692383,0.000000,4.000000,,,,0.000000,4.000000,4.000000,0.000000,4.000000,4.000000,,,,,,,,,,,,,,,,,,,,,,,,,,,,,,,,,,,,,,,,,,,,,,,,,,,,,,,,
1577418828.473664,19.000000,0.000000,4078.974365,4232.820313,4610.256348,4127.179688,4141.025879,0.000000,4.000000,,,,0.000000,4.000000,4.000000,0.000000,4.000000,4.000000,,,,,,,,,,,,,,,,,,,,,,,,,,,,,,,,,,,,,,,,,,,,,,,,,,,,,,,,
1577418828.481466,20.000000,0.000000,4038.974365,4359.487305,4504.102539,4209.230957,4068.718018,0.000000,4.000000,,,,0.000000,4.000000,4.000000,0.000000,4.000000,4.000000,,,,,,,,,,,,,,,,,,,,,,,,,,,,,,,,,,,,,,,,,,,,,,,,,,,,,,,,
1577418828.489169,21.000000,0.000000,5333.333496,5049.743652,2171.794922,4177.436035,4977.436035,0.000000,4.000000,,,,0.000000,4.000000,4.000000,0.000000,4.000000,4.000000,,,,,,,,,,,,,,,,,,,,,,,,,,,,,,,,,,,,,,,,,,,,,,,,,,,,,,,,
1577418828.496971,22.000000,0.000000,5554.358887,4781.025879,3858.461426,4646.666504,5430.769043,0.000000,4.000000,,,,0.000000,4.000000,4.000000,0.000000,4.000000,4.000000,,,,,,,,,,,,,,,,,,,,,,,,,,,,,,,,,,,,,,,,,,,,,,,,,,,,,,,,
1577418828.504674,23.000000,0.000000,4806.666504,4305.641113,5537.948730,4953.333496,4970.769043,0.000000,4.000000,,,,0.000000,4.000000,4.000000,0.000000,4.000000,4.000000,,,,,,,,,,,,,,,,,,,,,,,,,,,,,,,,,,,,,,,,,,,,,,,,,,,,,,,,
1577418828.512476,24.000000,0.000000,4736.410156,4410.769043,3769.230713,4367.179688,4655.897461,0.000000,4.000000,,,,0.000000,4.000000,4.000000,0.000000,4.000000,4.000000,,,,,,,,,,,,,,,,,,,,,,,,,,,,,,,,,,,,,,,,,,,,,,,,,,,,,,,,
1577418828.520179,25.000000,0.000000,4566.153809,4352.307617,3943.589844,4238.461426,4518.461426,0.000000,4.000000,,,,0.000000,4.000000,4.000000,0.000000,4.000000,4.000000,,,,,,,,,,,,,,,,,,,,,,,,,,,,,,,,2.240974,2.178025,1.466942,1.069689,0.956899,0.979252,0.821325,2.396071,2.027307,2.110548,12.351324,4.581006,5.742890,45.440037,19.596462,1.214595,0.751500,1.239187,0.978308,0.830727,3.135461,2.472907,1.861946,0.706767,0.876081
1577418828.527982,26.000000,0.000000,4343.589844,4286.666504,4331.794922,4331.794922,4371.282227,0.000000,4.000000,,,,0.000000,4.000000,4.000000,0.000000,4.000000,4.000000,,,,,,,,,,,,,,,,,,,,,,,,,,,,,,,,,,,,,,,,,,,,,,,,,,,,,,,,
1577418828.535684,27.000000,0.000000,4250.769043,4263.589844,3899.487061,4126.666504,4224.615234,0.000000,4.000000,,,,0.000000,4.000000,4.000000,0.000000,4.000000,4.000000,,,,,,,,,,,,,,,,,,,,,,,,,,,,,,,,,,,,,,,,,,,,,,,,,,,,,,,,
1577418828.543387,28.000000,0.000000,4160.512695,4271.794922,3980.512939,4124.615234,4155.897461,0.000000,4.000000,,,,0.000000,4.000000,4.000000,0.000000,4.000000,4.000000,,,,,,,,,,,,,,,,,,,,,,,,,,,,,,,,,,,,,,,,,,,,,,,,,,,,,,,,
1577418828.551189,29.000000,0.000000,4156.922852,4336.410156,3927.692383,4109.230957,4136.410156,0.000000,4.000000,,,,0.000000,4.000000,4.000000,0.000000,4.000000,4.000000,,,,,,,,,,,,,,,,,,,,,,,,,,,,,,,,,,,,,,,,,,,,,,,,,,,,,,,,
1577418828.558892,30.000000,0.000000,4127.179688,4315.897461,3937.435791,4098.974121,4114.358887,0.000000,4.000000,,,,0.000000,4.000000,4.000000,0.000000,4.000000,4.000000,,,,,,,,,,,,,,,,,,,,,,,,,,,,,,,,,,,,,,,,,,,,,,,,,,,,,,,,
1577418828.566694,31.000000,0.000000,4115.897461,4288.717773,3920.000000,4101.538574,4102.563965,0.000000,4.000000,,,,0.000000,4.000000,4.000000,0.000000,4.000000,4.000000,,,,,,,,,,,,,,,,,,,,,,,,,,,,,,,,,,,,,,,,,,,,,,,,,,,,,,,,
1577418828.574397,32.000000,0.000000,4105.128418,4310.256348,3895.384521,4078.461426,4083.076904,0.000000,4.000000,,,,0.000000,4.000000,4.000000,0.000000,4.000000,4.000000,,,,,,,,,,,,,,,,,,,,,,,,,,,,,,,,,,,,,,,,,,,,,,,,,,,,,,,,
1577418828.582199,33.000000,0.000000,4085.641113,4342.563965,3920.000000,4078.461426,4070.256348,0.000000,4.000000,,,,0.000000,4.000000,4.000000,0.000000,4.000000,4.000000,,,,,,,,,,,,,,,,,,,,,,,,,,,,,,,,,,,,,,,,,,,,,,,,,,,,,,,,
1577418828.589902,34.000000,0.000000,4083.589844,4323.077148,3886.666748,4075.384521,4066.153809,0.000000,4.000000,,,,0.000000,4.000000,4.000000,0.000000,4.000000,4.000000,,,,,,,,,,,,,,,,,,,,,,,,,,,,,,,,,,,,,,,,,,,,,,,,,,,,,,,,
1577418828.597704,35.000000,0.000000,4091.794922,4298.461426,3904.615479,4086.666748,4073.846191,0.000000,4.000000,,,,0.000000,4.000000,4.000000,0.000000,4.000000,4.000000,,,,,,,,,,,,,,,,,,,,,,,,,,,,,,,,,,,,,,,,,,,,,,,,,,,,,,,,
1577418828.605407,36.000000,0.000000,4094.358887,4329.743652,3920.000000,4084.615479,4078.461426,0.000000,4.000000,,,,0.000000,4.000000,4.000000,0.000000,4.000000,4.000000,,,,,,,,,,,,,,,,,,,,,,,,,,,,,,,,,,,,,,,,,,,,,,,,,,,,,,,,
1577418828.613209,37.000000,0.000000,4090.769287,4348.717773,3908.718018,4074.358887,4080.000000,0.000000,4.000000,,,,0.000000,4.000000,4.000000,0.000000,4.000000,4.000000,,,,,,,,,,,,,,,,,,,,,,,,,,,,,,,,,,,,,,,,,,,,,,,,,,,,,,,,
1577418828.620912,38.000000,0.000000,4096.922852,4338.974121,3917.948730,4082.051270,4091.281982,0.000000,4.000000,,,,0.000000,4.000000,4.000000,0.000000,4.000000,4.000000,,,,,,,,,,,,,,,,,,,,,,,,,,,,,,,,,,,,,,,,,,,,,,,,,,,,,,,,
1577418828.628615,39.000000,0.000000,4108.717773,4353.846191,3905.128174,4086.153809,4091.794922,0.000000,4.000000,,,,0.000000,4.000000,4.000000,0.000000,4.000000,4.000000,,,,,,,,,,,,,,,,,,,,,,,,,,,,,,,,,,,,,,,,,,,,,,,,,,,,,,,,
1577418828.636318,40.000000,0.000000,4108.205078,4352.307617,3907.179443,4088.205078,4083.589844,0.000000,4.000000,,,,0.000000,4.000000,4.000000,0.000000,4.000000,4.000000,,,,,,,,,,,,,,,,,,,,,,,,,,,,,,,,,,,,,,,,,,,,,,,,,,,,,,,,
1577418828.644121,41.000000,0.000000,4111.282227,4333.846191,3920.000000,4102.051270,4094.358887,0.000000,4.000000,,,,0.000000,4.000000,4.000000,0.000000,4.000000,4.000000,,,,,,,,,,,,,,,,,,,,,,,,,,,,,,,,4.180501,3.444803,2.432608,1.970469,1.577497,0.901194,1.217301,2.995175,1.824935,2.307446,12.072507,3.689636,4.832623,44.474720,23.241732,1.696015,1.049027,1.122573,1.143266,0.959267,4.619498,4.180145,2.509214,1.276472,1.149388
1577418828.651824,42.000000,0.000000,4114.871582,4345.641113,3908.718018,4106.153809,4105.641113,0.000000,4.000000,,,,0.000000,4.000000,4.000000,0.000000,4.000000,4.000000,,,,,,,,,,,,,,,,,,,,,,,,,,,,,,,,,,,,,,,,,,,,,,,,,,,,,,,,
1577418828.659626,43.000000,0.000000,4110.769043,4345.641113,3918.974365,4105.128418,4101.025879,0.000000,4.000000,,,,0.000000,4.000000,4.000000,0.000000,4.000000,4.000000,,,,,,,,,,,,,,,,,,,,,,,,,,,,,,,,,,,,,,,,,,,,,,,,,,,,,,,,
1577418828.667329,44.000000,0.000000,4124.102539,4329.230957,3922.564209,4110.256348,4105.641113,0.000000,4.000000,,,,0.000000,4.000000,4.000000,0.000000,4.000000,4.000000,,,,,,,,,,,,,,,,,,,,,,,,,,,,,,,,,,,,,,,,,,,,,,,,,,,,,,,,
1577418828.675132,45.000000,0.000000,4131.794922,4346.153809,3934.358887,4110.256348,4113.333496,0.000000,4.000000,,,,0.000000,4.000000,4.000000,0.000000,4.000000,4.000000,,,,,,,,,,,,,,,,,,,,,,,,,,,,,,,,,,,,,,,,,,,,,,,,,,,,,,,,
1577418828.682835,46.000000,0.000000,4117.948730,4360.512695,3949.743652,4105.641113,4109.743652,0.000000,4.000000,,,,0.000000,4.000000,4.000000,0.000000,4.000000,4.000000,,,,,,,,,,,,,,,,,,,,,,,,,,,,,,,,,,,,,,,,,,,,,,,,,,,,,,,,
1577418828.690637,47.000000,0.000000,4116.410156,4347.179688,3922.051270,4100.000000,4106.666504,0.000000,4.000000,,,,0.000000,4.000000,4.000000,0.000000,4.000000,4.000000,,,,,,,,,,,,,,,,,,,,,,,,,,,,,,,,,,,,,,,,,,,,,,,,,,,,,,,,
1577418828.698340,48.000000,0.000000,4124.102539,4344.615234,3918.461426,4095.897461,4104.615234,0.000000,4.000000,,,,0.000000,4.000000,4.000000,0.000000,4.000000,4.000000,,,,,,,,,,,,,,,,,,,,,,,,,,,,,,,,,,,,,,,,,,,,,,,,,,,,,,,,
1577418828.706143,49.000000,0.000000,4122.563965,4346.666504,3924.102539,4087.692383,4097.948730,0.000000,4.000000,,,,0.000000,4.000000,4.000000,0.000000,4.000000,4.000000,,,,,,,,,,,,,,,,,,,,,,,,,,,,,,,,,,,,,,,,,,,,,,,,,,,,,,,,
1577418828.713846,50.000000,0.000000,4122.563965,4347.692383,3912.820557,4089.230713,4100.000000,0.000000,4.000000,,,,0.000000,4.000000,4.000000,0.000000,4.000000,4.000000,,,,,,,,,,,,,,,,,,,,,,,,,,,,,,,,,,,,,,,,,,,,,,,,,,,,,,,,
1577418828.721549,51.000000,0.000000,4126.666504,4357.436035,3922.564209,4102.051270,4105.641113,0.000000,4.000000,,,,0.000000,4.000000,4.000000,0.000000,4.000000,4.000000,,,,,,,,,,,,,,,,,,,,,,,,,,,,,,,,,,,,,,,,,,,,,,,,,,,,,,,,
1577418828.729352,52.000000,0.000000,4130.256348,4358.461426,3921.538574,4104.102539,4103.589844,0.000000,4.000000,,,,0.000000,4.000000,4.000000,0.000000,4.000000,4.000000,,,,,,,,,,,,,,,,,,,,,,,,,,,,,,,,,,,,,,,,,,,,,,,,,,,,,,,,
1577418828.737155,53.000000,0.000000,4144.615234,4357.436035,3935.897461,4114.871582,4116.922852,0.000000,4.000000,,,,0.000000,4.000000,4.000000,0.000000,4.000000,4.000000,,,,,,,,,,,,,,,,,,,,,,,,,,,,,,,,,,,,,,,,,,,,,,,,,,,,,,,,
1577418828.744858,54.000000,0.000000,4160.000000,4372.820313,3949.743652,4130.769043,4135.897461,0.000000,4.000000,,,,0.000000,4.000000,4.000000,0.000000,4.000000,4.000000,,,,,,,,,,,,,,,,,,,,,,,,,,,,,,,,,,,,,,,,,,,,,,,,,,,,,,,,
1577418828.752660,55.000000,0.000000,4150.256348,4372.307617,3923.589844,4118.974121,4128.205078,0.000000,4.000000,,,,0.000000,4.000000,4.000000,0.000000,4.000000,4.000000,,,,,,,,,,,,,,,,,,,,,,,,,,,,,,,,,,,,,,,,,,,,,,,,,,,,,,,,
1577418828.760363,56.000000,0.000000,4144.102539,4343.077148,3924.615479,4112.820313,4124.615234,0.000000,4.000000,,,,0.000000,4.000000,4.000000,0.000000,4.000000,4.000000,,,,,,,,,,,,,,,,,,,,,,,,,,,,,,,,,,,,,,,,,,,,,,,,,,,,,,,,
1577418828.768066,57.000000,0.000000,4160.512695,4344.102539,3929.743652,4124.615234,4133.333496,0.000000,4.000000,,,,0.000000,4.000000,4.000000,0.000000,4.000000,4.000000,,,,,,,,,,,,,,,,,,,,,,,,,,,,,,,,27.533888,20.494095,13.414290,7.729790,6.064123,3.273912,4.203152,5.474395,2.800284,4.006546,12.162076,6.844945,8.404827,51.249771,52.466423,7.657823,5.799846,3.702939,2.468675,1.898242,23.459284,19.754124,10.778955,6.030528,3.453429
1577418828.775869,58.000000,0.000000,4158.974121,4367.179688,3915.897461,4121.025879,4127.179688,0.000000,4.000000,,,,0.000000,4.000000,4.000000,0.000000,4.000000,4.000000,,,,,,,,,,,,,,,,,,,,,,,,,,,,,,,,,,,,,,,,,,,,,,,,,,,,,,,,
1577418828.783672,59.000000,0.000000,4144.102539,4362.051270,3924.615479,4111.282227,4122.563965,0.000000,4.000000,,,,0.000000,4.000000,4.000000,0.000000,4.000000,4.000000,,,,,,,,,,,,,,,,,,,,,,,,,,,,,,,,,,,,,,,,,,,,,,,,,,,,,,,,
1577418828.791375,60.000000,0.000000,4154.358887,4347.692383,3934.358887,4117.436035,4132.307617,0.000000,4.000000,,,,0.000000,4.000000,4.000000,0.000000,4.000000,4.000000,,,,,,,,,,,,,,,,,,,,,,,,,,,,,,,,,,,,,,,,,,,,,,,,,,,,,,,,
1577418828.799078,61.000000,0.000000,4164.615234,4356.922852,3940.000000,4127.179688,4136.922852,0.000000,4.000000,,,,0.000000,4.000000,4.000000,0.000000,4.000000,4.000000,,,,,,,,,,,,,,,,,,,,,,,,,,,,,,,,,,,,,,,,,,,,,,,,,,,,,,,,
1577418828.806881,62.000000,0.000000,4162.051270,4373.333496,3935.384521,4127.179688,4134.358887,0.000000,4.000000,,,,0.000000,4.000000,4.000000,0.000000,4.000000,4.000000,,,,,,,,,,,,,,,,,,,,,,,,,,,,,,,,,,,,,,,,,,,,,,,,,,,,,,,,
1577418828.814584,63.000000,0.000000,4169.743652,4363.589844,3928.718018,4128.717773,4144.615234,0.000000,4.000000,,,,0.000000,4.000000,4.000000,0.000000,4.000000,4.000000,,,,,,,,,,,,,,,,,,,,,,,,,,,,,,,,,,,,,,,,,,,,,,,,,,,,,,,,
1577418828.822387,64.000000,0.000000,4175.384766,4341.538574,3941.538574,4129.230957,4147.692383,450.000000,4.000000,,,,0.000000,4.000000,4.000000,0.000000,4.000000,4.000000,,,,,,,,,,,,,,,,,,,,,,,,,,,,,,,,,,,,,,,,,,,,,,,,,,,,,,,,
1577418828.830090,65.000000,0.000000,4164.102539,4337.436035,3934.358887,4118.461426,4133.333496,450.000000,4.000000,,,,0.000000,4.000000,4.000000,0.000000,4.000000,4.000000,,,,,,,,,,,,,,,,,,,,,,,,,,,,,,,,,,,,,,,,,,,,,,,,,,,,,,,,
1577418828.837793,66.000000,0.000000,4152.307617,4359.487305,3932.820557,4118.974121,4130.769043,16252.000000,4.000000,,,,0.000000,4.000000,4.000000,0.000000,4.000000,4.000000,,,,,,,,,,,,,,,,,,,,,,,,,,,,,,,,,,,,,,,,,,,,,,,,,,,,,,,,
1577418828.845596,67.000000,0.000000,4155.897461,4376.922852,3947.179443,4128.205078,4136.922852,450.000000,4.000000,,,,0.000000,4.000000,4.000000,0.000000,4.000000,4.000000,,,,,,,,,,,,,,,,,,,,,,,,,,,,,,,,,,,,,,,,,,,,,,,,,,,,,,,,
1577418828.853399,68.000000,0.000000,4164.615234,4366.153809,3939.487061,4125.128418,4139.487305,16228.000000,4.000000,,,,0.000000,4.000000,4.000000,0.000000,4.000000,4.000000,,,,,,,,,,,,,,,,,,,,,,,,,,,,,,,,,,,,,,,,,,,,,,,,,,,,,,,,
1577418828.861102,69.000000,0.000000,4182.051270,4366.153809,3950.256348,4122.563965,4153.846191,450.000000,4.000000,,,,0.000000,4.000000,4.000000,2.000000,4.000000,4.000000,,,,,,,,,,,,,,,,,,,,,,,,,,,,,,,,,,,,,,,,,,,,,,,,,,,,,,,,
1577418828.868905,70.000000,0.000000,4231.282227,4378.974121,3953.846191,4128.717773,4188.717773,230.000000,4.000000,,,,0.000000,4.000000,4.000000,2.000000,4.000000,4.000000,,,,,,,,,,,,,,,,,,,,,,,,,,,,,,,,,,,,,,,,,,,,,,,,,,,,,,,,
1577418828.876607,71.000000,0.000000,4274.358887,4364.102539,3945.128174,4125.128418,4209.230957,450.000000,4.000000,,,,0.000000,4.000000,4.000000,2.000000,4.000000,4.000000,,,,,,,,,,,,,,,,,,,,,,,,,,,,,,,,,,,,,,,,,,,,,,,,,,,,,,,,
1577418828.884410,72.000000,0.000000,4291.282227,4345.641113,3954.358887,4123.589844,4208.205078,450.000000,4.000000,,,,0.000000,4.000000,4.000000,2.000000,4.000000,4.000000,,,,,,,,,,,,,,,,,,,,,,,,,,,,,,,,,,,,,,,,,,,,,,,,,,,,,,,,
1577418828.892113,73.000000,0.000000,4316.922852,4346.666504,3950.256348,4132.307617,4222.051270,16178.000000,4.000000,,,,0.000000,4.000000,4.000000,2.000000,4.000000,4.000000,,,,,,,,,,,,,,,,,,,,,,,,,,,,,,,,107.173828,74.616463,47.776264,24.500387,19.240139,11.838006,13.207493,12.464375,6.579195,9.144001,12.683321,18.074364,22.404934,74.300224,141.617508,28.375834,21.086960,12.768383,6.663772,4.915806,89.829414,67.891785,37.763123,20.231167,10.412889
1577418828.899916,74.000000,0.000000,4334.871582,4355.897461,3950.769287,4137.948730,4241.025879,450.000000,4.000000,,,,0.000000,4.000000,4.000000,2.000000,4.000000,4.000000,,,,,,,,,,,,,,,,,,,,,,,,,,,,,,,,,,,,,,,,,,,,,,,,,,,,,,,,
1577418828.907619,75.000000,0.000000,4325.641113,4368.205078,3944.102539,4128.717773,4232.820313,16248.000000,4.000000,,,,0.000000,4.000000,4.000000,2.000000,4.000000,4.000000,,,,,,,,,,,,,,,,,,,,,,,,,,,,,,,,,,,,,,,,,,,,,,,,,,,,,,,,
1577418828.915421,76.000000,0.000000,4311.282227,4360.512695,3940.000000,4122.051270,4216.922852,450.000000,4.000000,,,,0.000000,4.000000,4.000000,2.000000,4.000000,4.000000,,,,,,,,,,,,,,,,,,,,,,,,,,,,,,,,,,,,,,,,,,,,,,,,,,,,,,,,
1577418828.923124,77.000000,0.000000,4298.974121,4348.717773,3954.871826,4131.794922,4210.769043,450.000000,4.000000,,,,0.000000,4.000000,4.000000,2.000000,4.000000,4.000000,,,,,,,,,,,,,,,,,,,,,,,,,,,,,,,,,,,,,,,,,,,,,,,,,,,,,,,,
1577418828.930927,78.000000,0.000000,4280.000000,4364.615234,3948.205078,4130.769043,4202.051270,450.000000,4.000000,,,,0.000000,4.000000,4.000000,2.000000,4.000000,4.000000,,,,,,,,,,,,,,,,,,,,,,,,,,,,,,,,,,,,,,,,,,,,,,,,,,,,,,,,
1577418828.938630,79.000000,0.000000,4272.820313,4370.769043,3956.923096,4132.820313,4203.589844,16248.000000,4.000000,,,,0.000000,4.000000,4.000000,2.000000,4.000000,4.000000,,,,,,,,,,,,,,,,,,,,,,,,,,,,,,,,,,,,,,,,,,,,,,,,,,,,,,,,
1577418828.946432,80.000000,0.000000,4290.256348,4352.820313,3966.153809,4155.384766,4220.512695,450.000000,4.000000,,,,0.000000,4.000000,4.000000,2.000000,4.000000,4.000000,,,,,,,,,,,,,,,,,,,,,,,,,,,,,,,,,,,,,,,,,,,,,,,,,,,,,,,,
1577418828.954135,81.000000,0.000000,4283.589844,4348.205078,3950.769287,4154.871582,4219.487305,450.000000,4.000000,,,,0.000000,4.000000,4.000000,2.000000,4.000000,4.000000,,,,,,,,,,,,,,,,,,,,,,,,,,,,,,,,,,,,,,,,,,,,,,,,,,,,,,,,
1577418828.961938,82.000000,0.000000,4251.794922,4363.589844,3954.358887,4126.666504,4196.410156,450.000000,4.000000,,,,0.000000,4.000000,4.000000,2.000000,4.000000,4.000000,,,,,,,,,,,,,,,,,,,,,,,,,,,,,,,,,,,,,,,,,,,,,,,,,,,,,,,,
1577418828.969641,83.000000,0.000000,4250.769043,4373.333496,3955.897461,4117.436035,4187.692383,16248.000000,4.000000,,,,0.000000,4.000000,4.000000,2.000000,4.000000,4.000000,,,,,,,,,,,,,,,,,,,,,,,,,,,,,,,,,,,,,,,,,,,,,,,,,,,,,,,,
1577418828.977344,84.000000,0.000000,4260.512695,4364.615234,3958.974365,4135.897461,4193.846191,450.000000,4.000000,,,,0.000000,4.000000,4.000000,2.000000,4.000000,4.000000,,,,,,,,,,,,,,,,,,,,,,,,,,,,,,,,,,,,,,,,,,,,,,,,,,,,,,,,
1577418828.985147,85.000000,0.000000,4245.641113,4356.410156,3960.000000,4140.512695,4183.589844,450.000000,4.000000,,,,0.000000,4.000000,4.000000,2.000000,4.000000,4.000000,,,,,,,,,,,,,,,,,,,,,,,,,,,,,,,,,,,,,,,,,,,,,,,,,,,,,,,,
1577418828.992850,86.000000,0.000000,4234.358887,4360.000000,3950.769287,4132.307617,4169.743652,450.000000,4.000000,,,,0.000000,4.000000,4.000000,2.000000,4.000000,4.000000,,,,,,,,,,,,,,,,,,,,,,,,,,,,,,,,,,,,,,,,,,,,,,,,,,,,,,,,
1577418829.000653,87.000000,0.000000,4237.948730,4363.589844,3967.179443,4141.025879,4177.948730,16248.000000,4.000000,,,,0.000000,4.000000,4.000000,2.000000,4.000000,4.000000,,,,,,,,,,,,,,,,,,,,,,,,,,,,,,,,,,,,,,,,,,,,,,,,,,,,,,,,
1577418829.008356,88.000000,0.000000,4244.102539,4373.333496,3966.153809,4146.153809,4191.282227,450.000000,4.000000,,,,0.000000,4.000000,4.000000,2.000000,4.000000,4.000000,,,,,,,,,,,,,,,,,,,,,,,,,,,,,,,,,,,,,,,,,,,,,,,,,,,,,,,,
1577418829.016159,89.000000,0.000000,4248.205078,4371.282227,3955.897461,4137.948730,4190.769043,450.000000,4.000000,,,,0.000000,4.000000,4.000000,2.000000,4.000000,4.000000,,,,,,,,,,,,,,,,,,,,,,,,,,,,,,,,268.132568,177.966629,113.403961,55.477226,43.583107,29.065811,30.220919,25.514606,14.063802,18.730684,13.765814,39.118328,49.959122,117.640762,309.645020,70.380539,50.522095,30.639383,14.766502,10.816478,225.302124,159.338531,90.297523,46.692944,23.409853
1577418829.023862,90.000000,0.000000,4235.384766,4350.256348,3964.102539,4133.333496,4180.000000,450.000000,4.000000,,,,0.000000,4.000000,4.000000,2.000000,4.000000,4.000000,,,,,,,,,,,,,,,,,,,,,,,,,,,,,,,,,,,,,,,,,,,,,,,,,,,,,,,,
1577418829.031665,91.000000,0.000000,4225.641113,4352.307617,3957.435791,4127.692383,4176.922852,16248.000000,4.000000,,,,0.000000,4.000000,4.000000,2.000000,4.000000,4.000000,,,,,,,,,,,,,,,,,,,,,,,,,,,,,,,,,,,,,,,,,,,,,,,,,,,,,,,,
1577418829.039368,92.000000,0.000000,4249.743652,4372.820313,3966.153809,4134.871582,4206.666504,450.000000,4.000000,,,,0.000000,4.000000,4.000000,2.000000,4.000000,4.000000,,,,,,,,,,,,,,,,,,,,,,,,,,,,,,,,,,,,,,,,,,,,,,,,,,,,,,,,
1577418829.047170,93.000000,0.000000,4276.922852,4368.205078,3968.718018,4148.205078,4235.384766,450.000000,4.000000,,,,0.000000,4.000000,4.000000,2.000000,4.000000,4.000000,,,,,,,,,,,,,,,,,,,,,,,,,,,,,,,,,,,,,,,,,,,,,,,,,,,,,,,,
1577418829.054873,94.000000,0.000000,4272.307617,4348.717773,3954.871826,4136.410156,4220.512695,450.000000,4.000000,,,,0.000000,4.000000,4.000000,2.000000,4.000000,4.000000,,,,,,,,,,,,,,,,,,,,,,,,,,,,,,,,,,,,,,,,,,,,,,,,,,,,,,,,
1577418829.062676,95.000000,0.000000,4260.512695,4357.948730,3955.384521,4124.615234,4203.077148,16248.000000,4.000000,,,,0.000000,4.000000,4.000000,2.000000,4.000000,4.000000,,,,,,,,,,,,,,,,,,,,,,,,,,,,,,,,,,,,,,,,,,,,,,,,,,,,,,,,
1577418829.070379,96.000000,0.000000,4253.846191,4357.948730,3949.743652,4124.102539,4201.538574,450.000000,4.000000,,,,0.000000,4.000000,4.000000,2.000000,4.000000,4.000000,,,,,,,,,,,,,,,,,,,,,,,,,,,,,,,,,,,,,,,,,,,,,,,,,,,,,,,,
1577418829.078182,97.000000,0.000000,4231.282227,4332.820313,3956.923096,4124.615234,4189.230957,450.000000,4.000000,,,,0.000000,4.000000,4.000000,2.000000,4.000000,4.000000,,,,,,,,,,,,,,,,,,,,,,,,,,,,,,,,,,,,,,,,,,,,,,,,,,,,,,,,
1577418829.085884,98.000000,0.000000,4221.538574,4344.615234,3960.000000,4131.794922,4183.589844,450.000000,4.000000,,,,0.000000,4.000000,4.000000,2.000000,4.000000,4.000000,,,,,,,,,,,,,,,,,,,,,,,,,,,,,,,,,,,,,,,,,,,,,,,,,,,,,,,,
1577418829.093687,99.000000,0.000000,4232.820313,4363.077148,3952.820557,4134.871582,4193.333496,16248.000000,4.000000,,,,0.000000,4.000000,4.000000,2.000000,4.000000,4.000000,,,,,,,,,,,,,,,,,,,,,,,,,,,,,,,,,,,,,,,,,,,,,,,,,,,,,,,,
1577418829.101390,100.000000,0.000000,4232.820313,4352.307617,3956.923096,4134.871582,4198.974121,450.000000,4.000000,,,,0.000000,4.000000,4.000000,2.000000,4.000000,4.000000,,,,,,,,,,,,,,,,,,,,,,,,,,,,,,,,,,,,,,,,,,,,,,,,,,,,,,,,
1577418829.109193,101.000000,0.000000,4229.743652,4359.487305,3944.102539,4135.384766,4198.461426,450.000000,4.000000,,,,0.000000,4.000000,4.000000,2.000000,4.000000,4.000000,,,,,,,,,,,,,,,,,,,,,,,,,,,,,,,,,,,,,,,,,,,,,,,,,,,,,,,,
1577418829.116895,102.000000,0.000000,4224.615234,4372.820313,3947.692383,4128.205078,4193.846191,450.000000,4.000000,,,,0.000000,4.000000,4.000000,2.000000,4.000000,4.000000,,,,,,,,,,,,,,,,,,,,,,,,,,,,,,,,,,,,,,,,,,,,,,,,,,,,,,,,
1577418829.124599,103.000000,0.000000,4215.384766,4355.384766,3956.410156,4117.948730,4184.615234,16248.000000,4.000000,,,,0.000000,4.000000,4.000000,2.000000,4.000000,4.000000,,,,,,,,,,,,,,,,,,,,,,,,,,,,,,,,,,,,,,,,,,,,,,,,,,,,,,,,
1577418829.132402,104.000000,0.000000,4211.794922,4347.179688,3942.051270,4110.769043,4173.846191,450.000000,4.000000,,,,0.000000,4.000000,4.000000,2.000000,4.000000,4.000000,,,,,,,,,,,,,,,,,,,,,,,,,,,,,,,,,,,,,,,,,,,,,,,,,,,,,,,,
1577418829.140204,105.000000,0.000000,4209.230957,4355.897461,3958.461426,4115.384766,4171.794922,450.000000,4.000000,,,,0.000000,4.000000,4.000000,2.000000,4.000000,4.000000,,,,,,,,,,,,,,,,,,,,,,,,,,,,,,,,501.046478,319.600861,203.847275,97.103661,76.233749,53.489944,53.537174,43.339619,24.444517,31.658642,15.075393,67.207603,87.869011,175.360184,538.329834,130.737564,91.188606,55.645416,26.015280,19.081745,421.398163,284.471344,163.488907,82.443085,40.944565
1577418829.147907,106.000000,0.000000,4205.128418,4354.358887,3965.641113,4123.589844,4175.897461,450.000000,4.000000,,,,0.000000,4.000000,4.000000,2.000000,4.000000,4.000000,,,,,,,,,,,,,,,,,,,,,,,,,,,,,,,,,,,,,,,,,,,,,,,,,,,,,,,,
1577418829.155610,107.000000,0.000000,4200.512695,4345.128418,3952.307617,4127.179688,4176.410156,16248.000000,4.000000,,,,0.000000,4.000000,4.000000,2.000000,4.000000,4.000000,,,,,,,,,,,,,,,,,,,,,,,,,,,,,,,,,,,,,,,,,,,,,,,,,,,,,,,,
1577418829.163413,108.000000,0.000000,4205.128418,4340.512695,3961.025635,4133.333496,4176.922852,450.000000,4.000000,,,,0.000000,4.000000,4.000000,2.000000,4.000000,4.000000,,,,,,,,,,,,,,,,,,,,,,,,,,,,,,,,,,,,,,,,,,,,,,,,,,,,,,,,
1577418829.171116,109.000000,0.000000,4219.487305,4349.230957,3969.743652,4137.436035,4185.128418,450.000000,4.000000,,,,0.000000,4.000000,4.000000,2.000000,4.000000,4.000000,,,,,,,,,,,,,,,,,,,,,,,,,,,,,,,,,,,,,,,,,,,,,,,,,,,,,,,,
1577418829.178919,110.000000,0.000000,4226.666504,4371.794922,3974.358887,4138.461426,4193.333496,450.000000,4.000000,,,,0.000000,4.000000,4.000000,2.000000,4.000000,4.000000,,,,,,,,,,,,,,,,,,,,,,,,,,,,,,,,,,,,,,,,,,,,,,,,,,,,,,,,
1577418829.186622,111.000000,0.000000,4230.256348,4387.179688,3961.538574,4140.512695,4196.922852,16248.000000,4.000000,,,,0.000000,4.000000,4.000000,2.000000,4.000000,4.000000,,,,,,,,,,,,,,,,,,,,,,,,,,,,,,,,,,,,,,,,,,,,,,,,,,,,,,,,
1577418829.194425,112.000000,0.000000,4240.000000,4371.794922,3953.333252,4142.051270,4207.179688,450.000000,4.000000,,,,0.000000,4.000000,4.000000,2.000000,4.000000,4.000000,,,,,,,,,,,,,,,,,,,,,,,,,,,,,,,,,,,,,,,,,,,,,,,,,,,,,,,,
1577418829.202128,113.000000,0.000000,4245.128418,4346.666504,3963.589844,4137.948730,4212.307617,450.000000,4.000000,,,,0.000000,4.000000,4.000000,2.000000,4.000000,4.000000,,,,,,,,,,,,,,,,,,,,,,,,,,,,,,,,,,,,,,,,,,,,,,,,,,,,,,,,
1577418829.209931,114.000000,0.000000,4244.615234,4358.974121,3956.923096,4126.666504,4206.666504,450.000000,4.000000,,,,0.000000,4.000000,4.000000,2.000000,4.000000,4.000000,,,,,,,,,,,,,,,,,,,,,,,,,,,,,,,,,,,,,,,,,,,,,,,,,,,,,,,,
1577418829.217634,115.000000,0.000000,4235.384766,4380.512695,3960.512939,4125.128418,4203.589844,16248.000000,4.000000,,,,0.000000,4.000000,4.000000,2.000000,4.000000,4.000000,,,,,,,,,,,,,,,,,,,,,,,,,,,,,,,,,,,,,,,,,,,,,,,,,,,,,,,,
1577418829.225437,116.000000,0.000000,4226.666504,4361.025879,3962.051270,4129.743652,4199.487305,450.000000,4.000000,,,,0.000000,4.000000,4.000000,2.000000,4.000000,4.000000,,,,,,,,,,,,,,,,,,,,,,,,,,,,,,,,,,,,,,,,,,,,,,,,,,,,,,,,
1577418829.233141,117.000000,0.000000,4225.128418,4341.538574,3960.000000,4123.589844,4187.692383,450.000000,4.000000,,,,0.000000,4.000000,4.000000,2.000000,4.000000,4.000000,,,,,,,,,,,,,,,,,,,,,,,,,,,,,,,,,,,,,,,,,,,,,,,,,,,,,,,,
1577418829.240943,118.000000,0.000000,4229.743652,4369.230957,3973.333252,4126.666504,4188.717773,450.000000,4.000000,,,,0.000000,4.000000,4.000000,2.000000,4.000000,4.000000,,,,,,,,,,,,,,,,,,,,,,,,,,,,,,,,,,,,,,,,,,,,,,,,,,,,,,,,
1577418829.248646,119.000000,0.000000,4247.692383,4394.871582,3970.256348,4144.102539,4208.205078,16248.000000,4.000000,,,,0.000000,4.000000,4.000000,2.000000,4.000000,4.000000,,,,,,,,,,,,,,,,,,,,,,,,,,,,,,,,,,,,,,,,,,,,,,,,,,,,,,,,
1577418829.256449,120.000000,0.000000,4259.487305,4370.769043,3977.948730,4151.282227,4221.025879,450.000000,4.000000,,,,0.000000,4.000000,4.000000,2.000000,4.000000,4.000000,,,,,,,,,,,,,,,,,,,,,,,,,,,,,,,,,,,,,,,,,,,,,,,,,,,,,,,,
1577418829.264152,121.000000,0.000000,4250.256348,4354.358887,3980.512939,4141.025879,4213.333496,450.000000,4.000000,,,,0.000000,4.000000,4.000000,2.000000,4.000000,4.000000,,,,,,,,,,,,,,,,,,,,,,,,,,,,,,,,754.831360,464.309937,297.412689,139.042770,108.959396,79.429008,77.427048,61.649754,35.150272,44.663212,16.470491,95.088852,126.919579,231.957733,770.650879,195.894104,133.198456,81.723778,37.714333,27.729900,634.724121,412.228333,239.685028,118.644966,58.602173
1577418829.271955,122.000000,0.000000,4244.615234,4369.230957,3963.589844,4128.717773,4204.102539,450.000000,4.000000,,,,0.000000,4.000000,4.000000,2.000000,4.000000,4.000000,,,,,,,,,,,,,,,,,,,,,,,,,,,,,,,,,,,,,,,,,,,,,,,,,,,,,,,,
1577418829.279657,123.000000,0.000000,4263.077148,4365.641113,3975.897461,4130.256348,4217.436035,16248.000000,4.000000,,,,0.000000,4.000000,4.000000,2.000000,4.000000,4.000000,,,,,,,,,,,,,,,,,,,,,,,,,,,,,,,,,,,,,,,,,,,,,,,,,,,,,,,,
1577418829.287460,124.000000,0.000000,4298.974121,4352.307617,3974.358887,4133.333496,4240.512695,450.000000,4.000000,,,,0.000000,4.000000,4.000000,2.000000,4.000000,4.000000,,,,,,,,,,,,,,,,,,,,,,,,,,,,,,,,,,,,,,,,,,,,,,,,,,,,,,,,
1577418829.295163,125.000000,0.000000,4333.846191,4365.641113,3966.666748,4133.333496,4257.948730,450.000000,4.000000,,,,0.000000,4.000000,4.000000,2.000000,4.000000,4.000000,,,,,,,,,,,,,,,,,,,,,,,,,,,,,,,,,,,,,,,,,,,,,,,,,,,,,,,,
1577418829.302966,126.000000,0.000000,4362.563965,4376.922852,3976.410156,4131.282227,4274.871582,450.000000,4.000000,,,,0.000000,4.000000,4.000000,2.000000,4.000000,4.000000,,,,,,,,,,,,,,,,,,,,,,,,,,,,,,,,,,,,,,,,,,,,,,,,,,,,,,,,
1577418829.310669,127.000000,0.000000,4394.358887,4353.846191,3973.846191,4127.179688,4294.358887,238.000000,4.000000,,,,0.000000,4.000000,4.000000,2.000000,4.000000,4.000000,,,,,,,,,,,,,,,,,,,,,,,,,,,,,,,,,,,,,,,,,,,,,,,,,,,,,,,,
1577418829.318471,0.000000,0.000000,4458.974121,4351.794922,3987.179443,4143.077148,4336.922852,450.000000,4.000000,,,,0.000000,4.000000,4.000000,2.000000,4.000000,4.000000,,,,,,,,,,,,,,,,,,,,,,,,,,,,,,,,,,,,,,,,,,,,,,,,,,,,,,,,
1577418829.326174,1.000000,0.000000,4544.102539,4373.333496,3990.256348,4156.410156,4387.692383,450.000000,4.000000,,,,0.000000,4.000000,4.000000,2.000000,4.000000,4.000000,,,,,,,,,,,,,,,,,,,,,,,,,,,,,,,,,,,,,,,,,,,,,,,,,,,,,,,,
1577418829.333977,2.000000,0.000000,4589.230957,4370.769043,3978.461426,4144.102539,4405.641113,16245.000000,4.000000,,,,0.000000,4.000000,4.000000,2.000000,4.000000,4.000000,,,,,,,,,,,,,,,,,,,,,,,,,,,,,,,,,,,,,,,,,,,,,,,,,,,,,,,,
1577418829.341680,3.000000,0.000000,4605.128418,4361.538574,3985.128174,4136.922852,4406.153809,450.000000,4.000000,,,,0.000000,4.000000,4.000000,2.000000,4.000000,4.000000,,,,,,,,,,,,,,,,,,,,,,,,,,,,,,,,,,,,,,,,,,,,,,,,,,,,,,,,
1577418829.349482,4.000000,0.000000,4630.769043,4364.615234,3990.769287,4139.487305,4417.436035,16220.000000,4.000000,,,,0.000000,4.000000,4.000000,2.000000,4.000000,4.000000,,,,,,,,,,,,,,,,,,,,,,,,,,,,,,,,,,,,,,,,,,,,,,,,,,,,,,,,
1577418829.357185,5.000000,0.000000,4635.384766,4370.769043,3990.769287,4136.922852,4418.461426,450.000000,4.000000,,,,0.000000,4.000000,4.000000,2.000000,4.000000,4.000000,,,,,,,,,,,,,,,,,,,,,,,,,,,,,,,,,,,,,,,,,,,,,,,,,,,,,,,,
1577418829.364988,6.000000,0.000000,4619.487305,4380.000000,3978.974365,4127.179688,4399.487305,305.000000,4.000000,,,,0.000000,4.000000,4.000000,2.000000,4.000000,4.000000,,,,,,,,,,,,,,,,,,,,,,,,,,,,,,,,,,,,,,,,,,,,,,,,,,,,,,,,
1577418829.372691,7.000000,0.000000,4619.487305,4370.256348,3983.076904,4119.487305,4392.307617,450.000000,4.000000,,,,0.000000,4.000000,4.000000,2.000000,4.000000,4.000000,,,,,,,,,,,,,,,,,,,,,,,,,,,,,,,,,,,,,,,,,,,,,,,,,,,,,,,,
1577418829.380394,8.000000,0.000000,4624.615234,4342.563965,4000.512939,4122.051270,4398.461426,450.000000,4.000000,,,,0.000000,4.000000,4.000000,2.000000,4.000000,4.000000,,,,,,,,,,,,,,,,,,,,,,,,,,,,,,,,,,,,,,,,,,,,,,,,,,,,,,,,
1577418829.388197,9.000000,0.000000,4620.512695,4352.820313,3987.179443,4126.153809,4395.384766,16179.000000,4.000000,,,,0.000000,4.000000,4.000000,2.000000,4.000000,4.000000,,,,,,,,,,,,,,,,,,,,,,,,,,,,,,,,953.026245,566.072815,364.992401,168.043625,131.317108,98.908661,94.329170,74.683884,42.795166,53.566246,16.982424,113.923683,154.800171,268.066895,932.455383,246.024780,163.411743,100.745399,46.228333,34.045719,800.067566,501.975372,294.969574,143.890961,70.753929
1577418829.395900,10.000000,0.000000,4616.922852,4387.179688,3987.179443,4121.025879,4385.641113,450.000000,4.000000,,,,0.000000,4.000000,4.000000,2.000000,4.000000,4.000000,,,,,,,,,,,,,,,,,,,,,,,,,,,,,,,,,,,,,,,,,,,,,,,,,,,,,,,,
1577418829.403703,11.000000,0.000000,4617.948730,4383.077148,3994.358887,4114.358887,4381.025879,16241.000000,4.000000,,,,0.000000,4.000000,4.000000,2.000000,4.000000,4.000000,,,,,,,,,,,,,,,,,,,,,,,,,,,,,,,,,,,,,,,,,,,,,,,,,,,,,,,,
1577418829.411406,12.000000,0.000000,4617.436035,4370.256348,3989.230713,4117.948730,4377.436035,450.000000,4.000000,,,,0.000000,4.000000,4.000000,2.000000,4.000000,4.000000,,,,,,,,,,,,,,,,,,,,,,,,,,,,,,,,,,,,,,,,,,,,,,,,,,,,,,,,
1577418829.419209,13.000000,0.000000,4616.922852,4382.563965,4000.512939,4121.025879,4374.871582,450.000000,4.000000,,,,0.000000,4.000000,4.000000,2.000000,4.000000,4.000000,,,,,,,,,,,,,,,,,,,,,,,,,,,,,,,,,,,,,,,,,,,,,,,,,,,,,,,,
1577418829.426912,14.000000,0.000000,4620.000000,4389.230957,3996.923096,4119.487305,4383.589844,450.000000,4.000000,,,,0.000000,4.000000,4.000000,2.000000,4.000000,4.000000,,,,,,,,,,,,,,,,,,,,,,,,,,,,,,,,,,,,,,,,,,,,,,,,,,,,,,,,
1577418829.434714,15.000000,0.000000,4621.538574,4366.153809,3994.358887,4118.974121,4393.333496,16241.000000,4.000000,,,,0.000000,4.000000,4.000000,2.000000,4.000000,4.000000,,,,,,,,,,,,,,,,,,,,,,,,,,,,,,,,,,,,,,,,,,,,,,,,,,,,,,,,
1577418829.442417,16.000000,0.000000,4612.307617,4362.563965,3994.358887,4109.743652,4380.000000,0.000000,4.000000,,,,0.000000,4.000000,4.000000,2.000000,4.000000,4.000000,,,,,,,,,,,,,,,,,,,,,,,,,,,,,,,,,,,,,,,,,,,,,,,,,,,,,,,,
1577418829.450220,17.000000,0.000000,4588.205078,4376.410156,3979.487061,4097.948730,4358.461426,0.000000,4.000000,,,,0.000000,4.000000,4.000000,2.000000,4.000000,4.000000,,,,,,,,,,,,,,,,,,,,,,,,,,,,,,,,,,,,,,,,,,,,,,,,,,,,,,,,
1577418829.457923,18.000000,0.000000,4571.794922,4374.871582,3994.358887,4101.538574,4363.589844,0.000000,4.000000,,,,0.000000,4.000000,4.000000,2.000000,4.000000,4.000000,,,,,,,,,,,,,,,,,,,,,,,,,,,,,,,,,,,,,,,,,,,,,,,,,,,,,,,,
1577418829.465725,19.000000,0.000000,4586.666504,4384.615234,4003.076904,4107.179688,4383.077148,0.000000,4.000000,,,,0.000000,4.000000,4.000000,2.000000,4.000000,4.000000,,,,,,,,,,,,,,,,,,,,,,,,,,,,,,,,,,,,,,,,,,,,,,,,,,,,,,,,
1577418829.473428,20.000000,0.000000,4583.077148,4382.051270,3994.871826,4102.563965,4372.820313,0.000000,4.000000,,,,0.000000,4.000000,4.000000,2.000000,4.000000,4.000000,,,,,,,,,,,,,,,,,,,,,,,,,,,,,,,,,,,,,,,,,,,,,,,,,,,,,,,,
1577418829.481231,21.000000,0.000000,4557.436035,4365.128418,3997.435791,4096.922852,4346.666504,0.000000,4.000000,,,,0.000000,4.000000,4.000000,2.000000,4.000000,4.000000,,,,,,,,,,,,,,,,,,,,,,,,,,,,,,,,,,,,,,,,,,,,,,,,,,,,,,,,
1577418829.488934,22.000000,0.000000,4558.461426,4376.922852,3995.384521,4098.974121,4354.358887,0.000000,4.000000,,,,0.000000,4.000000,4.000000,2.000000,4.000000,4.000000,,,,,,,,,,,,,,,,,,,,,,,,,,,,,,,,,,,,,,,,,,,,,,,,,,,,,,,,
1577418829.496737,23.000000,0.000000,4563.589844,4379.487305,4003.076904,4107.692383,4368.205078,0.000000,4.000000,,,,0.000000,4.000000,4.000000,2.000000,4.000000,4.000000,,,,,,,,,,,,,,,,,,,,,,,,,,,,,,,,,,,,,,,,,,,,,,,,,,,,,,,,
1577418829.504439,24.000000,0.000000,4548.717773,4367.179688,3996.923096,4109.743652,4350.769043,0.000000,4.000000,,,,0.000000,4.000000,4.000000,2.000000,4.000000,4.000000,,,,,,,,,,,,,,,,,,,,,,,,,,,,,,,,,,,,,,,,,,,,,,,,,,,,,,,,
1577418829.512242,25.000000,0.000000,4540.512695,4365.641113,3995.897461,4112.820313,4342.563965,0.000000,4.000000,,,,0.000000,4.000000,4.000000,2.000000,4.000000,4.000000,,,,,,,,,,,,,,,,,,,,,,,,,,,,,,,,1026.067261,589.841614,383.183777,173.916702,135.433914,105.278809,98.314880,77.796524,44.685909,55.212891,16.558384,117.174759,161.616608,269.661652,966.331970,263.796448,171.338821,106.153236,48.584660,35.808037,858.986023,522.416687,310.135834,149.346420,73.127647
1577418829.519945,26.000000,0.000000,4544.102539,4372.820313,4018.974365,4121.538574,4354.871582,0.000000,4.000000,,,,0.000000,4.000000,4.000000,2.000000,4.000000,4.000000,,,,,,,,,,,,,,,,,,,,,,,,,,,,,,,,,,,,,,,,,,,,,,,,,,,,,,,,
1577418829.527748,27.000000,0.000000,4535.897461,4378.461426,4012.820557,4112.820313,4346.666504,0.000000,4.000000,,,,0.000000,4.000000,4.000000,2.000000,4.000000,4.000000,,,,,,,,,,,,,,,,,,,,,,,,,,,,,,,,,,,,,,,,,,,,,,,,,,,,,,,,
1577418829.535451,28.000000,0.000000,4522.563965,4375.897461,4011.281982,4108.717773,4329.743652,0.000000,4.000000,,,,0.000000,4.000000,4.000000,2.000000,4.000000,4.000000,,,,,,,,,,,,,,,,,,,,,,,,,,,,,,,,,,,,,,,,,,,,,,,,,,,,,,,,
1577418829.543154,29.000000,0.000000,4518.974121,4363.589844,4015.384521,4123.589844,4330.769043,0.000000,4.000000,,,,0.000000,4.000000,4.000000,2.000000,4.000000,4.000000,,,,,,,,,,,,,,,,,,,,,,,,,,,,,,,,,,,,,,,,,,,,,,,,,,,,,,,,
1577418829.550957,30.000000,0.000000,4503.589844,4353.846191,4008.205078,4117.436035,4325.641113,0.000000,4.000000,,,,0.000000,4.000000,4.000000,2.000000,4.000000,4.000000,,,,,,,,,,,,,,,,,,,,,,,,,,,,,,,,,,,,,,,,,,,,,,,,,,,,,,,,
1577418829.558660,31.000000,0.000000,4481.538574,4365.128418,4012.820557,4096.922852,4309.230957,0.000000,4.000000,,,,0.000000,4.000000,4.000000,2.000000,4.000000,4.000000,,,,,,,,,,,,,,,,,,,,,,,,,,,,,,,,,,,,,,,,,,,,,,,,,,,,,,,,
1577418829.566463,32.000000,0.000000,4482.563965,4361.025879,4008.718018,4104.615234,4310.769043,0.000000,4.000000,,,,0.000000,4.000000,4.000000,2.000000,4.000000,4.000000,,,,,,,,,,,,,,,,,,,,,,,,,,,,,,,,,,,,,,,,,,,,,,,,,,,,,,,,
1577418829.574166,33.000000,0.000000,4495.384766,4344.102539,4023.589844,4128.205078,4332.820313,0.000000,4.000000,,,,0.000000,4.000000,4.000000,2.000000,4.000000,4.000000,,,,,,,,,,,,,,,,,,,,,,,,,,,,,,,,,,,,,,,,,,,,,,,,,,,,,,,,
1577418829.581969,34.000000,0.000000,4493.333496,4360.000000,4036.410156,4128.205078,4338.461426,0.000000,4.000000,,,,0.000000,4.000000,4.000000,2.000000,4.000000,4.000000,,,,,,,,,,,,,,,,,,,,,,,,,,,,,,,,,,,,,,,,,,,,,,,,,,,,,,,,
1577418829.589672,35.000000,0.000000,4493.846191,4380.512695,4024.615479,4122.563965,4333.846191,0.000000,4.000000,,,,0.000000,4.000000,4.000000,2.000000,4.000000,4.000000,,,,,,,,,,,,,,,,,,,,,,,,,,,,,,,,,,,,,,,,,,,,,,,,,,,,,,,,
1577418829.597475,36.000000,0.000000,4511.794922,4381.538574,4031.794922,4140.000000,4351.282227,0.000000,4.000000,,,,0.000000,4.000000,4.000000,2.000000,4.000000,4.000000,,,,,,,,,,,,,,,,,,,,,,,,,,,,,,,,,,,,,,,,,,,,,,,,,,,,,,,,
1577418829.605178,37.000000,0.000000,4521.538574,4368.205078,4021.025635,4143.077148,4366.666504,0.000000,4.000000,,,,0.000000,4.000000,4.000000,2.000000,4.000000,4.000000,,,,,,,,,,,,,,,,,,,,,,,,,,,,,,,,,,,,,,,,,,,,,,,,,,,,,,,,
1577418829.612981,38.000000,0.000000,4503.589844,4368.717773,4014.358887,4124.615234,4360.000000,0.000000,4.000000,,,,0.000000,4.000000,4.000000,2.000000,4.000000,4.000000,,,,,,,,,,,,,,,,,,,,,,,,,,,,,,,,,,,,,,,,,,,,,,,,,,,,,,,,
1577418829.620684,39.000000,0.000000,4496.410156,4375.897461,4035.897461,4123.589844,4353.846191,0.000000,4.000000,,,,0.000000,4.000000,4.000000,2.000000,4.000000,4.000000,,,,,,,,,,,,,,,,,,,,,,,,,,,,,,,,,,,,,,,,,,,,,,,,,,,,,,,,
1577418829.628487,40.000000,0.000000,4510.256348,4358.461426,4032.820557,4132.307617,4355.384766,0.000000,4.000000,,,,0.000000,4.000000,4.000000,2.000000,4.000000,4.000000,,,,,,,,,,,,,,,,,,,,,,,,,,,,,,,,,,,,,,,,,,,,,,,,,,,,,,,,
1577418829.636190,41.000000,0.000000,4513.846191,4353.846191,4033.333252,4136.410156,4359.487305,0.000000,4.000000,,,,0.000000,4.000000,4.000000,2.000000,4.000000,4.000000,,,,,,,,,,,,,,,,,,,,,,,,,,,,,,,,950.161743,527.221558,345.543549,154.509811,119.798515,96.191330,87.863365,69.764488,40.131683,48.996021,14.614399,103.688553,144.760468,234.815918,859.313843,242.646439,154.155014,96.040016,43.903358,32.357964,791.158386,466.137604,279.726685,133.035980,64.855949
1577418829.643993,42.000000,0.000000,4510.256348,4380.512695,4037.948730,4135.384766,4370.256348,0.000000,4.000000,,,,0.000000,4.000000,4.000000,2.000000,4.000000,4.000000,,,,,,,,,,,,,,,,,,,,,,,,,,,,,,,,,,,,,,,,,,,,,,,,,,,,,,,,
1577418829.651696,43.000000,0.000000,4490.256348,4384.615234,4032.820557,4132.820313,4367.179688,0.000000,4.000000,,,,0.000000,4.000000,4.000000,2.000000,4.000000,4.000000,,,,,,,,,,,,,,,,,,,,,,,,,,,,,,,,,,,,,,,,,,,,,,,,,,,,,,,,
1577418829.659498,44.000000,0.000000,4452.820313,4360.512695,4028.205078,4135.897461,4344.615234,0.000000,4.000000,,,,0.000000,4.000000,4.000000,2.000000,4.000000,4.000000,,,,,,,,,,,,,,,,,,,,,,,,,,,,,,,,,,,,,,,,,,,,,,,,,,,,,,,,
1577418829.667201,45.000000,0.000000,4439.487305,4353.846191,4012.820557,4135.384766,4337.436035,0.000000,4.000000,,,,0.000000,4.000000,4.000000,2.000000,4.000000,4.000000,,,,,,,,,,,,,,,,,,,,,,,,,,,,,,,,,,,,,,,,,,,,,,,,,,,,,,,,
1577418829.675004,46.000000,0.000000,4430.256348,4357.436035,4020.000000,4127.692383,4336.922852,0.000000,4.000000,,,,0.000000,4.000000,4.000000,2.000000,4.000000,4.000000,,,,,,,,,,,,,,,,,,,,,,,,,,,,,,,,,,,,,,,,,,,,,,,,,,,,,,,,
1577418829.682707,47.000000,0.000000,4393.333496,4356.922852,4018.461426,4121.538574,4310.256348,0.000000,4.000000,,,,0.000000,4.000000,4.000000,2.000000,4.000000,4.000000,,,,,,,,,,,,,,,,,,,,,,,,,,,,,,,,,,,,,,,,,,,,,,,,,,,,,,,,
1577418829.690410,48.000000,0.000000,4362.563965,4358.974121,4005.641113,4127.179688,4287.179688,0.000000,4.000000,,,,0.000000,4.000000,4.000000,2.000000,4.000000,4.000000,,,,,,,,,,,,,,,,,,,,,,,,,,,,,,,,,,,,,,,,,,,,,,,,,,,,,,,,
1577418829.698213,49.000000,0.000000,4346.666504,4351.282227,4018.461426,4130.769043,4280.512695,0.000000,4.000000,,,,0.000000,4.000000,4.000000,2.000000,4.000000,4.000000,,,,,,,,,,,,,,,,,,,,,,,,,,,,,,,,,,,,,,,,,,,,,,,,,,,,,,,,
1577418829.705916,50.000000,0.000000,4325.128418,4357.436035,4011.794922,4109.743652,4262.563965,0.000000,4.000000,,,,0.000000,4.000000,4.000000,2.000000,4.000000,4.000000,,,,,,,,,,,,,,,,,,,,,,,,,,,,,,,,,,,,,,,,,,,,,,,,,,,,,,,,
1577418829.713719,51.000000,0.000000,4301.538574,4368.205078,4011.794922,4098.974121,4246.666504,0.000000,4.000000,,,,0.000000,4.000000,4.000000,2.000000,4.000000,4.000000,,,,,,,,,,,,,,,,,,,,,,,,,,,,,,,,,,,,,,,,,,,,,,,,,,,,,,,,
1577418829.721422,52.000000,0.000000,4283.589844,4361.025879,4024.615479,4117.948730,4242.563965,0.000000,4.000000,,,,0.000000,4.000000,4.000000,2.000000,4.000000,4.000000,,,,,,,,,,,,,,,,,,,,,,,,,,,,,,,,,,,,,,,,,,,,,,,,,,,,,,,,
1577418829.729225,53.000000,0.000000,4266.153809,4356.410156,4019.487061,4125.641113,4232.307617,0.000000,4.000000,,,,0.000000,4.000000,4.000000,2.000000,4.000000,4.000000,,,,,,,,,,,,,,,,,,,,,,,,,,,,,,,,,,,,,,,,,,,,,,,,,,,,,,,,
1577418829.736928,54.000000,0.000000,4245.128418,4367.692383,4024.615479,4121.538574,4217.948730,0.000000,4.000000,,,,0.000000,4.000000,4.000000,2.000000,4.000000,4.000000,,,,,,,,,,,,,,,,,,,,,,,,,,,,,,,,,,,,,,,,,,,,,,,,,,,,,,,,
1577418829.744731,55.000000,0.000000,4237.436035,4385.128418,4017.435791,4127.692383,4208.717773,0.000000,4.000000,,,,0.000000,4.000000,4.000000,2.000000,4.000000,4.000000,,,,,,,,,,,,,,,,,,,,,,,,,,,,,,,,,,,,,,,,,,,,,,,,,,,,,,,,
1577418829.752534,56.000000,0.000000,4229.743652,4372.820313,4007.692383,4134.358887,4199.487305,0.000000,4.000000,,,,0.000000,4.000000,4.000000,2.000000,4.000000,4.000000,,,,,,,,,,,,,,,,,,,,,,,,,,,,,,,,,,,,,,,,,,,,,,,,,,,,,,,,
1577418829.760237,57.000000,0.000000,4210.256348,4355.897461,4007.179443,4136.922852,4190.256348,0.000000,4.000000,,,,0.000000,4.000000,4.000000,2.000000,4.000000,4.000000,,,,,,,,,,,,,,,,,,,,,,,,,,,,,,,,758.300781,401.320526,265.646515,116.729393,90.006660,74.937813,66.723885,53.398655,30.757120,37.142651,11.651513,78.118813,110.254555,174.666397,649.273132,189.962860,118.096222,74.116173,33.839455,24.926458,623.134521,353.596222,214.792694,100.794144,48.907455
1577418829.768039,58.000000,0.000000,4195.897461,4366.666504,4000.000000,4137.436035,4183.589844,0.000000,4.000000,,,,0.000000,4.000000,4.000000,2.000000,4.000000,4.000000,,,,,,,,,,,,,,,,,,,,,,,,,,,,,,,,,,,,,,,,,,,,,,,,,,,,,,,,
1577418829.775742,59.000000,0.000000,4184.102539,4372.820313,4013.333252,4137.436035,4176.922852,0.000000,4.000000,,,,0.000000,4.000000,4.000000,2.000000,4.000000,4.000000,,,,,,,,,,,,,,,,,,,,,,,,,,,,,,,,,,,,,,,,,,,,,,,,,,,,,,,,
1577418829.783545,60.000000,0.000000,4165.128418,4354.871582,4010.256348,4133.846191,4163.589844,0.000000,4.000000,,,,0.000000,4.000000,4.000000,2.000000,4.000000,4.000000,,,,,,,,,,,,,,,,,,,,,,,,,,,,,,,,,,,,,,,,,,,,,,,,,,,,,,,,
1577418829.791248,61.000000,0.000000,4142.051270,4346.666504,3996.923096,4128.717773,4145.128418,0.000000,4.000000,,,,0.000000,4.000000,4.000000,2.000000,4.000000,4.000000,,,,,,,,,,,,,,,,,,,,,,,,,,,,,,,,,,,,,,,,,,,,,,,,,,,,,,,,
1577418829.798951,62.000000,0.000000,4131.794922,4363.589844,4002.051270,4127.179688,4144.615234,0.000000,4.000000,,,,0.000000,4.000000,4.000000,2.000000,4.000000,4.000000,,,,,,,,,,,,,,,,,,,,,,,,,,,,,,,,,,,,,,,,,,,,,,,,,,,,,,,,
1577418829.806754,63.000000,0.000000,4139.487305,4367.179688,4000.512939,4128.717773,4156.410156,0.000000,4.000000,,,,0.000000,4.000000,4.000000,2.000000,4.000000,4.000000,,,,,,,,,,,,,,,,,,,,,,,,,,,,,,,,,,,,,,,,,,,,,,,,,,,,,,,,
1577418829.814457,64.000000,0.000000,4141.025879,4354.871582,4010.256348,4137.436035,4160.512695,450.000000,4.000000,,,,0.000000,4.000000,4.000000,2.000000,4.000000,4.000000,,,,,,,,,,,,,,,,,,,,,,,,,,,,,,,,,,,,,,,,,,,,,,,,,,,,,,,,
1577418829.822259,65.000000,0.000000,4131.282227,4363.589844,4016.410156,4141.538574,4154.871582,450.000000,4.000000,,,,0.000000,4.000000,4.000000,2.000000,4.000000,4.000000,,,,,,,,,,,,,,,,,,,,,,,,,,,,,,,,,,,,,,,,,,,,,,,,,,,,,,,,
1577418829.829962,66.000000,0.000000,4119.487305,4387.179688,4015.384521,4135.384766,4148.205078,16247.000000,4.000000,,,,0.000000,4.000000,4.000000,2.000000,4.000000,4.000000,,,,,,,,,,,,,,,,,,,,,,,,,,,,,,,,,,,,,,,,,,,,,,,,,,,,,,,,
1577418829.837765,67.000000,0.000000,4111.282227,4385.641113,4026.153809,4139.487305,4149.743652,450.000000,4.000000,,,,0.000000,4.000000,4.000000,2.000000,4.000000,4.000000,,,,,,,,,,,,,,,,,,,,,,,,,,,,,,,,,,,,,,,,,,,,,,,,,,,,,,,,
1577418829.845468,68.000000,0.000000,4100.512695,4355.384766,4020.000000,4138.974121,4144.615234,16220.000000,4.000000,,,,0.000000,4.000000,4.000000,2.000000,4.000000,4.000000,,,,,,,,,,,,,,,,,,,,,,,,,,,,,,,,,,,,,,,,,,,,,,,,,,,,,,,,
1577418829.853270,69.000000,0.000000,4081.538574,4344.615234,4028.205078,4133.333496,4127.179688,450.000000,4.000000,,,,0.000000,4.000000,4.000000,2.000000,4.000000,4.000000,,,,,,,,,,,,,,,,,,,,,,,,,,,,,,,,,,,,,,,,,,,,,,,,,,,,,,,,
1577418829.860973,70.000000,0.000000,4076.410156,4370.769043,4041.025635,4142.051270,4125.128418,318.000000,4.000000,,,,0.000000,4.000000,4.000000,2.000000,4.000000,4.000000,,,,,,,,,,,,,,,,,,,,,,,,,,,,,,,,,,,,,,,,,,,,,,,,,,,,,,,,
1577418829.868776,71.000000,0.000000,4079.487061,4380.512695,4033.846191,4146.153809,4132.820313,450.000000,4.000000,,,,0.000000,4.000000,4.000000,2.000000,4.000000,4.000000,,,,,,,,,,,,,,,,,,,,,,,,,,,,,,,,,,,,,,,,,,,,,,,,,,,,,,,,
1577418829.876479,72.000000,0.000000,4065.128174,4349.230957,4040.512939,4138.461426,4119.487305,450.000000,4.000000,,,,0.000000,4.000000,4.000000,2.000000,4.000000,4.000000,,,,,,,,,,,,,,,,,,,,,,,,,,,,,,,,,,,,,,,,,,,,,,,,,,,,,,,,
1577418829.884281,73.000000,0.000000,4054.871826,4351.282227,4036.410156,4134.358887,4101.538574,16171.000000,4.000000,,,,0.000000,4.000000,4.000000,2.000000,4.000000,4.000000,,,,,,,,,,,,,,,,,,,,,,,,,,,,,,,,518.923462,255.094589,170.790161,73.241211,56.043835,48.859634,42.107769,34.251476,19.730400,23.622055,8.033904,48.865826,69.724594,108.028717,406.479736,124.052841,75.426933,47.896236,21.790541,16.032887,412.903076,222.890579,137.547333,63.444618,30.644583
1577418829.891984,74.000000,0.000000,4048.718018,4387.692383,4028.205078,4133.846191,4098.461426,450.000000,4.000000,,,,0.000000,4.000000,4.000000,2.000000,4.000000,4.000000,,,,,,,,,,,,,,,,,,,,,,,,,,,,,,,,,,,,,,,,,,,,,,,,,,,,,,,,
1577418829.899787,75.000000,0.000000,4033.333252,4383.077148,4017.435791,4122.563965,4090.769287,16226.000000,4.000000,,,,0.000000,4.000000,4.000000,2.000000,4.000000,4.000000,,,,,,,,,,,,,,,,,,,,,,,,,,,,,,,,,,,,,,,,,,,,,,,,,,,,,,,,
1577418829.907490,76.000000,0.000000,4025.128174,4353.333496,4007.692383,4115.384766,4080.000000,450.000000,4.000000,,,,0.000000,4.000000,4.000000,2.000000,4.000000,4.000000,,,,,,,,,,,,,,,,,,,,,,,,,,,,,,,,,,,,,,,,,,,,,,,,,,,,,,,,
1577418829.915293,77.000000,0.000000,4031.794922,4362.563965,4031.281982,4127.692383,4087.692383,450.000000,4.000000,,,,0.000000,4.000000,4.000000,2.000000,4.000000,4.000000,,,,,,,,,,,,,,,,,,,,,,,,,,,,,,,,,,,,,,,,,,,,,,,,,,,,,,,,
1577418829.922995,78.000000,0.000000,4039.487061,4383.077148,4030.256348,4133.333496,4100.512695,450.000000,4.000000,,,,0.000000,4.000000,4.000000,2.000000,4.000000,4.000000,,,,,,,,,,,,,,,,,,,,,,,,,,,,,,,,,,,,,,,,,,,,,,,,,,,,,,,,
1577418829.930798,79.000000,0.000000,4045.641113,4365.128418,4025.641113,4137.436035,4109.230957,16226.000000,4.000000,,,,0.000000,4.000000,4.000000,2.000000,4.000000,4.000000,,,,,,,,,,,,,,,,,,,,,,,,,,,,,,,,,,,,,,,,,,,,,,,,,,,,,,,,
1577418829.938501,80.000000,0.000000,4056.923096,4356.410156,4048.205078,4156.922852,4121.025879,450.000000,4.000000,,,,0.000000,4.000000,4.000000,2.000000,4.000000,4.000000,,,,,,,,,,,,,,,,,,,,,,,,,,,,,,,,,,,,,,,,,,,,,,,,,,,,,,,,
1577418829.946204,81.000000,0.000000,4060.000000,4385.128418,4043.076904,4161.025879,4121.025879,450.000000,4.000000,,,,0.000000,4.000000,4.000000,2.000000,4.000000,4.000000,,,,,,,,,,,,,,,,,,,,,,,,,,,,,,,,,,,,,,,,,,,,,,,,,,,,,,,,
1577418829.954007,82.000000,0.000000,4053.846191,4391.282227,4031.794922,4149.743652,4111.282227,450.000000,4.000000,,,,0.000000,4.000000,4.000000,2.000000,4.000000,4.000000,,,,,,,,,,,,,,,,,,,,,,,,,,,,,,,,,,,,,,,,,,,,,,,,,,,,,,,,
1577418829.961710,83.000000,0.000000,4054.871826,4370.769043,4021.025635,4145.128418,4103.077148,16226.000000,4.000000,,,,0.000000,4.000000,4.000000,2.000000,4.000000,4.000000,,,,,,,,,,,,,,,,,,,,,,,,,,,,,,,,,,,,,,,,,,,,,,,,,,,,,,,,
1577418829.969513,84.000000,0.000000,4048.205078,4357.436035,4021.025635,4137.436035,4087.179443,450.000000,4.000000,,,,0.000000,4.000000,4.000000,2.000000,4.000000,4.000000,,,,,,,,,,,,,,,,,,,,,,,,,,,,,,,,,,,,,,,,,,,,,,,,,,,,,,,,
1577418829.977216,85.000000,0.000000,4035.897461,4346.153809,4041.025635,4128.205078,4071.794922,450.000000,4.000000,,,,0.000000,4.000000,4.000000,2.000000,4.000000,4.000000,,,,,,,,,,,,,,,,,,,,,,,,,,,,,,,,,,,,,,,,,,,,,,,,,,,,,,,,
1577418829.985019,86.000000,0.000000,4034.871826,4339.487305,4031.281982,4126.153809,4066.153809,450.000000,4.000000,,,,0.000000,4.000000,4.000000,2.000000,4.000000,4.000000,,,,,,,,,,,,,,,,,,,,,,,,,,,,,,,,,,,,,,,,,,,,,,,,,,,,,,,,
1577418829.992722,87.000000,0.000000,4035.384521,4345.128418,4023.076904,4126.153809,4068.205078,16226.000000,4.000000,,,,0.000000,4.000000,4.000000,2.000000,4.000000,4.000000,,,,,,,,,,,,,,,,,,,,,,,,,,,,,,,,,,,,,,,,,,,,,,,,,,,,,,,,
1577418830.000525,88.000000,0.000000,4051.281982,4361.025879,4031.281982,4132.820313,4079.487061,450.000000,4.000000,,,,0.000000,4.000000,4.000000,2.000000,4.000000,4.000000,,,,,,,,,,,,,,,,,,,,,,,,,,,,,,,,,,,,,,,,,,,,,,,,,,,,,,,,
1577418830.008228,89.000000,0.000000,4069.230713,4366.153809,4037.948730,4140.512695,4090.769287,450.000000,4.000000,,,,0.000000,4.000000,4.000000,2.000000,4.000000,4.000000,,,,,,,,,,,,,,,,,,,,,,,,,,,,,,,,309.717102,130.801117,88.569786,36.480095,27.582708,25.712103,21.132824,17.825733,10.254102,12.279730,4.805832,24.188496,34.926178,52.828411,200.395554,64.606804,38.529457,25.063278,11.268927,8.286603,226.638458,111.593880,70.646790,31.703697,15.294062
1577418830.016031,90.000000,0.000000,4068.205078,4364.615234,4042.564209,4140.000000,4091.794922,450.000000,4.000000,,,,0.000000,4.000000,4.000000,2.000000,4.000000,4.000000,,,,,,,,,,,,,,,,,,,,,,,,,,,,,,,,,,,,,,,,,,,,,,,,,,,,,,,,
1577418830.023733,91.000000,0.000000,4076.410156,4377.948730,4033.333252,4140.000000,4095.897461,16226.000000,4.000000,,,,0.000000,4.000000,4.000000,2.000000,4.000000,4.000000,,,,,,,,,,,,,,,,,,,,,,,,,,,,,,,,,,,,,,,,,,,,,,,,,,,,,,,,
1577418830.031536,92.000000,0.000000,4102.051270,4385.128418,4046.666748,4159.487305,4110.256348,450.000000,4.000000,,,,0.000000,4.000000,4.000000,2.000000,4.000000,4.000000,,,,,,,,,,,,,,,,,,,,,,,,,,,,,,,,,,,,,,,,,,,,,,,,,,,,,,,,
1577418830.039239,93.000000,0.000000,4115.897461,4379.487305,4051.281982,4167.179688,4116.922852,450.000000,4.000000,,,,0.000000,4.000000,4.000000,2.000000,4.000000,4.000000,,,,,,,,,,,,,,,,,,,,,,,,,,,,,,,,,,,,,,,,,,,,,,,,,,,,,,,,
1577418830.047042,94.000000,0.000000,4121.025879,4382.051270,4037.948730,4149.230957,4120.000000,450.000000,4.000000,,,,0.000000,4.000000,4.000000,2.000000,4.000000,4.000000,,,,,,,,,,,,,,,,,,,,,,,,,,,,,,,,,,,,,,,,,,,,,,,,,,,,,,,,
1577418830.054745,95.000000,0.000000,4130.256348,4381.025879,4064.102539,4150.256348,4127.179688,16226.000000,4.000000,,,,0.000000,4.000000,4.000000,2.000000,4.000000,4.000000,,,,,,,,,,,,,,,,,,,,,,,,,,,,,,,,,,,,,,,,,,,,,,,,,,,,,,,,
1577418830.062547,96.000000,0.000000,4136.922852,4362.563965,4072.307617,4164.615234,4130.256348,450.000000,4.000000,,,,0.000000,4.000000,4.000000,2.000000,4.000000,4.000000,,,,,,,,,,,,,,,,,,,,,,,,,,,,,,,,,,,,,,,,,,,,,,,,,,,,,,,,
1577418830.070250,97.000000,0.000000,4137.436035,4361.025879,4057.435791,4161.538574,4132.820313,450.000000,4.000000,,,,0.000000,4.000000,4.000000,2.000000,4.000000,4.000000,,,,,,,,,,,,,,,,,,,,,,,,,,,,,,,,,,,,,,,,,,,,,,,,,,,,,,,,
1577418830.078053,98.000000,0.000000,4135.384766,4387.692383,4055.384521,4151.282227,4131.282227,450.000000,4.000000,,,,0.000000,4.000000,4.000000,2.000000,4.000000,4.000000,,,,,,,,,,,,,,,,,,,,,,,,,,,,,,,,,,,,,,,,,,,,,,,,,,,,,,,,
1577418830.085756,99.000000,0.000000,4121.538574,4381.538574,4044.615479,4145.128418,4112.307617,16226.000000,4.000000,,,,0.000000,4.000000,4.000000,2.000000,4.000000,4.000000,,,,,,,,,,,,,,,,,,,,,,,,,,,,,,,,,,,,,,,,,,,,,,,,,,,,,,,,
1577418830.093558,100.000000,0.000000,4107.179688,4348.717773,4047.692383,4148.205078,4100.000000,450.000000,4.000000,,,,0.000000,4.000000,4.000000,2.000000,4.000000,4.000000,,,,,,,,,,,,,,,,,,,,,,,,,,,,,,,,,,,,,,,,,,,,,,,,,,,,,,,,
1577418830.101261,101.000000,0.000000,4121.538574,4351.794922,4050.769287,4160.000000,4117.436035,450.000000,4.000000,,,,0.000000,4.000000,4.000000,2.000000,4.000000,4.000000,,,,,,,,,,,,,,,,,,,,,,,,,,,,,,,,,,,,,,,,,,,,,,,,,,,,,,,,
1577418830.108964,102.000000,0.000000,4138.974121,4390.256348,4055.897461,4164.615234,4136.410156,450.000000,4.000000,,,,0.000000,4.000000,4.000000,2.000000,4.000000,4.000000,,,,,,,,,,,,,,,,,,,,,,,,,,,,,,,,,,,,,,,,,,,,,,,,,,,,,,,,
1577418830.116767,103.000000,0.000000,4129.230957,4401.538574,4070.769287,4154.358887,4126.666504,16226.000000,4.000000,,,,0.000000,4.000000,4.000000,2.000000,4.000000,4.000000,,,,,,,,,,,,,,,,,,,,,,,,,,,,,,,,,,,,,,,,,,,,,,,,,,,,,,,,
1577418830.124470,104.000000,0.000000,4122.563965,4368.717773,4062.051270,4145.128418,4115.384766,450.000000,4.000000,,,,0.000000,4.000000,4.000000,2.000000,4.000000,4.000000,,,,,,,,,,,,,,,,,,,,,,,,,,,,,,,,,,,,,,,,,,,,,,,,,,,,,,,,
1577418830.132273,105.000000,0.000000,4122.563965,4358.461426,4066.666748,4146.666504,4121.025879,450.000000,4.000000,,,,0.000000,4.000000,4.000000,2.000000,4.000000,4.000000,,,,,,,,,,,,,,,,,,,,,,,,,,,,,,,,176.056793,52.142315,35.081310,13.351379,9.866501,10.272706,7.803730,7.234721,4.178335,5.206980,2.426365,8.700638,12.680878,18.468857,70.103020,24.706703,14.692425,10.139181,4.392342,3.253054,105.121101,41.059746,27.338972,11.611715,5.708812
1577418830.139976,106.000000,0.000000,4117.948730,4380.512695,4068.718018,4142.563965,4122.563965,450.000000,4.000000,,,,0.000000,4.000000,4.000000,2.000000,4.000000,4.000000,,,,,,,,,,,,,,,,,,,,,,,,,,,,,,,,,,,,,,,,,,,,,,,,,,,,,,,,
1577418830.147779,107.000000,0.000000,4124.102539,4375.384766,4058.461426,4141.025879,4124.102539,16226.000000,4.000000,,,,0.000000,4.000000,4.000000,2.000000,4.000000,4.000000,,,,,,,,,,,,,,,,,,,,,,,,,,,,,,,,,,,,,,,,,,,,,,,,,,,,,,,,
1577418830.155482,108.000000,0.000000,4135.897461,4364.615234,4068.205078,4150.256348,4129.743652,450.000000,4.000000,,,,0.000000,4.000000,4.000000,2.000000,4.000000,4.000000,,,,,,,,,,,,,,,,,,,,,,,,,,,,,,,,,,,,,,,,,,,,,,,,,,,,,,,,
1577418830.163285,109.000000,0.000000,4129.230957,4367.692383,4064.615479,4145.641113,4126.666504,450.000000,4.000000,,,,0.000000,4.000000,4.000000,2.000000,4.000000,4.000000,,,,,,,,,,,,,,,,,,,,,,,,,,,,,,,,,,,,,,,,,,,,,,,,,,,,,,,,
1577418830.171088,110.000000,0.000000,4111.282227,4361.538574,4067.179443,4136.922852,4117.436035,450.000000,4.000000,,,,0.000000,4.000000,4.000000,2.000000,4.000000,4.000000,,,,,,,,,,,,,,,,,,,,,,,,,,,,,,,,,,,,,,,,,,,,,,,,,,,,,,,,
1577418830.178791,111.000000,0.000000,4111.794922,4370.769043,4069.230713,4145.128418,4116.922852,16226.000000,4.000000,,,,0.000000,4.000000,4.000000,2.000000,4.000000,4.000000,,,,,,,,,,,,,,,,,,,,,,,,,,,,,,,,,,,,,,,,,,,,,,,,,,,,,,,,
1577418830.186494,112.000000,0.000000,4120.000000,4388.717773,4058.974365,4150.769043,4118.974121,450.000000,4.000000,,,,0.000000,4.000000,4.000000,2.000000,4.000000,4.000000,,,,,,,,,,,,,,,,,,,,,,,,,,,,,,,,,,,,,,,,,,,,,,,,,,,,,,,,
1577418830.194297,113.000000,0.000000,4116.922852,4376.410156,4074.871826,4149.743652,4117.436035,450.000000,4.000000,,,,0.000000,4.000000,4.000000,2.000000,4.000000,4.000000,,,,,,,,,,,,,,,,,,,,,,,,,,,,,,,,,,,,,,,,,,,,,,,,,,,,,,,,
1577418830.201999,114.000000,0.000000,4118.974121,4366.666504,4076.410156,4144.615234,4122.563965,450.000000,4.000000,,,,0.000000,4.000000,4.000000,2.000000,4.000000,4.000000,,,,,,,,,,,,,,,,,,,,,,,,,,,,,,,,,,,,,,,,,,,,,,,,,,,,,,,,
1577418830.209802,115.000000,0.000000,4117.948730,4372.307617,4067.692383,4135.897461,4123.077148,16226.000000,4.000000,,,,0.000000,4.000000,4.000000,2.000000,4.000000,4.000000,,,,,,,,,,,,,,,,,,,,,,,,,,,,,,,,,,,,,,,,,,,,,,,,,,,,,,,,
1577418830.217505,116.000000,0.000000,4108.205078,4362.563965,4063.589844,4131.282227,4109.230957,450.000000,4.000000,,,,0.000000,4.000000,4.000000,2.000000,4.000000,4.000000,,,,,,,,,,,,,,,,,,,,,,,,,,,,,,,,,,,,,,,,,,,,,,,,,,,,,,,,
1577418830.225308,117.000000,0.000000,4109.743652,4351.794922,4049.743652,4124.102539,4100.512695,450.000000,4.000000,,,,0.000000,4.000000,4.000000,2.000000,4.000000,4.000000,,,,,,,,,,,,,,,,,,,,,,,,,,,,,,,,,,,,,,,,,,,,,,,,,,,,,,,,
1577418830.233011,118.000000,0.000000,4120.000000,4361.538574,4055.384521,4124.102539,4109.743652,450.000000,4.000000,,,,0.000000,4.000000,4.000000,2.000000,4.000000,4.000000,,,,,,,,,,,,,,,,,,,,,,,,,,,,,,,,,,,,,,,,,,,,,,,,,,,,,,,,
1577418830.240714,119.000000,0.000000,4134.358887,4363.589844,4058.974365,4136.410156,4125.128418,16226.000000,4.000000,,,,0.000000,4.000000,4.000000,2.000000,4.000000,4.000000,,,,,,,,,,,,,,,,,,,,,,,,,,,,,,,,,,,,,,,,,,,,,,,,,,,,,,,,
1577418830.248517,120.000000,0.000000,4143.077148,4348.717773,4065.128174,4141.538574,4134.358887,450.000000,4.000000,,,,0.000000,4.000000,4.000000,2.000000,4.000000,4.000000,,,,,,,,,,,,,,,,,,,,,,,,,,,,,,,,,,,,,,,,,,,,,,,,,,,,,,,,
1577418830.256320,121.000000,0.000000,4150.769043,4356.410156,4072.820557,4140.000000,4135.384766,450.000000,4.000000,,,,0.000000,4.000000,4.000000,2.000000,4.000000,4.000000,,,,,,,,,,,,,,,,,,,,,,,,,,,,,,,,118.123749,17.956404,10.610334,3.410513,2.363887,3.011024,2.010475,2.462190,1.498320,2.203000,1.095736,2.106374,2.887207,3.763911,13.618732,6.086232,4.102030,3.297363,1.248886,0.989593,51.365189,10.673329,7.822043,2.872956,1.632259
1577418830.264022,122.000000,0.000000,4168.205078,4386.153809,4056.410156,4142.563965,4141.025879,450.000000,4.000000,,,,0.000000,4.000000,4.000000,2.000000,4.000000,4.000000,,,,,,,,,,,,,,,,,,,,,,,,,,,,,,,,,,,,,,,,,,,,,,,,,,,,,,,,
1577418830.271725,123.000000,0.000000,4174.871582,4390.256348,4061.538574,4144.102539,4146.153809,16226.000000,4.000000,,,,0.000000,4.000000,4.000000,2.000000,4.000000,4.000000,,,,,,,,,,,,,,,,,,,,,,,,,,,,,,,,,,,,,,,,,,,,,,,,,,,,,,,,
1577418830.279528,124.000000,0.000000,4168.205078,4362.563965,4063.076904,4134.871582,4133.846191,450.000000,4.000000,,,,0.000000,4.000000,4.000000,2.000000,4.000000,4.000000,,,,,,,,,,,,,,,,,,,,,,,,,,,,,,,,,,,,,,,,,,,,,,,,,,,,,,,,
1577418830.287331,125.000000,0.000000,4170.769043,4345.128418,4053.333252,4131.282227,4126.666504,450.000000,4.000000,,,,0.000000,4.000000,4.000000,2.000000,4.000000,4.000000,,,,,,,,,,,,,,,,,,,,,,,,,,,,,,,,,,,,,,,,,,,,,,,,,,,,,,,,
1577418830.295034,126.000000,0.000000,4183.077148,4366.666504,4065.641113,4142.563965,4142.051270,450.000000,4.000000,,,,0.000000,4.000000,4.000000,2.000000,4.000000,4.000000,,,,,,,,,,,,,,,,,,,,,,,,,,,,,,,,,,,,,,,,,,,,,,,,,,,,,,,,
1577418830.302837,127.000000,0.000000,4188.717773,4391.282227,4063.589844,4143.077148,4148.205078,238.000000,4.000000,,,,0.000000,4.000000,4.000000,2.000000,4.000000,4.000000,,,,,,,,,,,,,,,,,,,,,,,,,,,,,,,,,,,,,,,,,,,,,,,,,,,,,,,,
1577418830.310540,0.000000,0.000000,4183.589844,4369.230957,4062.051270,4143.589844,4138.974121,450.000000,4.000000,,,,0.000000,4.000000,4.000000,2.000000,4.000000,4.000000,,,,,,,,,,,,,,,,,,,,,,,,,,,,,,,,,,,,,,,,,,,,,,,,,,,,,,,,
1577418830.318342,1.000000,0.000000,4183.589844,4349.743652,4070.769287,4154.358887,4140.000000,450.000000,4.000000,,,,0.000000,4.000000,4.000000,2.000000,4.000000,4.000000,,,,,,,,,,,,,,,,,,,,,,,,,,,,,,,,,,,,,,,,,,,,,,,,,,,,,,,,
1577418830.326045,2.000000,0.000000,4185.641113,4381.025879,4072.820557,4152.307617,4145.128418,16242.000000,4.000000,,,,0.000000,4.000000,4.000000,2.000000,4.000000,4.000000,,,,,,,,,,,,,,,,,,,,,,,,,,,,,,,,,,,,,,,,,,,,,,,,,,,,,,,,
1577418830.333848,3.000000,0.000000,4185.128418,4397.436035,4070.769287,4145.128418,4142.563965,450.000000,4.000000,,,,0.000000,4.000000,4.000000,2.000000,4.000000,4.000000,,,,,,,,,,,,,,,,,,,,,,,,,,,,,,,,,,,,,,,,,,,,,,,,,,,,,,,,
1577418830.341551,4.000000,0.000000,4190.769043,4369.743652,4052.820557,4142.051270,4134.871582,16218.000000,4.000000,,,,0.000000,4.000000,4.000000,2.000000,4.000000,4.000000,,,,,,,,,,,,,,,,,,,,,,,,,,,,,,,,,,,,,,,,,,,,,,,,,,,,,,,,
1577418830.349354,5.000000,0.000000,4194.358887,4351.794922,4067.692383,4145.128418,4135.384766,450.000000,4.000000,,,,0.000000,4.000000,4.000000,2.000000,4.000000,4.000000,,,,,,,,,,,,,,,,,,,,,,,,,,,,,,,,,,,,,,,,,,,,,,,,,,,,,,,,
1577418830.357056,6.000000,0.000000,4200.512695,4372.820313,4087.692383,4161.025879,4155.897461,322.000000,4.000000,,,,0.000000,4.000000,4.000000,2.000000,4.000000,4.000000,,,,,,,,,,,,,,,,,,,,,,,,,,,,,,,,,,,,,,,,,,,,,,,,,,,,,,,,
1577418830.364859,7.000000,0.000000,4209.743652,4392.307617,4066.666748,4167.179688,4168.717773,450.000000,4.000000,,,,0.000000,4.000000,4.000000,2.000000,4.000000,4.000000,,,,,,,,,,,,,,,,,,,,,,,,,,,,,,,,,,,,,,,,,,,,,,,,,,,,,,,,
1577418830.372562,8.000000,0.000000,4198.974121,4367.692383,4064.615479,4149.743652,4154.871582,450.000000,4.000000,,,,0.000000,4.000000,4.000000,2.000000,4.000000,4.000000,,,,,,,,,,,,,,,,,,,,,,,,,,,,,,,,,,,,,,,,,,,,,,,,,,,,,,,,
1577418830.380466,9.000000,0.000000,4184.102539,4339.487305,4064.615479,4139.487305,4143.589844,16180.000000,4.000000,,,,0.000000,4.000000,4.000000,2.000000,4.000000,4.000000,,,,,,,,,,,,,,,,,,,,,,,,,,,,,,,,102.779076,9.989066,3.963121,1.177292,0.723843,1.062292,0.772757,1.244026,0.867571,1.552741,0.750381,0.729370,0.606728,0.494583,0.802967,1.533477,1.747718,1.477372,0.436202,0.443767,39.329548,4.359502,2.834649,0.834283,0.733577
1577418830.388269,10.000000,0.000000,4185.128418,4353.846191,4058.461426,4151.794922,4148.717773,450.000000,4.000000,,,,0.000000,4.000000,4.000000,2.000000,4.000000,4.000000,,,,,,,,,,,,,,,,,,,,,,,,,,,,,,,,,,,,,,,,,,,,,,,,,,,,,,,,
1577418830.396072,11.000000,0.000000,4184.102539,4375.384766,4061.025635,4155.897461,4145.641113,16233.000000,4.000000,,,,0.000000,4.000000,4.000000,2.000000,4.000000,4.000000,,,,,,,,,,,,,,,,,,,,,,,,,,,,,,,,,,,,,,,,,,,,,,,,,,,,,,,,
1577418830.403875,12.000000,0.000000,4182.563965,4371.282227,4060.512939,4146.666504,4141.025879,450.000000,4.000000,,,,0.000000,4.000000,4.000000,2.000000,4.000000,4.000000,,,,,,,,,,,,,,,,,,,,,,,,,,,,,,,,,,,,,,,,,,,,,,,,,,,,,,,,
1577418830.411578,13.000000,0.000000,4189.230957,4368.205078,4075.384521,4154.358887,4153.333496,450.000000,4.000000,,,,0.000000,4.000000,4.000000,2.000000,4.000000,4.000000,,,,,,,,,,,,,,,,,,,,,,,,,,,,,,,,,,,,,,,,,,,,,,,,,,,,,,,,
1577418830.419381,14.000000,0.000000,4199.487305,4382.051270,4073.846191,4163.077148,4164.615234,450.000000,4.000000,,,,0.000000,4.000000,4.000000,2.000000,4.000000,4.000000,,,,,,,,,,,,,,,,,,,,,,,,,,,,,,,,,,,,,,,,,,,,,,,,,,,,,,,,
1577418830.427084,15.000000,0.000000,4197.948730,4382.051270,4072.307617,4157.948730,4163.077148,16233.000000,4.000000,,,,0.000000,4.000000,4.000000,2.000000,4.000000,4.000000,,,,,,,,,,,,,,,,,,,,,,,,,,,,,,,,,,,,,,,,,,,,,,,,,,,,,,,,
1577418830.434886,16.000000,0.000000,4181.538574,4356.922852,4076.410156,4155.384766,4152.820313,0.000000,4.000000,,,,0.000000,4.000000,4.000000,2.000000,4.000000,4.000000,,,,,,,,,,,,,,,,,,,,,,,,,,,,,,,,,,,,,,,,,,,,,,,,,,,,,,,,
1577418830.442589,17.000000,0.000000,4174.871582,4342.563965,4056.410156,4160.000000,4146.153809,0.000000,4.000000,,,,0.000000,4.000000,4.000000,2.000000,4.000000,4.000000,,,,,,,,,,,,,,,,,,,,,,,,,,,,,,,,,,,,,,,,,,,,,,,,,,,,,,,,
1577418830.450392,18.000000,0.000000,4181.025879,4354.871582,4064.615479,4169.743652,4151.794922,0.000000,4.000000,,,,0.000000,4.000000,4.000000,2.000000,4.000000,4.000000,,,,,,,,,,,,,,,,,,,,,,,,,,,,,,,,,,,,,,,,,,,,,,,,,,,,,,,,
1577418830.458095,19.000000,0.000000,4184.615234,4373.333496,4079.487061,4169.230957,4156.410156,0.000000,4.000000,,,,0.000000,4.000000,4.000000,2.000000,4.000000,4.000000,,,,,,,,,,,,,,,,,,,,,,,,,,,,,,,,,,,,,,,,,,,,,,,,,,,,,,,,
1577418830.465897,20.000000,0.000000,4182.051270,4380.000000,4074.358887,4154.871582,4157.436035,0.000000,4.000000,,,,0.000000,4.000000,4.000000,2.000000,4.000000,4.000000,,,,,,,,,,,,,,,,,,,,,,,,,,,,,,,,,,,,,,,,,,,,,,,,,,,,,,,,
1577418830.473600,21.000000,0.000000,4178.461426,4369.230957,4073.333252,4149.743652,4161.025879,0.000000,4.000000,,,,0.000000,4.000000,4.000000,2.000000,4.000000,4.000000,,,,,,,,,,,,,,,,,,,,,,,,,,,,,,,,,,,,,,,,,,,,,,,,,,,,,,,,
1577418830.481403,22.000000,0.000000,4172.307617,4355.897461,4056.410156,4142.051270,4150.256348,0.000000,4.000000,,,,0.000000,4.000000,4.000000,2.000000,4.000000,4.000000,,,,,,,,,,,,,,,,,,,,,,,,,,,,,,,,,,,,,,,,,,,,,,,,,,,,,,,,
1577418830.489106,23.000000,0.000000,4164.615234,4356.922852,4060.512939,4129.743652,4138.974121,0.000000,4.000000,,,,0.000000,4.000000,4.000000,2.000000,4.000000,4.000000,,,,,,,,,,,,,,,,,,,,,,,,,,,,,,,,,,,,,,,,,,,,,,,,,,,,,,,,
1577418830.496908,24.000000,0.000000,4164.615234,4369.230957,4076.923096,4134.358887,4149.230957,0.000000,4.000000,,,,0.000000,4.000000,4.000000,2.000000,4.000000,4.000000,,,,,,,,,,,,,,,,,,,,,,,,,,,,,,,,,,,,,,,,,,,,,,,,,,,,,,,,
1577418830.504611,25.000000,0.000000,4167.179688,4369.743652,4059.487061,4141.025879,4153.333496,0.000000,4.000000,,,,0.000000,4.000000,4.000000,2.000000,4.000000,4.000000,,,,,,,,,,,,,,,,,,,,,,,,,,,,,,,,92.721008,9.024362,2.740128,1.030035,0.617996,0.912557,0.919715,1.107559,0.845427,1.549912,0.970813,0.833130,0.530796,0.404947,0.243746,1.600127,1.921746,1.232119,0.357715,0.417301,37.291466,4.799551,2.130361,0.678103,0.663605
1577418830.512314,26.000000,0.000000,4163.077148,4357.436035,4052.820557,4136.410156,4143.077148,0.000000,4.000000,,,,0.000000,4.000000,4.000000,2.000000,4.000000,4.000000,,,,,,,,,,,,,,,,,,,,,,,,,,,,,,,,,,,,,,,,,,,,,,,,,,,,,,,,
1577418830.520117,27.000000,0.000000,4168.717773,4358.974121,4058.974365,4136.922852,4150.256348,0.000000,4.000000,,,,0.000000,4.000000,4.000000,2.000000,4.000000,4.000000,,,,,,,,,,,,,,,,,,,,,,,,,,,,,,,,,,,,,,,,,,,,,,,,,,,,,,,,
1577418830.527820,28.000000,0.000000,4180.512695,4362.051270,4067.692383,4145.641113,4166.153809,0.000000,4.000000,,,,0.000000,4.000000,4.000000,2.000000,4.000000,4.000000,,,,,,,,,,,,,,,,,,,,,,,,,,,,,,,,,,,,,,,,,,,,,,,,,,,,,,,,
1577418830.535623,29.000000,0.000000,4180.512695,4356.410156,4070.256348,4145.128418,4165.128418,0.000000,4.000000,,,,0.000000,4.000000,4.000000,2.000000,4.000000,4.000000,,,,,,,,,,,,,,,,,,,,,,,,,,,,,,,,,,,,,,,,,,,,,,,,,,,,,,,,
1577418830.543326,30.000000,0.000000,4183.077148,4361.538574,4058.974365,4138.461426,4165.641113,0.000000,4.000000,,,,0.000000,4.000000,4.000000,2.000000,4.000000,4.000000,,,,,,,,,,,,,,,,,,,,,,,,,,,,,,,,,,,,,,,,,,,,,,,,,,,,,,,,
1577418830.551129,31.000000,0.000000,4202.051270,4369.743652,4059.487061,4139.487305,4181.538574,0.000000,4.000000,,,,0.000000,4.000000,4.000000,2.000000,4.000000,4.000000,,,,,,,,,,,,,,,,,,,,,,,,,,,,,,,,,,,,,,,,,,,,,,,,,,,,,,,,
1577418830.558832,32.000000,0.000000,4214.871582,4356.410156,4043.589844,4136.410156,4186.153809,0.000000,4.000000,,,,0.000000,4.000000,4.000000,2.000000,4.000000,4.000000,,,,,,,,,,,,,,,,,,,,,,,,,,,,,,,,,,,,,,,,,,,,,,,,,,,,,,,,
1577418830.566635,33.000000,0.000000,4210.769043,4337.948730,4038.974365,4132.820313,4183.077148,0.000000,4.000000,,,,0.000000,4.000000,4.000000,2.000000,4.000000,4.000000,,,,,,,,,,,,,,,,,,,,,,,,,,,,,,,,,,,,,,,,,,,,,,,,,,,,,,,,
1577418830.574338,34.000000,0.000000,4220.512695,4361.025879,4056.923096,4140.000000,4198.974121,0.000000,4.000000,,,,0.000000,4.000000,4.000000,2.000000,4.000000,4.000000,,,,,,,,,,,,,,,,,,,,,,,,,,,,,,,,,,,,,,,,,,,,,,,,,,,,,,,,
1577418830.582141,35.000000,0.000000,4247.692383,4375.384766,4052.820557,4147.692383,4214.358887,0.000000,4.000000,,,,0.000000,4.000000,4.000000,2.000000,4.000000,4.000000,,,,,,,,,,,,,,,,,,,,,,,,,,,,,,,,,,,,,,,,,,,,,,,,,,,,,,,,
1577418830.589844,36.000000,0.000000,4254.358887,4356.410156,4062.051270,4147.692383,4209.230957,0.000000,4.000000,,,,0.000000,4.000000,4.000000,2.000000,4.000000,4.000000,,,,,,,,,,,,,,,,,,,,,,,,,,,,,,,,,,,,,,,,,,,,,,,,,,,,,,,,
1577418830.597647,37.000000,0.000000,4243.077148,4364.615234,4067.179443,4136.410156,4199.487305,0.000000,4.000000,,,,0.000000,4.000000,4.000000,2.000000,4.000000,4.000000,,,,,,,,,,,,,,,,,,,,,,,,,,,,,,,,,,,,,,,,,,,,,,,,,,,,,,,,
1577418830.605450,38.000000,0.000000,4237.948730,4386.153809,4061.538574,4131.282227,4193.846191,0.000000,4.000000,,,,0.000000,4.000000,4.000000,2.000000,4.000000,4.000000,,,,,,,,,,,,,,,,,,,,,,,,,,,,,,,,,,,,,,,,,,,,,,,,,,,,,,,,
1577418830.613153,39.000000,0.000000,4247.692383,4376.410156,4073.846191,4141.538574,4195.897461,0.000000,4.000000,,,,0.000000,4.000000,4.000000,2.000000,4.000000,4.000000,,,,,,,,,,,,,,,,,,,,,,,,,,,,,,,,,,,,,,,,,,,,,,,,,,,,,,,,
1577418830.620856,40.000000,0.000000,4248.205078,4349.230957,4066.153809,4141.025879,4199.487305,0.000000,4.000000,,,,0.000000,4.000000,4.000000,2.000000,4.000000,4.000000,,,,,,,,,,,,,,,,,,,,,,,,,,,,,,,,,,,,,,,,,,,,,,,,,,,,,,,,
1577418830.628658,41.000000,0.000000,4223.077148,4344.102539,4056.923096,4132.820313,4188.205078,0.000000,4.000000,,,,0.000000,4.000000,4.000000,2.000000,4.000000,4.000000,,,,,,,,,,,,,,,,,,,,,,,,,,,,,,,,75.311394,7.994967,1.956746,0.973466,0.557853,0.933966,1.195454,1.111042,0.860187,1.616481,1.252197,1.012488,0.614711,0.473195,0.250973,1.861585,2.215272,1.139394,0.359349,0.410581,32.003033,5.344153,1.719961,0.658944,0.602076
1577418830.636361,42.000000,0.000000,4209.743652,4365.641113,4052.820557,4132.307617,4176.922852,0.000000,4.000000,,,,0.000000,4.000000,4.000000,2.000000,4.000000,4.000000,,,,,,,,,,,,,,,,,,,,,,,,,,,,,,,,,,,,,,,,,,,,,,,,,,,,,,,,
1577418830.644164,43.000000,0.000000,4206.666504,4367.692383,4054.358887,4138.461426,4180.000000,0.000000,4.000000,,,,0.000000,4.000000,4.000000,2.000000,4.000000,4.000000,,,,,,,,,,,,,,,,,,,,,,,,,,,,,,,,,,,,,,,,,,,,,,,,,,,,,,,,
1577418830.651867,44.000000,0.000000,4183.589844,4347.692383,4069.743652,4146.153809,4178.461426,0.000000,4.000000,,,,0.000000,4.000000,4.000000,2.000000,4.000000,4.000000,,,,,,,,,,,,,,,,,,,,,,,,,,,,,,,,,,,,,,,,,,,,,,,,,,,,,,,,
1577418830.659669,45.000000,0.000000,4161.538574,4349.743652,4055.384521,4141.025879,4160.512695,0.000000,4.000000,,,,0.000000,4.000000,4.000000,2.000000,4.000000,4.000000,,,,,,,,,,,,,,,,,,,,,,,,,,,,,,,,,,,,,,,,,,,,,,,,,,,,,,,,
1577418830.667372,46.000000,0.000000,4156.922852,4361.538574,4052.307617,4131.282227,4152.820313,0.000000,4.000000,,,,0.000000,4.000000,4.000000,2.000000,4.000000,4.000000,,,,,,,,,,,,,,,,,,,,,,,,,,,,,,,,,,,,,,,,,,,,,,,,,,,,,,,,
1577418830.675175,47.000000,0.000000,4161.025879,4364.615234,4074.871826,4140.512695,4163.077148,0.000000,4.000000,,,,0.000000,4.000000,4.000000,2.000000,4.000000,4.000000,,,,,,,,,,,,,,,,,,,,,,,,,,,,,,,,,,,,,,,,,,,,,,,,,,,,,,,,
1577418830.682878,48.000000,0.000000,4156.410156,4374.358887,4075.384521,4147.692383,4164.615234,0.000000,4.000000,,,,0.000000,4.000000,4.000000,2.000000,4.000000,4.000000,,,,,,,,,,,,,,,,,,,,,,,,,,,,,,,,,,,,,,,,,,,,,,,,,,,,,,,,
1577418830.690581,49.000000,0.000000,4148.205078,4372.307617,4074.871826,4140.512695,4157.948730,0.000000,4.000000,,,,0.000000,4.000000,4.000000,2.000000,4.000000,4.000000,,,,,,,,,,,,,,,,,,,,,,,,,,,,,,,,,,,,,,,,,,,,,,,,,,,,,,,,
1577418830.698384,50.000000,0.000000,4150.769043,4364.615234,4065.641113,4139.487305,4158.461426,0.000000,4.000000,,,,0.000000,4.000000,4.000000,2.000000,4.000000,4.000000,,,,,,,,,,,,,,,,,,,,,,,,,,,,,,,,,,,,,,,,,,,,,,,,,,,,,,,,
1577418830.706087,51.000000,0.000000,4143.589844,4369.230957,4066.666748,4145.641113,4160.000000,0.000000,4.000000,,,,0.000000,4.000000,4.000000,2.000000,4.000000,4.000000,,,,,,,,,,,,,,,,,,,,,,,,,,,,,,,,,,,,,,,,,,,,,,,,,,,,,,,,
1577418830.713890,52.000000,0.000000,4137.436035,4377.436035,4081.025635,4152.307617,4159.487305,0.000000,4.000000,,,,0.000000,4.000000,4.000000,2.000000,4.000000,4.000000,,,,,,,,,,,,,,,,,,,,,,,,,,,,,,,,,,,,,,,,,,,,,,,,,,,,,,,,
1577418830.721693,53.000000,0.000000,4156.922852,4373.846191,4075.384521,4161.025879,4174.871582,0.000000,4.000000,,,,0.000000,4.000000,4.000000,2.000000,4.000000,4.000000,,,,,,,,,,,,,,,,,,,,,,,,,,,,,,,,,,,,,,,,,,,,,,,,,,,,,,,,
1577418830.729396,54.000000,0.000000,4171.794922,4367.692383,4079.487061,4171.282227,4191.282227,0.000000,4.000000,,,,0.000000,4.000000,4.000000,2.000000,4.000000,4.000000,,,,,,,,,,,,,,,,,,,,,,,,,,,,,,,,,,,,,,,,,,,,,,,,,,,,,,,,
1577418830.737198,55.000000,0.000000,4165.128418,4379.487305,4074.358887,4172.307617,4188.717773,0.000000,4.000000,,,,0.000000,4.000000,4.000000,2.000000,4.000000,4.000000,,,,,,,,,,,,,,,,,,,,,,,,,,,,,,,,,,,,,,,,,,,,,,,,,,,,,,,,
1577418830.744901,56.000000,0.000000,4155.897461,4368.205078,4069.230713,4167.179688,4181.538574,0.000000,4.000000,,,,0.000000,4.000000,4.000000,2.000000,4.000000,4.000000,,,,,,,,,,,,,,,,,,,,,,,,,,,,,,,,,,,,,,,,,,,,,,,,,,,,,,,,
1577418830.752704,57.000000,0.000000,4141.538574,4338.461426,4081.025635,4161.538574,4166.153809,0.000000,4.000000,,,,0.000000,4.000000,4.000000,2.000000,4.000000,4.000000,,,,,,,,,,,,,,,,,,,,,,,,,,,,,,,,56.152817,6.838618,1.341613,0.928029,0.492949,0.981275,1.445253,1.241333,0.866924,1.740421,1.435226,1.132192,0.708886,0.533849,0.263877,1.969369,2.414614,1.106955,0.390020,0.393511,25.309021,5.668568,1.405873,0.700607,0.528881
1577418830.760407,58.000000,0.000000,4131.282227,4361.538574,4073.846191,4155.384766,4150.769043,0.000000,4.000000,,,,0.000000,4.000000,4.000000,2.000000,4.000000,4.000000,,,,,,,,,,,,,,,,,,,,,,,,,,,,,,,,,,,,,,,,,,,,,,,,,,,,,,,,
1577418830.768110,59.000000,0.000000,4140.512695,4393.846191,4082.051270,4167.692383,4167.179688,0.000000,4.000000,,,,0.000000,4.000000,4.000000,2.000000,4.000000,4.000000,,,,,,,,,,,,,,,,,,,,,,,,,,,,,,,,,,,,,,,,,,,,,,,,,,,,,,,,
1577418830.775913,60.000000,0.000000,4154.358887,4377.436035,4090.769287,4177.436035,4188.717773,0.000000,4.000000,,,,0.000000,4.000000,4.000000,2.000000,4.000000,4.000000,,,,,,,,,,,,,,,,,,,,,,,,,,,,,,,,,,,,,,,,,,,,,,,,,,,,,,,,
1577418830.783616,61.000000,0.000000,4150.256348,4357.948730,4082.564209,4163.077148,4179.487305,0.000000,4.000000,,,,0.000000,4.000000,4.000000,2.000000,4.000000,4.000000,,,,,,,,,,,,,,,,,,,,,,,,,,,,,,,,,,,,,,,,,,,,,,,,,,,,,,,,
1577418830.791418,62.000000,0.000000,4149.230957,4365.641113,4087.692383,4161.538574,4174.358887,0.000000,4.000000,,,,0.000000,4.000000,4.000000,2.000000,4.000000,4.000000,,,,,,,,,,,,,,,,,,,,,,,,,,,,,,,,,,,,,,,,,,,,,,,,,,,,,,,,
1577418830.799121,63.000000,0.000000,4162.563965,4369.230957,4074.871826,4165.128418,4187.179688,0.000000,4.000000,,,,0.000000,4.000000,4.000000,2.000000,4.000000,4.000000,,,,,,,,,,,,,,,,,,,,,,,,,,,,,,,,,,,,,,,,,,,,,,,,,,,,,,,,
1577418830.806924,64.000000,0.000000,4152.307617,4366.666504,4073.846191,4157.948730,4183.589844,450.000000,4.000000,,,,0.000000,4.000000,4.000000,2.000000,4.000000,4.000000,,,,,,,,,,,,,,,,,,,,,,,,,,,,,,,,,,,,,,,,,,,,,,,,,,,,,,,,
1577418830.814627,65.000000,0.000000,4132.307617,4371.794922,4082.564209,4163.077148,4168.205078,450.000000,4.000000,,,,0.000000,4.000000,4.000000,2.000000,4.000000,4.000000,,,,,,,,,,,,,,,,,,,,,,,,,,,,,,,,,,,,,,,,,,,,,,,,,,,,,,,,
1577418830.822429,66.000000,0.000000,4132.307617,4375.384766,4067.692383,4167.692383,4164.615234,16241.000000,4.000000,,,,0.000000,4.000000,4.000000,2.000000,4.000000,4.000000,,,,,,,,,,,,,,,,,,,,,,,,,,,,,,,,,,,,,,,,,,,,,,,,,,,,,,,,
1577418830.830132,67.000000,0.000000,4127.692383,4364.102539,4070.256348,4152.820313,4157.436035,450.000000,4.000000,,,,0.000000,4.000000,4.000000,2.000000,4.000000,4.000000,,,,,,,,,,,,,,,,,,,,,,,,,,,,,,,,,,,,,,,,,,,,,,,,,,,,,,,,
1577418830.837935,68.000000,0.000000,4121.538574,4354.358887,4075.897461,4141.025879,4145.641113,16214.000000,4.000000,,,,0.000000,4.000000,4.000000,2.000000,4.000000,4.000000,,,,,,,,,,,,,,,,,,,,,,,,,,,,,,,,,,,,,,,,,,,,,,,,,,,,,,,,
1577418830.845638,69.000000,0.000000,4123.589844,4359.487305,4081.538574,4149.743652,4152.307617,450.000000,4.000000,,,,0.000000,4.000000,4.000000,2.000000,4.000000,4.000000,,,,,,,,,,,,,,,,,,,,,,,,,,,,,,,,,,,,,,,,,,,,,,,,,,,,,,,,
1577418830.853441,70.000000,0.000000,4116.922852,4371.282227,4087.179443,4152.820313,4156.410156,322.000000,4.000000,,,,0.000000,4.000000,4.000000,2.000000,4.000000,4.000000,,,,,,,,,,,,,,,,,,,,,,,,,,,,,,,,,,,,,,,,,,,,,,,,,,,,,,,,
1577418830.861143,71.000000,0.000000,4111.282227,4365.641113,4081.538574,4142.051270,4146.666504,450.000000,4.000000,,,,0.000000,4.000000,4.000000,2.000000,4.000000,4.000000,,,,,,,,,,,,,,,,,,,,,,,,,,,,,,,,,,,,,,,,,,,,,,,,,,,,,,,,
1577418830.868946,72.000000,0.000000,4116.410156,4356.922852,4096.922852,4148.205078,4145.641113,450.000000,4.000000,,,,0.000000,4.000000,4.000000,2.000000,4.000000,4.000000,,,,,,,,,,,,,,,,,,,,,,,,,,,,,,,,,,,,,,,,,,,,,,,,,,,,,,,,
1577418830.876649,73.000000,0.000000,4113.846191,4356.922852,4087.692383,4153.333496,4142.051270,16182.000000,4.000000,,,,0.000000,4.000000,4.000000,2.000000,4.000000,4.000000,,,,,,,,,,,,,,,,,,,,,,,,,,,,,,,,39.760475,5.749058,0.916497,0.893091,0.433065,1.029874,1.582016,1.449980,0.865500,1.902900,1.505755,1.158063,0.786651,0.581861,0.283397,1.878622,2.459237,1.132372,0.432803,0.369488,18.840347,5.652529,1.168164,0.787917,0.461625
1577418830.884452,74.000000,0.000000,4094.871826,4358.974121,4072.820557,4137.436035,4131.794922,450.000000,4.000000,,,,0.000000,4.000000,4.000000,2.000000,4.000000,4.000000,,,,,,,,,,,,,,,,,,,,,,,,,,,,,,,,,,,,,,,,,,,,,,,,,,,,,,,,
1577418830.892155,75.000000,0.000000,4093.333252,4375.897461,4090.769287,4135.897461,4137.436035,16233.000000,4.000000,,,,0.000000,4.000000,4.000000,2.000000,4.000000,4.000000,,,,,,,,,,,,,,,,,,,,,,,,,,,,,,,,,,,,,,,,,,,,,,,,,,,,,,,,
1577418830.899957,76.000000,0.000000,4112.307617,4387.692383,4088.718018,4148.717773,4152.307617,450.000000,4.000000,,,,0.000000,4.000000,4.000000,2.000000,4.000000,4.000000,,,,,,,,,,,,,,,,,,,,,,,,,,,,,,,,,,,,,,,,,,,,,,,,,,,,,,,,
1577418830.907660,77.000000,0.000000,4113.333496,4369.743652,4084.102539,4149.743652,4151.282227,450.000000,4.000000,,,,0.000000,4.000000,4.000000,2.000000,4.000000,4.000000,,,,,,,,,,,,,,,,,,,,,,,,,,,,,,,,,,,,,,,,,,,,,,,,,,,,,,,,
1577418830.915463,78.000000,0.000000,4103.589844,4365.641113,4082.051270,4146.153809,4143.077148,450.000000,4.000000,,,,0.000000,4.000000,4.000000,2.000000,4.000000,4.000000,,,,,,,,,,,,,,,,,,,,,,,,,,,,,,,,,,,,,,,,,,,,,,,,,,,,,,,,
1577418830.923166,79.000000,0.000000,4107.179688,4378.461426,4074.358887,4146.666504,4142.563965,16233.000000,4.000000,,,,0.000000,4.000000,4.000000,2.000000,4.000000,4.000000,,,,,,,,,,,,,,,,,,,,,,,,,,,,,,,,,,,,,,,,,,,,,,,,,,,,,,,,
1577418830.930968,80.000000,0.000000,4102.051270,4357.436035,4076.410156,4146.153809,4136.410156,450.000000,4.000000,,,,0.000000,4.000000,4.000000,2.000000,4.000000,4.000000,,,,,,,,,,,,,,,,,,,,,,,,,,,,,,,,,,,,,,,,,,,,,,,,,,,,,,,,
1577418830.938671,81.000000,0.000000,4091.794922,4338.974121,4067.179443,4141.538574,4127.692383,450.000000,4.000000,,,,0.000000,4.000000,4.000000,2.000000,4.000000,4.000000,,,,,,,,,,,,,,,,,,,,,,,,,,,,,,,,,,,,,,,,,,,,,,,,,,,,,,,,
1577418830.946374,82.000000,0.000000,4098.461426,4358.974121,4070.256348,4149.230957,4140.000000,450.000000,4.000000,,,,0.000000,4.000000,4.000000,2.000000,4.000000,4.000000,,,,,,,,,,,,,,,,,,,,,,,,,,,,,,,,,,,,,,,,,,,,,,,,,,,,,,,,
1577418830.954177,83.000000,0.000000,4110.769043,4373.333496,4071.794922,4162.563965,4155.384766,16233.000000,4.000000,,,,0.000000,4.000000,4.000000,2.000000,4.000000,4.000000,,,,,,,,,,,,,,,,,,,,,,,,,,,,,,,,,,,,,,,,,,,,,,,,,,,,,,,,
1577418830.961880,84.000000,0.000000,4111.282227,4367.692383,4064.102539,4158.974121,4153.333496,450.000000,4.000000,,,,0.000000,4.000000,4.000000,2.000000,4.000000,4.000000,,,,,,,,,,,,,,,,,,,,,,,,,,,,,,,,,,,,,,,,,,,,,,,,,,,,,,,,
1577418830.969683,85.000000,0.000000,4109.230957,4352.820313,4079.487061,4152.820313,4150.256348,450.000000,4.000000,,,,0.000000,4.000000,4.000000,2.000000,4.000000,4.000000,,,,,,,,,,,,,,,,,,,,,,,,,,,,,,,,,,,,,,,,,,,,,,,,,,,,,,,,
1577418830.977386,86.000000,0.000000,4119.487305,4350.256348,4079.487061,4155.384766,4156.922852,450.000000,4.000000,,,,0.000000,4.000000,4.000000,2.000000,4.000000,4.000000,,,,,,,,,,,,,,,,,,,,,,,,,,,,,,,,,,,,,,,,,,,,,,,,,,,,,,,,
1577418830.985189,87.000000,0.000000,4131.282227,4369.743652,4076.923096,4160.512695,4165.128418,16233.000000,4.000000,,,,0.000000,4.000000,4.000000,2.000000,4.000000,4.000000,,,,,,,,,,,,,,,,,,,,,,,,,,,,,,,,,,,,,,,,,,,,,,,,,,,,,,,,
1577418830.992892,88.000000,0.000000,4127.692383,4368.205078,4075.384521,4155.384766,4165.128418,450.000000,4.000000,,,,0.000000,4.000000,4.000000,2.000000,4.000000,4.000000,,,,,,,,,,,,,,,,,,,,,,,,,,,,,,,,,,,,,,,,,,,,,,,,,,,,,,,,
1577418831.000695,89.000000,0.000000,4119.487305,4339.487305,4058.974365,4144.615234,4158.974121,450.000000,4.000000,,,,0.000000,4.000000,4.000000,2.000000,4.000000,4.000000,,,,,,,,,,,,,,,,,,,,,,,,,,,,,,,,28.140554,4.838761,0.681723,0.864334,0.388223,1.043363,1.569651,1.642393,0.864193,2.056365,1.348359,1.090603,0.832550,0.612871,0.308103,1.632429,2.326047,1.172182,0.468423,0.344908,13.428574,5.241087,0.979586,0.887775,0.415467
1577418831.008398,90.000000,0.000000,4126.153809,4345.128418,4067.179443,4150.769043,4167.179688,450.000000,4.000000,,,,0.000000,4.000000,4.000000,2.000000,4.000000,4.000000,,,,,,,,,,,,,,,,,,,,,,,,,,,,,,,,,,,,,,,,,,,,,,,,,,,,,,,,
1577418831.016200,91.000000,0.000000,4137.436035,4371.794922,4063.589844,4157.436035,4172.820313,16233.000000,4.000000,,,,0.000000,4.000000,4.000000,2.000000,4.000000,4.000000,,,,,,,,,,,,,,,,,,,,,,,,,,,,,,,,,,,,,,,,,,,,,,,,,,,,,,,,
1577418831.023903,92.000000,0.000000,4124.102539,4358.461426,4053.333252,4148.717773,4155.384766,450.000000,4.000000,,,,0.000000,4.000000,4.000000,2.000000,4.000000,4.000000,,,,,,,,,,,,,,,,,,,,,,,,,,,,,,,,,,,,,,,,,,,,,,,,,,,,,,,,
1577418831.031706,93.000000,0.000000,4118.461426,4344.102539,4077.435791,4151.282227,4155.384766,450.000000,4.000000,,,,0.000000,4.000000,4.000000,2.000000,4.000000,4.000000,,,,,,,,,,,,,,,,,,,,,,,,,,,,,,,,,,,,,,,,,,,,,,,,,,,,,,,,
1577418831.039409,94.000000,0.000000,4135.384766,4367.692383,4095.384521,4158.974121,4175.384766,450.000000,4.000000,,,,0.000000,4.000000,4.000000,2.000000,4.000000,4.000000,,,,,,,,,,,,,,,,,,,,,,,,,,,,,,,,,,,,,,,,,,,,,,,,,,,,,,,,
1577418831.047211,95.000000,0.000000,4130.769043,4384.102539,4098.974121,4154.358887,4173.846191,16233.000000,4.000000,,,,0.000000,4.000000,4.000000,2.000000,4.000000,4.000000,,,,,,,,,,,,,,,,,,,,,,,,,,,,,,,,,,,,,,,,,,,,,,,,,,,,,,,,
1577418831.054914,96.000000,0.000000,4114.358887,4363.589844,4081.025635,4145.641113,4156.922852,450.000000,4.000000,,,,0.000000,4.000000,4.000000,2.000000,4.000000,4.000000,,,,,,,,,,,,,,,,,,,,,,,,,,,,,,,,,,,,,,,,,,,,,,,,,,,,,,,,
1577418831.062717,97.000000,0.000000,4114.871582,4343.589844,4076.923096,4147.179688,4155.897461,450.000000,4.000000,,,,0.000000,4.000000,4.000000,2.000000,4.000000,4.000000,,,,,,,,,,,,,,,,,,,,,,,,,,,,,,,,,,,,,,,,,,,,,,,,,,,,,,,,
1577418831.070420,98.000000,0.000000,4122.563965,4358.461426,4104.615234,4161.025879,4168.717773,450.000000,4.000000,,,,0.000000,4.000000,4.000000,2.000000,4.000000,4.000000,,,,,,,,,,,,,,,,,,,,,,,,,,,,,,,,,,,,,,,,,,,,,,,,,,,,,,,,
1577418831.078123,99.000000,0.000000,4129.230957,4377.436035,4103.589844,4166.153809,4176.922852,16233.000000,4.000000,,,,0.000000,4.000000,4.000000,2.000000,4.000000,4.000000,,,,,,,,,,,,,,,,,,,,,,,,,,,,,,,,,,,,,,,,,,,,,,,,,,,,,,,,
1577418831.085926,100.000000,0.000000,4133.333496,4367.179688,4101.538574,4160.512695,4180.000000,450.000000,4.000000,,,,0.000000,4.000000,4.000000,2.000000,4.000000,4.000000,,,,,,,,,,,,,,,,,,,,,,,,,,,,,,,,,,,,,,,,,,,,,,,,,,,,,,,,
1577418831.093729,101.000000,0.000000,4138.461426,4353.333496,4104.102539,4160.000000,4182.051270,450.000000,4.000000,,,,0.000000,4.000000,4.000000,2.000000,4.000000,4.000000,,,,,,,,,,,,,,,,,,,,,,,,,,,,,,,,,,,,,,,,,,,,,,,,,,,,,,,,
1577418831.101432,102.000000,0.000000,4137.948730,4351.282227,4093.333252,4163.589844,4179.487305,450.000000,4.000000,,,,0.000000,4.000000,4.000000,2.000000,4.000000,4.000000,,,,,,,,,,,,,,,,,,,,,,,,,,,,,,,,,,,,,,,,,,,,,,,,,,,,,,,,
1577418831.109135,103.000000,0.000000,4131.282227,4348.205078,4094.358887,4160.512695,4173.846191,16233.000000,4.000000,,,,0.000000,4.000000,4.000000,2.000000,4.000000,4.000000,,,,,,,,,,,,,,,,,,,,,,,,,,,,,,,,,,,,,,,,,,,,,,,,,,,,,,,,
1577418831.116938,104.000000,0.000000,4133.333496,4355.384766,4090.769287,4155.384766,4170.256348,450.000000,4.000000,,,,0.000000,4.000000,4.000000,2.000000,4.000000,4.000000,,,,,,,,,,,,,,,,,,,,,,,,,,,,,,,,,,,,,,,,,,,,,,,,,,,,,,,,
1577418831.124641,105.000000,0.000000,4141.025879,4372.820313,4104.615234,4164.615234,4175.897461,450.000000,4.000000,,,,0.000000,4.000000,4.000000,2.000000,4.000000,4.000000,,,,,,,,,,,,,,,,,,,,,,,,,,,,,,,,21.981649,4.088674,0.592056,0.846441,0.366015,0.995326,1.432933,1.727917,0.877457,2.144126,1.139299,0.962107,0.834958,0.622825,0.333404,1.364197,2.028939,1.160510,0.486193,0.326242,9.776517,4.466097,0.818430,0.973060,0.397680
1577418831.132444,106.000000,0.000000,4147.179688,4386.153809,4124.615234,4178.461426,4187.692383,450.000000,4.000000,,,,0.000000,4.000000,4.000000,2.000000,4.000000,4.000000,,,,,,,,,,,,,,,,,,,,,,,,,,,,,,,,,,,,,,,,,,,,,,,,,,,,,,,,
1577418831.140147,107.000000,0.000000,4151.282227,4374.871582,4113.333496,4175.384766,4190.256348,16233.000000,4.000000,,,,0.000000,4.000000,4.000000,2.000000,4.000000,4.000000,,,,,,,,,,,,,,,,,,,,,,,,,,,,,,,,,,,,,,,,,,,,,,,,,,,,,,,,
1577418831.147950,108.000000,0.000000,4143.589844,4344.102539,4110.256348,4158.974121,4180.000000,450.000000,4.000000,,,,0.000000,4.000000,4.000000,2.000000,4.000000,4.000000,,,,,,,,,,,,,,,,,,,,,,,,,,,,,,,,,,,,,,,,,,,,,,,,,,,,,,,,
1577418831.155653,109.000000,0.000000,4139.487305,4346.666504,4107.179688,4150.256348,4176.922852,450.000000,4.000000,,,,0.000000,4.000000,4.000000,2.000000,4.000000,4.000000,,,,,,,,,,,,,,,,,,,,,,,,,,,,,,,,,,,,,,,,,,,,,,,,,,,,,,,,
1577418831.163456,110.000000,0.000000,4149.743652,4372.307617,4111.282227,4156.410156,4187.179688,450.000000,4.000000,,,,0.000000,4.000000,4.000000,2.000000,4.000000,4.000000,,,,,,,,,,,,,,,,,,,,,,,,,,,,,,,,,,,,,,,,,,,,,,,,,,,,,,,,
1577418831.171159,111.000000,0.000000,4153.333496,4373.846191,4117.436035,4159.487305,4189.230957,16233.000000,4.000000,,,,0.000000,4.000000,4.000000,2.000000,4.000000,4.000000,,,,,,,,,,,,,,,,,,,,,,,,,,,,,,,,,,,,,,,,,,,,,,,,,,,,,,,,
1577418831.178961,112.000000,0.000000,4138.974121,4363.077148,4096.922852,4142.563965,4174.871582,450.000000,4.000000,,,,0.000000,4.000000,4.000000,2.000000,4.000000,4.000000,,,,,,,,,,,,,,,,,,,,,,,,,,,,,,,,,,,,,,,,,,,,,,,,,,,,,,,,
1577418831.186664,113.000000,0.000000,4130.769043,4356.922852,4093.333252,4136.410156,4163.077148,450.000000,4.000000,,,,0.000000,4.000000,4.000000,2.000000,4.000000,4.000000,,,,,,,,,,,,,,,,,,,,,,,,,,,,,,,,,,,,,,,,,,,,,,,,,,,,,,,,
1577418831.194467,114.000000,0.000000,4140.000000,4352.820313,4090.256348,4146.666504,4164.615234,450.000000,4.000000,,,,0.000000,4.000000,4.000000,2.000000,4.000000,4.000000,,,,,,,,,,,,,,,,,,,,,,,,,,,,,,,,,,,,,,,,,,,,,,,,,,,,,,,,
1577418831.202170,115.000000,0.000000,4143.589844,4354.871582,4084.102539,4144.615234,4169.743652,16233.000000,4.000000,,,,0.000000,4.000000,4.000000,2.000000,4.000000,4.000000,,,,,,,,,,,,,,,,,,,,,,,,,,,,,,,,,,,,,,,,,,,,,,,,,,,,,,,,
1577418831.209972,116.000000,0.000000,4137.436035,4357.948730,4093.846191,4136.922852,4172.820313,450.000000,4.000000,,,,0.000000,4.000000,4.000000,2.000000,4.000000,4.000000,,,,,,,,,,,,,,,,,,,,,,,,,,,,,,,,,,,,,,,,,,,,,,,,,,,,,,,,
1577418831.217675,117.000000,0.000000,4137.948730,4356.410156,4089.743652,4141.025879,4170.769043,450.000000,4.000000,,,,0.000000,4.000000,4.000000,2.000000,4.000000,4.000000,,,,,,,,,,,,,,,,,,,,,,,,,,,,,,,,,,,,,,,,,,,,,,,,,,,,,,,,
1577418831.225478,118.000000,0.000000,4134.871582,4371.282227,4094.871826,4148.717773,4163.077148,450.000000,4.000000,,,,0.000000,4.000000,4.000000,2.000000,4.000000,4.000000,,,,,,,,,,,,,,,,,,,,,,,,,,,,,,,,,,,,,,,,,,,,,,,,,,,,,,,,
1577418831.233181,119.000000,0.000000,4135.897461,4379.487305,4102.051270,4144.615234,4163.589844,16233.000000,4.000000,,,,0.000000,4.000000,4.000000,2.000000,4.000000,4.000000,,,,,,,,,,,,,,,,,,,,,,,,,,,,,,,,,,,,,,,,,,,,,,,,,,,,,,,,
1577418831.240984,120.000000,0.000000,4152.820313,4363.077148,4099.487305,4140.512695,4175.897461,450.000000,4.000000,,,,0.000000,4.000000,4.000000,2.000000,4.000000,4.000000,,,,,,,,,,,,,,,,,,,,,,,,,,,,,,,,,,,,,,,,,,,,,,,,,,,,,,,,
1577418831.248686,121.000000,0.000000,4154.871582,4369.743652,4106.153809,4147.179688,4176.410156,450.000000,4.000000,,,,0.000000,4.000000,4.000000,2.000000,4.000000,4.000000,,,,,,,,,,,,,,,,,,,,,,,,,,,,,,,,20.805500,3.376205,0.563408,0.844292,0.366707,0.888014,1.237874,1.666580,0.913215,2.130836,0.876868,0.829411,0.799365,0.611466,0.354095,1.204728,1.624330,1.068544,0.486825,0.316255,8.189891,3.444006,0.683283,1.031358,0.403820
1577418831.256389,122.000000,0.000000,4140.512695,4386.153809,4096.410156,4146.153809,4164.102539,450.000000,4.000000,,,,0.000000,4.000000,4.000000,2.000000,4.000000,4.000000,,,,,,,,,,,,,,,,,,,,,,,,,,,,,,,,,,,,,,,,,,,,,,,,,,,,,,,,
1577418831.264192,123.000000,0.000000,4151.794922,4365.128418,4094.871826,4143.077148,4172.307617,16233.000000,4.000000,,,,0.000000,4.000000,4.000000,2.000000,4.000000,4.000000,,,,,,,,,,,,,,,,,,,,,,,,,,,,,,,,,,,,,,,,,,,,,,,,,,,,,,,,
1577418831.271995,124.000000,0.000000,4194.358887,4343.077148,4095.384521,4141.025879,4197.948730,450.000000,4.000000,,,,0.000000,4.000000,4.000000,2.000000,4.000000,4.000000,,,,,,,,,,,,,,,,,,,,,,,,,,,,,,,,,,,,,,,,,,,,,,,,,,,,,,,,
1577418831.279698,125.000000,0.000000,4231.282227,4348.717773,4081.025635,4132.307617,4212.820313,450.000000,4.000000,,,,0.000000,4.000000,4.000000,2.000000,4.000000,4.000000,,,,,,,,,,,,,,,,,,,,,,,,,,,,,,,,,,,,,,,,,,,,,,,,,,,,,,,,
1577418831.287501,126.000000,0.000000,4263.077148,4368.717773,4097.948730,4136.922852,4227.692383,450.000000,4.000000,,,,0.000000,4.000000,4.000000,2.000000,4.000000,4.000000,,,,,,,,,,,,,,,,,,,,,,,,,,,,,,,,,,,,,,,,,,,,,,,,,,,,,,,,
1577418831.295204,127.000000,0.000000,4311.282227,4377.948730,4109.743652,4149.743652,4259.487305,238.000000,4.000000,,,,0.000000,4.000000,4.000000,2.000000,4.000000,4.000000,,,,,,,,,,,,,,,,,,,,,,,,,,,,,,,,,,,,,,,,,,,,,,,,,,,,,,,,
1577418831.303006,0.000000,0.000000,4344.102539,4362.051270,4110.769043,4153.333496,4287.179688,450.000000,4.000000,,,,0.000000,4.000000,4.000000,2.000000,4.000000,4.000000,,,,,,,,,,,,,,,,,,,,,,,,,,,,,,,,,,,,,,,,,,,,,,,,,,,,,,,,
1577418831.310709,1.000000,0.000000,4350.769043,4364.615234,4109.230957,4152.307617,4291.282227,450.000000,4.000000,,,,0.000000,4.000000,4.000000,2.000000,4.000000,4.000000,,,,,,,,,,,,,,,,,,,,,,,,,,,,,,,,,,,,,,,,,,,,,,,,,,,,,,,,
1577418831.318512,2.000000,0.000000,4345.641113,4385.128418,4093.333252,4147.692383,4282.563965,16237.000000,4.000000,,,,0.000000,4.000000,4.000000,2.000000,4.000000,4.000000,,,,,,,,,,,,,,,,,,,,,,,,,,,,,,,,,,,,,,,,,,,,,,,,,,,,,,,,
1577418831.326215,3.000000,0.000000,4326.153809,4366.153809,4104.615234,4147.179688,4275.384766,450.000000,4.000000,,,,0.000000,4.000000,4.000000,2.000000,4.000000,4.000000,,,,,,,,,,,,,,,,,,,,,,,,,,,,,,,,,,,,,,,,,,,,,,,,,,,,,,,,
1577418831.333918,4.000000,0.000000,4304.615234,4346.153809,4103.077148,4146.153809,4262.051270,16218.000000,4.000000,,,,0.000000,4.000000,4.000000,2.000000,4.000000,4.000000,,,,,,,,,,,,,,,,,,,,,,,,,,,,,,,,,,,,,,,,,,,,,,,,,,,,,,,,
1577418831.341721,5.000000,0.000000,4283.589844,4363.077148,4085.128174,4133.846191,4244.102539,450.000000,4.000000,,,,0.000000,4.000000,4.000000,2.000000,4.000000,4.000000,,,,,,,,,,,,,,,,,,,,,,,,,,,,,,,,,,,,,,,,,,,,,,,,,,,,,,,,
1577418831.349424,6.000000,0.000000,4267.179688,4370.256348,4098.974121,4123.589844,4235.384766,319.000000,4.000000,,,,0.000000,4.000000,4.000000,2.000000,4.000000,4.000000,,,,,,,,,,,,,,,,,,,,,,,,,,,,,,,,,,,,,,,,,,,,,,,,,,,,,,,,
1577418831.357227,7.000000,0.000000,4266.666504,4359.487305,4111.282227,4129.230957,4236.410156,450.000000,4.000000,,,,0.000000,4.000000,4.000000,2.000000,4.000000,4.000000,,,,,,,,,,,,,,,,,,,,,,,,,,,,,,,,,,,,,,,,,,,,,,,,,,,,,,,,
1577418831.364930,8.000000,0.000000,4268.717773,4356.410156,4111.794922,4137.948730,4239.487305,450.000000,4.000000,,,,0.000000,4.000000,4.000000,2.000000,4.000000,4.000000,,,,,,,,,,,,,,,,,,,,,,,,,,,,,,,,,,,,,,,,,,,,,,,,,,,,,,,,
1577418831.372732,9.000000,0.000000,4270.256348,4370.769043,4104.615234,4134.358887,4240.512695,16172.000000,4.000000,,,,0.000000,4.000000,4.000000,2.000000,4.000000,4.000000,,,,,,,,,,,,,,,,,,,,,,,,,,,,,,,,22.563969,2.687269,0.541249,0.854307,0.384250,0.744454,1.055790,1.476106,0.981000,2.023768,0.776181,0.751442,0.741436,0.586415,0.366811,1.208107,1.191451,0.907366,0.476834,0.313951,8.170348,2.404536,0.585109,1.060141,0.421878
1577418831.380435,10.000000,0.000000,4271.794922,4379.487305,4111.794922,4128.205078,4242.051270,450.000000,4.000000,,,,0.000000,4.000000,4.000000,2.000000,4.000000,4.000000,,,,,,,,,,,,,,,,,,,,,,,,,,,,,,,,,,,,,,,,,,,,,,,,,,,,,,,,
1577418831.388238,11.000000,0.000000,4265.641113,4371.282227,4126.666504,4128.205078,4240.512695,16236.000000,4.000000,,,,0.000000,4.000000,4.000000,2.000000,4.000000,4.000000,,,,,,,,,,,,,,,,,,,,,,,,,,,,,,,,,,,,,,,,,,,,,,,,,,,,,,,,
1577418831.396041,12.000000,0.000000,4254.358887,4357.948730,4103.077148,4129.230957,4234.358887,450.000000,4.000000,,,,0.000000,4.000000,4.000000,2.000000,4.000000,4.000000,,,,,,,,,,,,,,,,,,,,,,,,,,,,,,,,,,,,,,,,,,,,,,,,,,,,,,,,
1577418831.403743,13.000000,0.000000,4245.641113,4352.820313,4104.102539,4133.333496,4231.282227,450.000000,4.000000,,,,0.000000,4.000000,4.000000,2.000000,4.000000,4.000000,,,,,,,,,,,,,,,,,,,,,,,,,,,,,,,,,,,,,,,,,,,,,,,,,,,,,,,,
1577418831.411446,14.000000,0.000000,4252.820313,4366.153809,4126.153809,4141.538574,4234.358887,450.000000,4.000000,,,,0.000000,4.000000,4.000000,2.000000,4.000000,4.000000,,,,,,,,,,,,,,,,,,,,,,,,,,,,,,,,,,,,,,,,,,,,,,,,,,,,,,,,
1577418831.419249,15.000000,0.000000,4260.512695,4372.820313,4112.820313,4148.205078,4233.846191,16236.000000,4.000000,,,,0.000000,4.000000,4.000000,2.000000,4.000000,4.000000,,,,,,,,,,,,,,,,,,,,,,,,,,,,,,,,,,,,,,,,,,,,,,,,,,,,,,,,
1577418831.426952,16.000000,0.000000,4245.128418,4357.436035,4106.153809,4153.846191,4224.615234,0.000000,4.000000,,,,0.000000,4.000000,4.000000,2.000000,4.000000,4.000000,,,,,,,,,,,,,,,,,,,,,,,,,,,,,,,,,,,,,,,,,,,,,,,,,,,,,,,,
1577418831.434754,17.000000,0.000000,4229.230957,4339.487305,4101.538574,4144.615234,4213.333496,0.000000,4.000000,,,,0.000000,4.000000,4.000000,2.000000,4.000000,4.000000,,,,,,,,,,,,,,,,,,,,,,,,,,,,,,,,,,,,,,,,,,,,,,,,,,,,,,,,
1577418831.442457,18.000000,0.000000,4229.230957,4348.205078,4105.128418,4135.384766,4208.205078,0.000000,4.000000,,,,0.000000,4.000000,4.000000,2.000000,4.000000,4.000000,,,,,,,,,,,,,,,,,,,,,,,,,,,,,,,,,,,,,,,,,,,,,,,,,,,,,,,,
1577418831.450260,19.000000,0.000000,4229.230957,4380.512695,4117.948730,4150.256348,4211.282227,0.000000,4.000000,,,,0.000000,4.000000,4.000000,2.000000,4.000000,4.000000,,,,,,,,,,,,,,,,,,,,,,,,,,,,,,,,,,,,,,,,,,,,,,,,,,,,,,,,
1577418831.457963,20.000000,0.000000,4226.666504,4372.307617,4114.871582,4152.820313,4216.410156,0.000000,4.000000,,,,0.000000,4.000000,4.000000,2.000000,4.000000,4.000000,,,,,,,,,,,,,,,,,,,,,,,,,,,,,,,,,,,,,,,,,,,,,,,,,,,,,,,,
1577418831.465766,21.000000,0.000000,4227.692383,4332.307617,4115.384766,4132.307617,4212.820313,0.000000,4.000000,,,,0.000000,4.000000,4.000000,2.000000,4.000000,4.000000,,,,,,,,,,,,,,,,,,,,,,,,,,,,,,,,,,,,,,,,,,,,,,,,,,,,,,,,
1577418831.473468,22.000000,0.000000,4234.358887,4341.538574,4102.051270,4123.589844,4209.743652,0.000000,4.000000,,,,0.000000,4.000000,4.000000,2.000000,4.000000,4.000000,,,,,,,,,,,,,,,,,,,,,,,,,,,,,,,,,,,,,,,,,,,,,,,,,,,,,,,,
1577418831.481271,23.000000,0.000000,4243.077148,4381.538574,4108.205078,4140.000000,4217.436035,0.000000,4.000000,,,,0.000000,4.000000,4.000000,2.000000,4.000000,4.000000,,,,,,,,,,,,,,,,,,,,,,,,,,,,,,,,,,,,,,,,,,,,,,,,,,,,,,,,
1577418831.488974,24.000000,0.000000,4248.205078,4387.692383,4130.256348,4158.974121,4231.282227,0.000000,4.000000,,,,0.000000,4.000000,4.000000,2.000000,4.000000,4.000000,,,,,,,,,,,,,,,,,,,,,,,,,,,,,,,,,,,,,,,,,,,,,,,,,,,,,,,,
1577418831.496777,25.000000,0.000000,4239.487305,4370.256348,4115.384766,4151.282227,4229.743652,0.000000,4.000000,,,,0.000000,4.000000,4.000000,2.000000,4.000000,4.000000,,,,,,,,,,,,,,,,,,,,,,,,,,,,,,,,24.864693,2.203830,0.572631,0.867645,0.411173,0.594903,0.940308,1.217940,1.083476,1.861735,0.782675,0.767363,0.687017,0.561737,0.370344,1.328383,0.819125,0.719926,0.464771,0.316866,8.942667,1.621840,0.575131,1.064831,0.440575
1577418831.504479,26.000000,0.000000,4213.333496,4361.538574,4110.256348,4135.384766,4207.692383,0.000000,4.000000,,,,0.000000,4.000000,4.000000,2.000000,4.000000,4.000000,,,,,,,,,,,,,,,,,,,,,,,,,,,,,,,,,,,,,,,,,,,,,,,,,,,,,,,,
1577418831.512183,27.000000,0.000000,4205.128418,4370.256348,4113.333496,4136.922852,4198.461426,0.000000,4.000000,,,,0.000000,4.000000,4.000000,2.000000,4.000000,4.000000,,,,,,,,,,,,,,,,,,,,,,,,,,,,,,,,,,,,,,,,,,,,,,,,,,,,,,,,
1577418831.519985,28.000000,0.000000,4215.384766,4372.307617,4118.461426,4148.205078,4215.384766,0.000000,4.000000,,,,0.000000,4.000000,4.000000,2.000000,4.000000,4.000000,,,,,,,,,,,,,,,,,,,,,,,,,,,,,,,,,,,,,,,,,,,,,,,,,,,,,,,,
1577418831.527788,29.000000,0.000000,4212.820313,4364.615234,4127.179688,4154.358887,4224.102539,0.000000,4.000000,,,,0.000000,4.000000,4.000000,2.000000,4.000000,4.000000,,,,,,,,,,,,,,,,,,,,,,,,,,,,,,,,,,,,,,,,,,,,,,,,,,,,,,,,
1577418831.535491,30.000000,0.000000,4203.589844,4371.282227,4101.538574,4147.179688,4211.794922,0.000000,4.000000,,,,0.000000,4.000000,4.000000,2.000000,4.000000,4.000000,,,,,,,,,,,,,,,,,,,,,,,,,,,,,,,,,,,,,,,,,,,,,,,,,,,,,,,,
1577418831.543194,31.000000,0.000000,4198.974121,4367.179688,4094.358887,4146.153809,4204.615234,0.000000,4.000000,,,,0.000000,4.000000,4.000000,2.000000,4.000000,4.000000,,,,,,,,,,,,,,,,,,,,,,,,,,,,,,,,,,,,,,,,,,,,,,,,,,,,,,,,
1577418831.550997,32.000000,0.000000,4200.000000,4350.769043,4105.128418,4155.384766,4209.230957,0.000000,4.000000,,,,0.000000,4.000000,4.000000,2.000000,4.000000,4.000000,,,,,,,,,,,,,,,,,,,,,,,,,,,,,,,,,,,,,,,,,,,,,,,,,,,,,,,,
1577418831.558700,33.000000,0.000000,4196.410156,4351.282227,4095.897461,4153.333496,4208.205078,0.000000,4.000000,,,,0.000000,4.000000,4.000000,2.000000,4.000000,4.000000,,,,,,,,,,,,,,,,,,,,,,,,,,,,,,,,,,,,,,,,,,,,,,,,,,,,,,,,
1577418831.566503,34.000000,0.000000,4183.077148,4368.205078,4103.077148,4142.563965,4198.461426,0.000000,4.000000,,,,0.000000,4.000000,4.000000,2.000000,4.000000,4.000000,,,,,,,,,,,,,,,,,,,,,,,,,,,,,,,,,,,,,,,,,,,,,,,,,,,,,,,,
1577418831.574206,35.000000,0.000000,4182.563965,4377.948730,4110.769043,4135.897461,4194.871582,0.000000,4.000000,,,,0.000000,4.000000,4.000000,2.000000,4.000000,4.000000,,,,,,,,,,,,,,,,,,,,,,,,,,,,,,,,,,,,,,,,,,,,,,,,,,,,,,,,
1577418831.582008,36.000000,0.000000,4189.230957,4363.589844,4114.871582,4133.333496,4201.538574,0.000000,4.000000,,,,0.000000,4.000000,4.000000,2.000000,4.000000,4.000000,,,,,,,,,,,,,,,,,,,,,,,,,,,,,,,,,,,,,,,,,,,,,,,,,,,,,,,,
1577418831.589711,37.000000,0.000000,4185.128418,4350.769043,4112.820313,4133.846191,4204.102539,0.000000,4.000000,,,,0.000000,4.000000,4.000000,2.000000,4.000000,4.000000,,,,,,,,,,,,,,,,,,,,,,,,,,,,,,,,,,,,,,,,,,,,,,,,,,,,,,,,
1577418831.597514,38.000000,0.000000,4184.102539,4352.820313,4105.641113,4140.000000,4204.102539,0.000000,4.000000,,,,0.000000,4.000000,4.000000,2.000000,4.000000,4.000000,,,,,,,,,,,,,,,,,,,,,,,,,,,,,,,,,,,,,,,,,,,,,,,,,,,,,,,,
1577418831.605217,39.000000,0.000000,4189.743652,4364.102539,4118.974121,4149.743652,4211.282227,0.000000,4.000000,,,,0.000000,4.000000,4.000000,2.000000,4.000000,4.000000,,,,,,,,,,,,,,,,,,,,,,,,,,,,,,,,,,,,,,,,,,,,,,,,,,,,,,,,
1577418831.613020,40.000000,0.000000,4189.230957,4370.256348,4114.358887,4144.615234,4210.256348,0.000000,4.000000,,,,0.000000,4.000000,4.000000,2.000000,4.000000,4.000000,,,,,,,,,,,,,,,,,,,,,,,,,,,,,,,,,,,,,,,,,,,,,,,,,,,,,,,,
1577418831.620822,41.000000,0.000000,4184.615234,4363.077148,4101.538574,4135.384766,4201.025879,0.000000,4.000000,,,,0.000000,4.000000,4.000000,2.000000,4.000000,4.000000,,,,,,,,,,,,,,,,,,,,,,,,,,,,,,,,27.577784,2.272370,0.759075,0.869395,0.439609,0.464780,0.907737,0.974565,1.212789,1.694191,0.974102,0.873307,0.660416,0.551551,0.366928,1.497458,0.569582,0.548370,0.457160,0.322990,10.053385,1.316380,0.698181,1.046352,0.453708
1577418831.628525,42.000000,0.000000,4194.358887,4351.794922,4110.256348,4147.179688,4205.641113,0.000000,4.000000,,,,0.000000,4.000000,4.000000,2.000000,4.000000,4.000000,,,,,,,,,,,,,,,,,,,,,,,,,,,,,,,,,,,,,,,,,,,,,,,,,,,,,,,,
1577418831.636428,43.000000,0.000000,4204.102539,4354.358887,4112.307617,4150.256348,4211.794922,0.000000,4.000000,,,,0.000000,4.000000,4.000000,2.000000,4.000000,4.000000,,,,,,,,,,,,,,,,,,,,,,,,,,,,,,,,,,,,,,,,,,,,,,,,,,,,,,,,
1577418831.644232,44.000000,0.000000,4191.282227,4369.743652,4115.384766,4138.974121,4200.000000,0.000000,4.000000,,,,0.000000,4.000000,4.000000,2.000000,4.000000,4.000000,,,,,,,,,,,,,,,,,,,,,,,,,,,,,,,,,,,,,,,,,,,,,,,,,,,,,,,,
1577418831.652035,45.000000,0.000000,4187.692383,4363.589844,4107.692383,4149.230957,4195.384766,0.000000,4.000000,,,,0.000000,4.000000,4.000000,2.000000,4.000000,4.000000,,,,,,,,,,,,,,,,,,,,,,,,,,,,,,,,,,,,,,,,,,,,,,,,,,,,,,,,
1577418831.659938,46.000000,0.000000,4200.000000,4350.256348,4107.692383,4163.589844,4205.641113,0.000000,4.000000,,,,0.000000,4.000000,4.000000,2.000000,4.000000,4.000000,,,,,,,,,,,,,,,,,,,,,,,,,,,,,,,,,,,,,,,,,,,,,,,,,,,,,,,,
1577418831.667741,47.000000,0.000000,4203.077148,4365.128418,4120.512695,4152.307617,4208.205078,0.000000,4.000000,,,,0.000000,4.000000,4.000000,2.000000,4.000000,4.000000,,,,,,,,,,,,,,,,,,,,,,,,,,,,,,,,,,,,,,,,,,,,,,,,,,,,,,,,
1577418831.675544,48.000000,0.000000,4203.077148,4376.410156,4112.820313,4143.589844,4203.589844,0.000000,4.000000,,,,0.000000,4.000000,4.000000,2.000000,4.000000,4.000000,,,,,,,,,,,,,,,,,,,,,,,,,,,,,,,,,,,,,,,,,,,,,,,,,,,,,,,,
1577418831.683246,49.000000,0.000000,4201.025879,4365.641113,4121.025879,4156.410156,4205.641113,0.000000,4.000000,,,,0.000000,4.000000,4.000000,2.000000,4.000000,4.000000,,,,,,,,,,,,,,,,,,,,,,,,,,,,,,,,,,,,,,,,,,,,,,,,,,,,,,,,
1577418831.690949,50.000000,0.000000,4195.897461,4358.974121,4122.051270,4159.487305,4202.563965,0.000000,4.000000,,,,0.000000,4.000000,4.000000,2.000000,4.000000,4.000000,,,,,,,,,,,,,,,,,,,,,,,,,,,,,,,,,,,,,,,,,,,,,,,,,,,,,,,,
1577418831.698852,51.000000,0.000000,4194.358887,4353.846191,4113.333496,4150.769043,4193.846191,0.000000,4.000000,,,,0.000000,4.000000,4.000000,2.000000,4.000000,4.000000,,,,,,,,,,,,,,,,,,,,,,,,,,,,,,,,,,,,,,,,,,,,,,,,,,,,,,,,
1577418831.706655,52.000000,0.000000,4188.717773,4352.820313,4126.666504,4151.282227,4190.769043,0.000000,4.000000,,,,0.000000,4.000000,4.000000,2.000000,4.000000,4.000000,,,,,,,,,,,,,,,,,,,,,,,,,,,,,,,,,,,,,,,,,,,,,,,,,,,,,,,,
1577418831.714558,53.000000,0.000000,4177.436035,4370.769043,4121.538574,4148.205078,4183.077148,0.000000,4.000000,,,,0.000000,4.000000,4.000000,2.000000,4.000000,4.000000,,,,,,,,,,,,,,,,,,,,,,,,,,,,,,,,,,,,,,,,,,,,,,,,,,,,,,,,
1577418831.722361,54.000000,0.000000,4176.922852,4368.717773,4119.487305,4147.179688,4178.461426,0.000000,4.000000,,,,0.000000,4.000000,4.000000,2.000000,4.000000,4.000000,,,,,,,,,,,,,,,,,,,,,,,,,,,,,,,,,,,,,,,,,,,,,,,,,,,,,,,,
1577418831.730264,55.000000,0.000000,4187.179688,4349.230957,4121.538574,4149.743652,4182.563965,0.000000,4.000000,,,,0.000000,4.000000,4.000000,2.000000,4.000000,4.000000,,,,,,,,,,,,,,,,,,,,,,,,,,,,,,,,,,,,,,,,,,,,,,,,,,,,,,,,
1577418831.738067,56.000000,0.000000,4187.692383,4359.487305,4120.512695,4145.128418,4179.487305,0.000000,4.000000,,,,0.000000,4.000000,4.000000,2.000000,4.000000,4.000000,,,,,,,,,,,,,,,,,,,,,,,,,,,,,,,,,,,,,,,,,,,,,,,,,,,,,,,,
1577418831.745970,57.000000,0.000000,4181.025879,4364.102539,4133.333496,4145.641113,4177.436035,0.000000,4.000000,,,,0.000000,4.000000,4.000000,2.000000,4.000000,4.000000,,,,,,,,,,,,,,,,,,,,,,,,,,,,,,,,30.417730,3.221611,1.195557,0.854906,0.462755,0.376293,0.940079,0.811632,1.349974,1.566622,1.217123,1.034111,0.678541,0.563922,0.363121,1.655988,0.450239,0.416410,0.456321,0.333968,11.184344,1.577268,0.971781,1.003522,0.459899
1577418831.753873,58.000000,0.000000,4184.615234,4352.307617,4116.410156,4147.179688,4183.077148,0.000000,4.000000,,,,0.000000,4.000000,4.000000,2.000000,4.000000,4.000000,,,,,,,,,,,,,,,,,,,,,,,,,,,,,,,,,,,,,,,,,,,,,,,,,,,,,,,,
1577418831.761676,59.000000,0.000000,4190.769043,4357.948730,4105.641113,4144.615234,4186.666504,0.000000,4.000000,,,,0.000000,4.000000,4.000000,2.000000,4.000000,4.000000,,,,,,,,,,,,,,,,,,,,,,,,,,,,,,,,,,,,,,,,,,,,,,,,,,,,,,,,
1577418831.769579,60.000000,0.000000,4192.307617,4369.230957,4113.333496,4146.153809,4187.179688,0.000000,4.000000,,,,0.000000,4.000000,4.000000,2.000000,4.000000,4.000000,,,,,,,,,,,,,,,,,,,,,,,,,,,,,,,,,,,,,,,,,,,,,,,,,,,,,,,,
1577418831.777382,61.000000,0.000000,4192.307617,4367.179688,4106.666504,4144.102539,4181.538574,0.000000,4.000000,,,,0.000000,4.000000,4.000000,2.000000,4.000000,4.000000,,,,,,,,,,,,,,,,,,,,,,,,,,,,,,,,,,,,,,,,,,,,,,,,,,,,,,,,
1577418831.785286,62.000000,0.000000,4195.897461,4365.641113,4116.410156,4139.487305,4177.948730,0.000000,4.000000,,,,0.000000,4.000000,4.000000,2.000000,4.000000,4.000000,,,,,,,,,,,,,,,,,,,,,,,,,,,,,,,,,,,,,,,,,,,,,,,,,,,,,,,,
1577418831.793189,63.000000,0.000000,4201.025879,4377.948730,4122.563965,4139.487305,4185.641113,0.000000,4.000000,,,,0.000000,4.000000,4.000000,2.000000,4.000000,4.000000,,,,,,,,,,,,,,,,,,,,,,,,,,,,,,,,,,,,,,,,,,,,,,,,,,,,,,,,
1577418831.800992,64.000000,0.000000,4189.743652,4375.384766,4123.077148,4132.307617,4186.666504,450.000000,4.000000,,,,0.000000,4.000000,4.000000,2.000000,4.000000,4.000000,,,,,,,,,,,,,,,,,,,,,,,,,,,,,,,,,,,,,,,,,,,,,,,,,,,,,,,,
1577418831.808796,65.000000,0.000000,4180.512695,4354.871582,4126.666504,4121.538574,4178.461426,450.000000,4.000000,,,,0.000000,4.000000,4.000000,2.000000,4.000000,4.000000,,,,,,,,,,,,,,,,,,,,,,,,,,,,,,,,,,,,,,,,,,,,,,,,,,,,,,,,
1577418831.816699,66.000000,0.000000,4193.846191,4354.358887,4115.897461,4127.179688,4183.589844,16237.000000,4.000000,,,,0.000000,4.000000,4.000000,2.000000,4.000000,4.000000,,,,,,,,,,,,,,,,,,,,,,,,,,,,,,,,,,,,,,,,,,,,,,,,,,,,,,,,
1577418831.824502,67.000000,0.000000,4201.538574,4370.769043,4125.128418,4140.512695,4191.794922,450.000000,4.000000,,,,0.000000,4.000000,4.000000,2.000000,4.000000,4.000000,,,,,,,,,,,,,,,,,,,,,,,,,,,,,,,,,,,,,,,,,,,,,,,,,,,,,,,,
1577418831.832405,68.000000,0.000000,4203.077148,4374.358887,4127.179688,4140.512695,4188.717773,16220.000000,4.000000,,,,0.000000,4.000000,4.000000,2.000000,4.000000,4.000000,,,,,,,,,,,,,,,,,,,,,,,,,,,,,,,,,,,,,,,,,,,,,,,,,,,,,,,,
1577418831.840208,69.000000,0.000000,4202.563965,4361.538574,4111.794922,4138.461426,4181.538574,450.000000,4.000000,,,,0.000000,4.000000,4.000000,2.000000,4.000000,4.000000,,,,,,,,,,,,,,,,,,,,,,,,,,,,,,,,,,,,,,,,,,,,,,,,,,,,,,,,
1577418831.848111,70.000000,0.000000,4188.717773,4344.615234,4116.922852,4141.025879,4175.384766,316.000000,4.000000,,,,0.000000,4.000000,4.000000,2.000000,4.000000,4.000000,,,,,,,,,,,,,,,,,,,,,,,,,,,,,,,,,,,,,,,,,,,,,,,,,,,,,,,,
1577418831.855915,71.000000,0.000000,4186.153809,4350.769043,4115.897461,4140.000000,4177.948730,450.000000,4.000000,,,,0.000000,4.000000,4.000000,2.000000,4.000000,4.000000,,,,,,,,,,,,,,,,,,,,,,,,,,,,,,,,,,,,,,,,,,,,,,,,,,,,,,,,
1577418831.863818,72.000000,0.000000,4198.974121,4371.282227,4120.512695,4147.692383,4191.794922,450.000000,4.000000,,,,0.000000,4.000000,4.000000,2.000000,4.000000,4.000000,,,,,,,,,,,,,,,,,,,,,,,,,,,,,,,,,,,,,,,,,,,,,,,,,,,,,,,,
1577418831.871621,73.000000,0.000000,4196.922852,4361.538574,4115.384766,4146.666504,4185.128418,16180.000000,4.000000,,,,0.000000,4.000000,4.000000,2.000000,4.000000,4.000000,,,,,,,,,,,,,,,,,,,,,,,,,,,,,,,,33.285164,5.104290,1.870463,0.830125,0.475787,0.341206,0.992605,0.749317,1.466850,1.505509,1.444137,1.195568,0.728714,0.591279,0.366661,1.763799,0.444828,0.322766,0.463312,0.353385,12.314214,2.300065,1.330082,0.933172,0.460446
1577418831.879524,74.000000,0.000000,4181.538574,4348.717773,4099.487305,4125.641113,4161.538574,450.000000,4.000000,,,,0.000000,4.000000,4.000000,2.000000,4.000000,4.000000,,,,,,,,,,,,,,,,,,,,,,,,,,,,,,,,,,,,,,,,,,,,,,,,,,,,,,,,
1577418831.887327,75.000000,0.000000,4186.666504,4371.794922,4114.871582,4127.692383,4160.512695,16237.000000,4.000000,,,,0.000000,4.000000,4.000000,2.000000,4.000000,4.000000,,,,,,,,,,,,,,,,,,,,,,,,,,,,,,,,,,,,,,,,,,,,,,,,,,,,,,,,
1577418831.895230,76.000000,0.000000,4195.897461,4382.051270,4115.384766,4141.538574,4168.717773,450.000000,4.000000,,,,0.000000,4.000000,4.000000,2.000000,4.000000,4.000000,,,,,,,,,,,,,,,,,,,,,,,,,,,,,,,,,,,,,,,,,,,,,,,,,,,,,,,,
1577418831.903034,77.000000,0.000000,4184.102539,4362.563965,4108.205078,4136.410156,4160.512695,450.000000,4.000000,,,,0.000000,4.000000,4.000000,2.000000,4.000000,4.000000,,,,,,,,,,,,,,,,,,,,,,,,,,,,,,,,,,,,,,,,,,,,,,,,,,,,,,,,
1577418831.910936,78.000000,0.000000,4182.563965,4364.615234,4110.769043,4131.794922,4156.922852,450.000000,4.000000,,,,0.000000,4.000000,4.000000,2.000000,4.000000,4.000000,,,,,,,,,,,,,,,,,,,,,,,,,,,,,,,,,,,,,,,,,,,,,,,,,,,,,,,,
1577418831.918739,79.000000,0.000000,4192.820313,4357.436035,4105.128418,4133.846191,4162.563965,16237.000000,4.000000,,,,0.000000,4.000000,4.000000,2.000000,4.000000,4.000000,,,,,,,,,,,,,,,,,,,,,,,,,,,,,,,,,,,,,,,,,,,,,,,,,,,,,,,,
1577418831.926642,80.000000,0.000000,4191.794922,4347.179688,4120.512695,4129.743652,4160.512695,450.000000,4.000000,,,,0.000000,4.000000,4.000000,2.000000,4.000000,4.000000,,,,,,,,,,,,,,,,,,,,,,,,,,,,,,,,,,,,,,,,,,,,,,,,,,,,,,,,
1577418831.934545,81.000000,0.000000,4200.512695,4375.897461,4124.615234,4128.205078,4157.948730,450.000000,4.000000,,,,0.000000,4.000000,4.000000,2.000000,4.000000,4.000000,,,,,,,,,,,,,,,,,,,,,,,,,,,,,,,,,,,,,,,,,,,,,,,,,,,,,,,,
1577418831.942349,82.000000,0.000000,4216.922852,4385.128418,4122.563965,4134.871582,4165.641113,450.000000,4.000000,,,,0.000000,4.000000,4.000000,2.000000,4.000000,4.000000,,,,,,,,,,,,,,,,,,,,,,,,,,,,,,,,,,,,,,,,,,,,,,,,,,,,,,,,
1577418831.950252,83.000000,0.000000,4220.000000,4360.512695,4131.794922,4139.487305,4173.333496,16237.000000,4.000000,,,,0.000000,4.000000,4.000000,2.000000,4.000000,4.000000,,,,,,,,,,,,,,,,,,,,,,,,,,,,,,,,,,,,,,,,,,,,,,,,,,,,,,,,
1577418831.958055,84.000000,0.000000,4215.384766,4356.922852,4121.025879,4136.410156,4169.743652,450.000000,4.000000,,,,0.000000,4.000000,4.000000,2.000000,4.000000,4.000000,,,,,,,,,,,,,,,,,,,,,,,,,,,,,,,,,,,,,,,,,,,,,,,,,,,,,,,,
1577418831.965958,85.000000,0.000000,4222.563965,4368.205078,4120.512695,4140.512695,4169.743652,450.000000,4.000000,,,,0.000000,4.000000,4.000000,2.000000,4.000000,4.000000,,,,,,,,,,,,,,,,,,,,,,,,,,,,,,,,,,,,,,,,,,,,,,,,,,,,,,,,
1577418831.973761,86.000000,0.000000,4237.948730,4375.897461,4120.000000,4146.666504,4176.410156,450.000000,4.000000,,,,0.000000,4.000000,4.000000,2.000000,4.000000,4.000000,,,,,,,,,,,,,,,,,,,,,,,,,,,,,,,,,,,,,,,,,,,,,,,,,,,,,,,,
1577418831.981664,87.000000,0.000000,4233.333496,4368.205078,4117.948730,4144.615234,4171.282227,16237.000000,4.000000,,,,0.000000,4.000000,4.000000,2.000000,4.000000,4.000000,,,,,,,,,,,,,,,,,,,,,,,,,,,,,,,,,,,,,,,,,,,,,,,,,,,,,,,,
1577418831.989467,88.000000,0.000000,4223.589844,4350.769043,4128.205078,4146.153809,4161.538574,450.000000,4.000000,,,,0.000000,4.000000,4.000000,2.000000,4.000000,4.000000,,,,,,,,,,,,,,,,,,,,,,,,,,,,,,,,,,,,,,,,,,,,,,,,,,,,,,,,
1577418831.997371,89.000000,0.000000,4235.384766,4359.487305,4118.461426,4144.615234,4168.205078,450.000000,4.000000,,,,0.000000,4.000000,4.000000,2.000000,4.000000,4.000000,,,,,,,,,,,,,,,,,,,,,,,,,,,,,,,,36.904716,7.534532,2.644661,0.803013,0.475470,0.358924,1.012195,0.758504,1.530442,1.506673,1.507665,1.307071,0.783356,0.612230,0.381346,1.799791,0.514193,0.255092,0.474726,0.381706,13.642356,3.227029,1.670444,0.833628,0.456072
1577418832.005174,90.000000,0.000000,4235.897461,4378.974121,4115.384766,4135.897461,4168.205078,450.000000,4.000000,,,,0.000000,4.000000,4.000000,2.000000,4.000000,4.000000,,,,,,,,,,,,,,,,,,,,,,,,,,,,,,,,,,,,,,,,,,,,,,,,,,,,,,,,
1577418832.013077,91.000000,0.000000,4216.922852,4368.717773,4112.307617,4126.666504,4146.666504,16237.000000,4.000000,,,,0.000000,4.000000,4.000000,2.000000,4.000000,4.000000,,,,,,,,,,,,,,,,,,,,,,,,,,,,,,,,,,,,,,,,,,,,,,,,,,,,,,,,
1577418832.020880,92.000000,0.000000,4222.051270,4353.846191,4106.153809,4124.102539,4142.563965,450.000000,4.000000,,,,0.000000,4.000000,4.000000,2.000000,4.000000,4.000000,,,,,,,,,,,,,,,,,,,,,,,,,,,,,,,,,,,,,,,,,,,,,,,,,,,,,,,,
1577418832.028783,93.000000,0.000000,4243.077148,4362.563965,4126.153809,4131.794922,4157.948730,450.000000,4.000000,,,,0.000000,4.000000,4.000000,2.000000,4.000000,4.000000,,,,,,,,,,,,,,,,,,,,,,,,,,,,,,,,,,,,,,,,,,,,,,,,,,,,,,,,
1577418832.036586,94.000000,0.000000,4250.256348,4369.230957,4131.794922,4137.948730,4165.128418,450.000000,4.000000,,,,0.000000,4.000000,4.000000,2.000000,4.000000,4.000000,,,,,,,,,,,,,,,,,,,,,,,,,,,,,,,,,,,,,,,,,,,,,,,,,,,,,,,,
1577418832.044489,95.000000,0.000000,4252.307617,4357.948730,4132.307617,4137.948730,4172.307617,16237.000000,4.000000,,,,0.000000,4.000000,4.000000,2.000000,4.000000,4.000000,,,,,,,,,,,,,,,,,,,,,,,,,,,,,,,,,,,,,,,,,,,,,,,,,,,,,,,,
1577418832.052293,96.000000,0.000000,4255.384766,4354.358887,4137.436035,4132.820313,4174.358887,450.000000,4.000000,,,,0.000000,4.000000,4.000000,2.000000,4.000000,4.000000,,,,,,,,,,,,,,,,,,,,,,,,,,,,,,,,,,,,,,,,,,,,,,,,,,,,,,,,
1577418832.060196,97.000000,0.000000,4256.922852,4364.615234,4135.897461,4124.615234,4171.794922,450.000000,4.000000,,,,0.000000,4.000000,4.000000,2.000000,4.000000,4.000000,,,,,,,,,,,,,,,,,,,,,,,,,,,,,,,,,,,,,,,,,,,,,,,,,,,,,,,,
1577418832.068099,98.000000,0.000000,4263.589844,4363.077148,4149.230957,4133.846191,4185.641113,450.000000,4.000000,,,,0.000000,4.000000,4.000000,2.000000,4.000000,4.000000,,,,,,,,,,,,,,,,,,,,,,,,,,,,,,,,,,,,,,,,,,,,,,,,,,,,,,,,
1577418832.075902,99.000000,0.000000,4278.461426,4352.307617,4139.487305,4148.717773,4202.051270,16237.000000,4.000000,,,,0.000000,4.000000,4.000000,2.000000,4.000000,4.000000,,,,,,,,,,,,,,,,,,,,,,,,,,,,,,,,,,,,,,,,,,,,,,,,,,,,,,,,
1577418832.083705,100.000000,0.000000,4273.333496,4361.538574,4130.256348,4143.077148,4192.307617,450.000000,4.000000,,,,0.000000,4.000000,4.000000,2.000000,4.000000,4.000000,,,,,,,,,,,,,,,,,,,,,,,,,,,,,,,,,,,,,,,,,,,,,,,,,,,,,,,,
1577418832.091608,101.000000,0.000000,4259.487305,4370.256348,4137.436035,4133.333496,4173.846191,450.000000,4.000000,,,,0.000000,4.000000,4.000000,2.000000,4.000000,4.000000,,,,,,,,,,,,,,,,,,,,,,,,,,,,,,,,,,,,,,,,,,,,,,,,,,,,,,,,
1577418832.099511,102.000000,0.000000,4261.025879,4356.922852,4125.641113,4135.897461,4175.897461,450.000000,4.000000,,,,0.000000,4.000000,4.000000,2.000000,4.000000,4.000000,,,,,,,,,,,,,,,,,,,,,,,,,,,,,,,,,,,,,,,,,,,,,,,,,,,,,,,,
1577418832.107314,103.000000,0.000000,4255.897461,4355.384766,4128.717773,4142.051270,4180.000000,16237.000000,4.000000,,,,0.000000,4.000000,4.000000,2.000000,4.000000,4.000000,,,,,,,,,,,,,,,,,,,,,,,,,,,,,,,,,,,,,,,,,,,,,,,,,,,,,,,,
1577418832.115217,104.000000,0.000000,4244.615234,4361.538574,4128.717773,4133.333496,4170.256348,450.000000,4.000000,,,,0.000000,4.000000,4.000000,2.000000,4.000000,4.000000,,,,,,,,,,,,,,,,,,,,,,,,,,,,,,,,,,,,,,,,,,,,,,,,,,,,,,,,
1577418832.123021,105.000000,0.000000,4237.948730,4341.025879,4126.153809,4121.538574,4163.589844,450.000000,4.000000,,,,0.000000,4.000000,4.000000,2.000000,4.000000,4.000000,,,,,,,,,,,,,,,,,,,,,,,,,,,,,,,,39.875874,9.826678,3.310026,0.778177,0.462401,0.417574,0.985324,0.783495,1.521386,1.540890,1.420121,1.342938,0.819529,0.604428,0.404050,1.754730,0.628855,0.211613,0.484036,0.414859,14.666846,4.073683,1.920953,0.712589,0.447207
1577418832.130924,106.000000,0.000000,4242.051270,4341.538574,4142.563965,4131.794922,4172.820313,450.000000,4.000000,,,,0.000000,4.000000,4.000000,2.000000,4.000000,4.000000,,,,,,,,,,,,,,,,,,,,,,,,,,,,,,,,,,,,,,,,,,,,,,,,,,,,,,,,
1577418832.138727,107.000000,0.000000,4256.922852,4377.948730,4137.948730,4142.563965,4180.512695,16237.000000,4.000000,,,,0.000000,4.000000,4.000000,2.000000,4.000000,4.000000,,,,,,,,,,,,,,,,,,,,,,,,,,,,,,,,,,,,,,,,,,,,,,,,,,,,,,,,
