title:calm_3, start timestamp:2019-12-27T06:54:38.239474+03:00, stop timestamp:2019-12-27T06:55:10.040133+03:00, headset type:INSIGHT, headset serial:A2D200FB, headset firmware:930, subject name:Qasim, channels:75, sampling rate:eeg_128;pm_0.1;pow_8, samples:4079      , version:2.0
Timestamp,EEG.Counter,EEG.Interpolated,EEG.AF3,EEG.T7,EEG.Pz,EEG.T8,EEG.AF4,EEG.RawCq,EEG.Battery,MarkerIndex,MarkerType,MarkerValueInt,EEG.MarkerHardware,CQ.AF3,CQ.T7,CQ.Pz,CQ.T8,CQ.AF4,PM.Engagement.IsActive,PM.Engagement.Scaled,PM.Engagement.Raw,PM.Engagement.Min,PM.Engagement.Max,PM.Excitement.IsActive,PM.Excitement.Scaled,PM.Excitement.Raw,PM.Excitement.Min,PM.Excitement.Max,PM.LongTermExcitement,PM.Stress.IsActive,PM.Stress.Scaled,PM.Stress.Raw,PM.Stress.Min,PM.Stress.Max,PM.Relaxation.IsActive,PM.Relaxation.Scaled,PM.Relaxation.Raw,PM.Relaxation.Min,PM.Relaxation.Max,PM.Interest.IsActive,PM.Interest.Scaled,PM.Interest.Raw,PM.Interest.Min,PM.Interest.Max,PM.Focus.IsActive,PM.Focus.Scaled,PM.Focus.Raw,PM.Focus.Min,PM.Focus.Max,POW.AF3.Theta,POW.AF3.Alpha,POW.AF3.BetaL,POW.AF3.BetaH,POW.AF3.Gamma,POW.T7.Theta,POW.T7.Alpha,POW.T7.BetaL,POW.T7.BetaH,POW.T7.Gamma,POW.Pz.Theta,POW.Pz.Alpha,POW.Pz.BetaL,POW.Pz.BetaH,POW.Pz.Gamma,POW.T8.Theta,POW.T8.Alpha,POW.T8.BetaL,POW.T8.BetaH,POW.T8.Gamma,POW.AF4.Theta,POW.AF4.Alpha,POW.AF4.BetaL,POW.AF4.BetaH,POW.AF4.Gamma
1577418878.239474,4.000000,0.000000,4210.256348,4345.128418,4181.538574,4123.589844,4214.871582,16244.000000,4.000000,,,,0.000000,4.000000,4.000000,0.000000,4.000000,4.000000,,,,,,,,,,,,,,,,,,,,,,,,,,,,,,,,,,,,,,,,,,,,,,,,,,,,,,,,
1577418878.247176,5.000000,0.000000,4191.282227,4328.717773,4178.461426,4114.871582,4190.769043,450.000000,4.000000,,,,0.000000,4.000000,4.000000,0.000000,4.000000,4.000000,,,,,,,,,,,,,,,,,,,,,,,,,,,,,,,,,,,,,,,,,,,,,,,,,,,,,,,,
1577418878.254977,6.000000,0.000000,4186.666504,4344.615234,4169.230957,4101.025879,4187.179688,37.000000,4.000000,,,,0.000000,4.000000,4.000000,0.000000,4.000000,4.000000,,,,,,,,,,,,,,,,,,,,,,,,,,,,,,,,,,,,,,,,,,,,,,,,,,,,,,,,
1577418878.262779,7.000000,0.000000,4179.487305,4371.282227,4251.282227,4106.666504,4186.153809,450.000000,4.000000,,,,0.000000,4.000000,4.000000,0.000000,4.000000,4.000000,,,,,,,,,,,,,,,,,,,,,,,,,,,,,,,,,,,,,,,,,,,,,,,,,,,,,,,,
1577418878.270480,8.000000,0.000000,4172.307617,4371.794922,4260.512695,4101.025879,4173.846191,450.000000,4.000000,,,,0.000000,4.000000,4.000000,0.000000,4.000000,4.000000,,,,,,,,,,,,,,,,,,,,,,,,,,,,,,,,,,,,,,,,,,,,,,,,,,,,,,,,
1577418878.278182,9.000000,0.000000,4172.820313,4357.436035,4235.384766,4089.743652,4155.897461,16203.000000,4.000000,,,,0.000000,4.000000,4.000000,0.000000,4.000000,4.000000,,,,,,,,,,,,,,,,,,,,,,,,,,,,,,,,20.074789,8.323447,2.823236,1.036860,0.795931,0.402927,0.628742,0.850845,2.314674,1.626777,21.696268,7.195537,6.172614,51.161732,28.665676,2.790272,0.311087,0.606838,0.916162,0.447492,9.061947,4.026510,1.775315,1.099091,0.629729
1577418878.285983,10.000000,0.000000,4188.205078,4366.153809,4188.717773,4107.179688,4162.051270,450.000000,4.000000,,,,0.000000,4.000000,4.000000,0.000000,4.000000,4.000000,,,,,,,,,,,,,,,,,,,,,,,,,,,,,,,,,,,,,,,,,,,,,,,,,,,,,,,,
1577418878.293685,11.000000,0.000000,4195.897461,4370.256348,4142.563965,4112.307617,4171.282227,16202.000000,4.000000,,,,0.000000,4.000000,4.000000,0.000000,4.000000,4.000000,,,,,,,,,,,,,,,,,,,,,,,,,,,,,,,,,,,,,,,,,,,,,,,,,,,,,,,,
1577418878.301487,12.000000,0.000000,4177.436035,4359.487305,4228.205078,4107.692383,4162.051270,450.000000,4.000000,,,,0.000000,4.000000,4.000000,0.000000,4.000000,4.000000,,,,,,,,,,,,,,,,,,,,,,,,,,,,,,,,,,,,,,,,,,,,,,,,,,,,,,,,
1577418878.309188,13.000000,0.000000,4182.051270,4366.153809,4263.077148,4115.384766,4168.205078,450.000000,4.000000,,,,0.000000,4.000000,4.000000,0.000000,4.000000,4.000000,,,,,,,,,,,,,,,,,,,,,,,,,,,,,,,,,,,,,,,,,,,,,,,,,,,,,,,,
1577418878.316989,14.000000,0.000000,4201.538574,4358.461426,4218.461426,4117.948730,4176.410156,450.000000,4.000000,,,,0.000000,4.000000,4.000000,0.000000,4.000000,4.000000,,,,,,,,,,,,,,,,,,,,,,,,,,,,,,,,,,,,,,,,,,,,,,,,,,,,,,,,
1577418878.324691,15.000000,0.000000,4207.692383,4348.717773,4153.333496,4115.384766,4180.512695,16202.000000,4.000000,,,,0.000000,4.000000,4.000000,0.000000,4.000000,4.000000,,,,,,,,,,,,,,,,,,,,,,,,,,,,,,,,,,,,,,,,,,,,,,,,,,,,,,,,
1577418878.332492,16.000000,0.000000,4213.333496,4364.102539,4118.974121,4116.410156,4197.436035,0.000000,4.000000,,,,0.000000,4.000000,4.000000,0.000000,4.000000,4.000000,,,,,,,,,,,,,,,,,,,,,,,,,,,,,,,,,,,,,,,,,,,,,,,,,,,,,,,,
1577418878.340193,17.000000,0.000000,4207.179688,4378.461426,4215.384766,4121.025879,4195.897461,0.000000,4.000000,,,,0.000000,4.000000,4.000000,0.000000,4.000000,4.000000,,,,,,,,,,,,,,,,,,,,,,,,,,,,,,,,,,,,,,,,,,,,,,,,,,,,,,,,
1577418878.347995,18.000000,0.000000,4207.179688,4387.179688,4266.153809,4112.307617,4179.487305,0.000000,4.000000,,,,0.000000,4.000000,4.000000,0.000000,4.000000,4.000000,,,,,,,,,,,,,,,,,,,,,,,,,,,,,,,,,,,,,,,,,,,,,,,,,,,,,,,,
1577418878.355696,19.000000,0.000000,4212.820313,4380.512695,4184.615234,4108.205078,4176.922852,0.000000,4.000000,,,,0.000000,4.000000,4.000000,0.000000,4.000000,4.000000,,,,,,,,,,,,,,,,,,,,,,,,,,,,,,,,,,,,,,,,,,,,,,,,,,,,,,,,
1577418878.363497,20.000000,0.000000,4210.256348,4372.820313,4098.461426,4120.512695,4178.974121,0.000000,4.000000,,,,0.000000,4.000000,4.000000,0.000000,4.000000,4.000000,,,,,,,,,,,,,,,,,,,,,,,,,,,,,,,,,,,,,,,,,,,,,,,,,,,,,,,,
1577418878.371199,21.000000,0.000000,4207.179688,4381.538574,4098.974121,4109.230957,4162.563965,0.000000,4.000000,,,,0.000000,4.000000,4.000000,0.000000,4.000000,4.000000,,,,,,,,,,,,,,,,,,,,,,,,,,,,,,,,,,,,,,,,,,,,,,,,,,,,,,,,
1577418878.378900,22.000000,0.000000,4189.230957,4368.717773,4205.641113,4089.230713,4128.205078,0.000000,4.000000,,,,0.000000,4.000000,4.000000,0.000000,4.000000,4.000000,,,,,,,,,,,,,,,,,,,,,,,,,,,,,,,,,,,,,,,,,,,,,,,,,,,,,,,,
1577418878.386702,23.000000,0.000000,4183.589844,4350.769043,4228.717773,4087.179443,4126.153809,0.000000,4.000000,,,,0.000000,4.000000,4.000000,0.000000,4.000000,4.000000,,,,,,,,,,,,,,,,,,,,,,,,,,,,,,,,,,,,,,,,,,,,,,,,,,,,,,,,
1577418878.394404,24.000000,0.000000,4186.153809,4374.358887,4171.794922,4091.281982,4142.051270,0.000000,4.000000,,,,0.000000,4.000000,4.000000,0.000000,4.000000,4.000000,,,,,,,,,,,,,,,,,,,,,,,,,,,,,,,,,,,,,,,,,,,,,,,,,,,,,,,,
1577418878.402205,25.000000,0.000000,4180.512695,4401.025879,4206.666504,4096.410156,4137.948730,0.000000,4.000000,,,,0.000000,4.000000,4.000000,0.000000,4.000000,4.000000,,,,,,,,,,,,,,,,,,,,,,,,,,,,,,,,18.431877,7.588010,2.670609,1.116211,0.751523,0.400843,0.614859,0.947462,2.321267,1.602470,22.605984,7.987990,6.530100,49.882889,29.811249,2.829819,0.508465,0.649133,0.860914,0.373949,8.998126,4.033631,1.776809,1.072073,0.604902
1577418878.409907,26.000000,0.000000,4196.922852,4374.871582,4225.641113,4108.717773,4149.743652,0.000000,4.000000,,,,0.000000,4.000000,4.000000,0.000000,4.000000,4.000000,,,,,,,,,,,,,,,,,,,,,,,,,,,,,,,,,,,,,,,,,,,,,,,,,,,,,,,,
1577418878.417708,27.000000,0.000000,4206.153809,4343.077148,4205.641113,4130.256348,4173.333496,0.000000,4.000000,,,,0.000000,4.000000,4.000000,0.000000,4.000000,4.000000,,,,,,,,,,,,,,,,,,,,,,,,,,,,,,,,,,,,,,,,,,,,,,,,,,,,,,,,
1577418878.425410,28.000000,0.000000,4212.820313,4376.410156,4149.230957,4137.948730,4187.692383,0.000000,4.000000,,,,0.000000,4.000000,4.000000,0.000000,4.000000,4.000000,,,,,,,,,,,,,,,,,,,,,,,,,,,,,,,,,,,,,,,,,,,,,,,,,,,,,,,,
1577418878.433211,29.000000,0.000000,4224.615234,4411.794922,4146.153809,4128.717773,4184.615234,0.000000,4.000000,,,,0.000000,4.000000,4.000000,0.000000,4.000000,4.000000,,,,,,,,,,,,,,,,,,,,,,,,,,,,,,,,,,,,,,,,,,,,,,,,,,,,,,,,
1577418878.440913,30.000000,0.000000,4227.179688,4396.410156,4282.051270,4134.871582,4181.538574,0.000000,4.000000,,,,0.000000,4.000000,4.000000,0.000000,4.000000,4.000000,,,,,,,,,,,,,,,,,,,,,,,,,,,,,,,,,,,,,,,,,,,,,,,,,,,,,,,,
1577418878.448715,31.000000,0.000000,4245.128418,4383.077148,4309.743652,4146.153809,4198.974121,0.000000,4.000000,,,,0.000000,4.000000,4.000000,0.000000,4.000000,4.000000,,,,,,,,,,,,,,,,,,,,,,,,,,,,,,,,,,,,,,,,,,,,,,,,,,,,,,,,
1577418878.456416,32.000000,0.000000,4255.897461,4386.666504,4211.794922,4159.487305,4203.077148,0.000000,4.000000,,,,0.000000,4.000000,4.000000,0.000000,4.000000,4.000000,,,,,,,,,,,,,,,,,,,,,,,,,,,,,,,,,,,,,,,,,,,,,,,,,,,,,,,,
1577418878.464218,33.000000,0.000000,4249.743652,4387.692383,4118.461426,4153.333496,4199.487305,0.000000,4.000000,,,,0.000000,4.000000,4.000000,0.000000,4.000000,4.000000,,,,,,,,,,,,,,,,,,,,,,,,,,,,,,,,,,,,,,,,,,,,,,,,,,,,,,,,
1577418878.471919,34.000000,0.000000,4244.615234,4378.461426,4118.974121,4124.615234,4194.358887,0.000000,4.000000,,,,0.000000,4.000000,4.000000,0.000000,4.000000,4.000000,,,,,,,,,,,,,,,,,,,,,,,,,,,,,,,,,,,,,,,,,,,,,,,,,,,,,,,,
1577418878.479721,35.000000,0.000000,4233.846191,4371.282227,4257.948730,4129.743652,4180.000000,0.000000,4.000000,,,,0.000000,4.000000,4.000000,0.000000,4.000000,4.000000,,,,,,,,,,,,,,,,,,,,,,,,,,,,,,,,,,,,,,,,,,,,,,,,,,,,,,,,
1577418878.487423,36.000000,0.000000,4236.922852,4383.589844,4280.512695,4143.077148,4182.563965,0.000000,4.000000,,,,0.000000,4.000000,4.000000,0.000000,4.000000,4.000000,,,,,,,,,,,,,,,,,,,,,,,,,,,,,,,,,,,,,,,,,,,,,,,,,,,,,,,,
1577418878.495224,37.000000,0.000000,4237.436035,4386.153809,4154.358887,4150.769043,4189.230957,0.000000,4.000000,,,,0.000000,4.000000,4.000000,0.000000,4.000000,4.000000,,,,,,,,,,,,,,,,,,,,,,,,,,,,,,,,,,,,,,,,,,,,,,,,,,,,,,,,
1577418878.502925,38.000000,0.000000,4231.282227,4380.000000,4055.897461,4161.538574,4185.641113,0.000000,4.000000,,,,0.000000,4.000000,4.000000,0.000000,4.000000,4.000000,,,,,,,,,,,,,,,,,,,,,,,,,,,,,,,,,,,,,,,,,,,,,,,,,,,,,,,,
1577418878.510727,39.000000,0.000000,4234.871582,4380.000000,4094.871826,4153.333496,4182.563965,0.000000,4.000000,,,,0.000000,4.000000,4.000000,0.000000,4.000000,4.000000,,,,,,,,,,,,,,,,,,,,,,,,,,,,,,,,,,,,,,,,,,,,,,,,,,,,,,,,
1577418878.518428,40.000000,0.000000,4218.974121,4365.128418,4237.948730,4161.538574,4173.846191,0.000000,4.000000,,,,0.000000,4.000000,4.000000,0.000000,4.000000,4.000000,,,,,,,,,,,,,,,,,,,,,,,,,,,,,,,,,,,,,,,,,,,,,,,,,,,,,,,,
1577418878.526229,41.000000,0.000000,4210.769043,4362.563965,4236.922852,4167.179688,4180.512695,0.000000,4.000000,,,,0.000000,4.000000,4.000000,0.000000,4.000000,4.000000,,,,,,,,,,,,,,,,,,,,,,,,,,,,,,,,14.646721,6.190808,2.377863,1.225681,0.687439,0.421669,0.586610,1.021576,2.159209,1.622522,23.591927,8.527229,6.444124,48.662579,30.613319,2.758953,0.764910,0.660340,0.796697,0.337498,8.534576,3.894873,1.728025,0.965686,0.549174
1577418878.533931,42.000000,0.000000,4219.487305,4377.436035,4163.589844,4144.102539,4195.384766,0.000000,4.000000,,,,0.000000,4.000000,4.000000,0.000000,4.000000,4.000000,,,,,,,,,,,,,,,,,,,,,,,,,,,,,,,,,,,,,,,,,,,,,,,,,,,,,,,,
1577418878.541732,43.000000,0.000000,4221.538574,4378.461426,4179.487305,4145.641113,4187.692383,0.000000,4.000000,,,,0.000000,4.000000,4.000000,0.000000,4.000000,4.000000,,,,,,,,,,,,,,,,,,,,,,,,,,,,,,,,,,,,,,,,,,,,,,,,,,,,,,,,
1577418878.549434,44.000000,0.000000,4220.000000,4366.153809,4171.794922,4154.871582,4176.410156,0.000000,4.000000,,,,0.000000,4.000000,4.000000,0.000000,4.000000,4.000000,,,,,,,,,,,,,,,,,,,,,,,,,,,,,,,,,,,,,,,,,,,,,,,,,,,,,,,,
1577418878.557235,45.000000,0.000000,4208.205078,4358.974121,4173.333496,4153.333496,4172.307617,0.000000,4.000000,,,,0.000000,4.000000,4.000000,0.000000,4.000000,4.000000,,,,,,,,,,,,,,,,,,,,,,,,,,,,,,,,,,,,,,,,,,,,,,,,,,,,,,,,
1577418878.564936,46.000000,0.000000,4221.025879,4368.717773,4165.128418,4158.974121,4183.077148,0.000000,4.000000,,,,0.000000,4.000000,4.000000,0.000000,4.000000,4.000000,,,,,,,,,,,,,,,,,,,,,,,,,,,,,,,,,,,,,,,,,,,,,,,,,,,,,,,,
1577418878.572638,47.000000,0.000000,4231.794922,4360.512695,4155.897461,4159.487305,4189.743652,0.000000,4.000000,,,,0.000000,4.000000,4.000000,0.000000,4.000000,4.000000,,,,,,,,,,,,,,,,,,,,,,,,,,,,,,,,,,,,,,,,,,,,,,,,,,,,,,,,
1577418878.580439,48.000000,0.000000,4208.717773,4353.333496,4242.051270,4157.948730,4168.717773,0.000000,4.000000,,,,0.000000,4.000000,4.000000,0.000000,4.000000,4.000000,,,,,,,,,,,,,,,,,,,,,,,,,,,,,,,,,,,,,,,,,,,,,,,,,,,,,,,,
1577418878.588241,49.000000,0.000000,4195.384766,4367.692383,4256.922852,4145.128418,4157.948730,0.000000,4.000000,,,,0.000000,4.000000,4.000000,0.000000,4.000000,4.000000,,,,,,,,,,,,,,,,,,,,,,,,,,,,,,,,,,,,,,,,,,,,,,,,,,,,,,,,
1577418878.595942,50.000000,0.000000,4183.077148,4356.922852,4180.000000,4133.846191,4157.948730,0.000000,4.000000,,,,0.000000,4.000000,4.000000,0.000000,4.000000,4.000000,,,,,,,,,,,,,,,,,,,,,,,,,,,,,,,,,,,,,,,,,,,,,,,,,,,,,,,,
1577418878.603744,51.000000,0.000000,4190.769043,4353.333496,4101.538574,4133.333496,4157.436035,0.000000,4.000000,,,,0.000000,4.000000,4.000000,0.000000,4.000000,4.000000,,,,,,,,,,,,,,,,,,,,,,,,,,,,,,,,,,,,,,,,,,,,,,,,,,,,,,,,
1577418878.611445,52.000000,0.000000,4205.128418,4366.666504,4116.410156,4130.769043,4161.538574,0.000000,4.000000,,,,0.000000,4.000000,4.000000,0.000000,4.000000,4.000000,,,,,,,,,,,,,,,,,,,,,,,,,,,,,,,,,,,,,,,,,,,,,,,,,,,,,,,,
1577418878.619246,53.000000,0.000000,4180.000000,4354.871582,4268.205078,4145.128418,4149.230957,0.000000,4.000000,,,,0.000000,4.000000,4.000000,0.000000,4.000000,4.000000,,,,,,,,,,,,,,,,,,,,,,,,,,,,,,,,,,,,,,,,,,,,,,,,,,,,,,,,
1577418878.626948,54.000000,0.000000,4172.307617,4339.487305,4305.128418,4145.641113,4153.333496,0.000000,4.000000,,,,0.000000,4.000000,4.000000,0.000000,4.000000,4.000000,,,,,,,,,,,,,,,,,,,,,,,,,,,,,,,,,,,,,,,,,,,,,,,,,,,,,,,,
1577418878.634749,55.000000,0.000000,4184.102539,4333.846191,4223.077148,4129.743652,4171.282227,0.000000,4.000000,,,,0.000000,4.000000,4.000000,0.000000,4.000000,4.000000,,,,,,,,,,,,,,,,,,,,,,,,,,,,,,,,,,,,,,,,,,,,,,,,,,,,,,,,
1577418878.642450,56.000000,0.000000,4182.563965,4349.230957,4129.230957,4137.948730,4163.077148,0.000000,4.000000,,,,0.000000,4.000000,4.000000,0.000000,4.000000,4.000000,,,,,,,,,,,,,,,,,,,,,,,,,,,,,,,,,,,,,,,,,,,,,,,,,,,,,,,,
1577418878.650252,57.000000,0.000000,4180.512695,4356.410156,4097.436035,4138.461426,4156.922852,0.000000,4.000000,,,,0.000000,4.000000,4.000000,0.000000,4.000000,4.000000,,,,,,,,,,,,,,,,,,,,,,,,,,,,,,,,10.288685,4.803931,2.032926,1.347326,0.621530,0.453030,0.570858,1.079040,1.896269,1.682858,24.556295,8.486804,6.036801,47.388557,30.800339,2.618903,1.075889,0.639311,0.738675,0.337646,7.942418,3.868747,1.629680,0.803104,0.480494
1577418878.657953,58.000000,0.000000,4170.769043,4329.230957,4211.794922,4136.410156,4160.000000,0.000000,4.000000,,,,0.000000,4.000000,4.000000,0.000000,4.000000,4.000000,,,,,,,,,,,,,,,,,,,,,,,,,,,,,,,,,,,,,,,,,,,,,,,,,,,,,,,,
1577418878.665655,59.000000,0.000000,4167.692383,4333.333496,4235.384766,4146.153809,4158.461426,0.000000,4.000000,,,,0.000000,4.000000,4.000000,0.000000,4.000000,4.000000,,,,,,,,,,,,,,,,,,,,,,,,,,,,,,,,,,,,,,,,,,,,,,,,,,,,,,,,
1577418878.673456,60.000000,0.000000,4169.743652,4359.487305,4167.179688,4150.769043,4164.615234,0.000000,4.000000,,,,0.000000,4.000000,4.000000,0.000000,4.000000,4.000000,,,,,,,,,,,,,,,,,,,,,,,,,,,,,,,,,,,,,,,,,,,,,,,,,,,,,,,,
1577418878.681158,61.000000,0.000000,4173.846191,4355.384766,4136.410156,4168.205078,4181.025879,0.000000,4.000000,,,,0.000000,4.000000,4.000000,0.000000,4.000000,4.000000,,,,,,,,,,,,,,,,,,,,,,,,,,,,,,,,,,,,,,,,,,,,,,,,,,,,,,,,
1577418878.688959,62.000000,0.000000,4194.358887,4347.179688,4114.871582,4170.256348,4193.846191,0.000000,4.000000,,,,0.000000,4.000000,4.000000,0.000000,4.000000,4.000000,,,,,,,,,,,,,,,,,,,,,,,,,,,,,,,,,,,,,,,,,,,,,,,,,,,,,,,,
1577418878.696761,63.000000,0.000000,4199.487305,4348.717773,4173.333496,4161.538574,4192.820313,0.000000,4.000000,,,,0.000000,4.000000,4.000000,0.000000,4.000000,4.000000,,,,,,,,,,,,,,,,,,,,,,,,,,,,,,,,,,,,,,,,,,,,,,,,,,,,,,,,
1577418878.704462,64.000000,0.000000,4194.871582,4349.743652,4202.051270,4160.512695,4189.230957,450.000000,4.000000,,,,0.000000,4.000000,4.000000,0.000000,4.000000,4.000000,,,,,,,,,,,,,,,,,,,,,,,,,,,,,,,,,,,,,,,,,,,,,,,,,,,,,,,,
1577418878.712164,65.000000,0.000000,4192.820313,4340.512695,4170.256348,4146.153809,4191.794922,450.000000,4.000000,,,,0.000000,4.000000,4.000000,0.000000,4.000000,4.000000,,,,,,,,,,,,,,,,,,,,,,,,,,,,,,,,,,,,,,,,,,,,,,,,,,,,,,,,
1577418878.719965,66.000000,0.000000,4193.846191,4324.615234,4203.077148,4146.666504,4195.384766,16258.000000,4.000000,,,,0.000000,4.000000,4.000000,0.000000,4.000000,4.000000,,,,,,,,,,,,,,,,,,,,,,,,,,,,,,,,,,,,,,,,,,,,,,,,,,,,,,,,
1577418878.727666,67.000000,0.000000,4222.051270,4326.153809,4224.615234,4140.512695,4207.179688,450.000000,4.000000,,,,0.000000,4.000000,4.000000,0.000000,4.000000,4.000000,,,,,,,,,,,,,,,,,,,,,,,,,,,,,,,,,,,,,,,,,,,,,,,,,,,,,,,,
1577418878.735468,68.000000,0.000000,4227.692383,4332.307617,4240.000000,4114.358887,4224.615234,16201.000000,4.000000,,,,0.000000,4.000000,4.000000,0.000000,4.000000,4.000000,,,,,,,,,,,,,,,,,,,,,,,,,,,,,,,,,,,,,,,,,,,,,,,,,,,,,,,,
1577418878.743169,69.000000,0.000000,4228.717773,4348.205078,4201.538574,4106.666504,4229.743652,450.000000,4.000000,,,,0.000000,4.000000,4.000000,0.000000,4.000000,4.000000,,,,,,,,,,,,,,,,,,,,,,,,,,,,,,,,,,,,,,,,,,,,,,,,,,,,,,,,
1577418878.750970,70.000000,0.000000,4259.487305,4352.820313,4138.974121,4108.717773,4222.051270,36.000000,4.000000,,,,0.000000,4.000000,4.000000,0.000000,4.000000,4.000000,,,,,,,,,,,,,,,,,,,,,,,,,,,,,,,,,,,,,,,,,,,,,,,,,,,,,,,,
1577418878.758672,71.000000,0.000000,4258.461426,4326.666504,4209.230957,4117.948730,4212.307617,450.000000,4.000000,,,,0.000000,4.000000,4.000000,0.000000,4.000000,4.000000,,,,,,,,,,,,,,,,,,,,,,,,,,,,,,,,,,,,,,,,,,,,,,,,,,,,,,,,
1577418878.766473,72.000000,0.000000,4249.230957,4336.922852,4257.948730,4123.077148,4215.897461,450.000000,4.000000,,,,0.000000,4.000000,4.000000,0.000000,4.000000,4.000000,,,,,,,,,,,,,,,,,,,,,,,,,,,,,,,,,,,,,,,,,,,,,,,,,,,,,,,,
1577418878.774175,73.000000,0.000000,4257.948730,4365.641113,4238.974121,4120.000000,4232.307617,16172.000000,4.000000,,,,0.000000,4.000000,4.000000,0.000000,4.000000,4.000000,,,,,,,,,,,,,,,,,,,,,,,,,,,,,,,,6.739007,4.122192,1.713860,1.446084,0.566152,0.490583,0.600495,1.143376,1.616448,1.763350,25.476837,7.870418,5.498357,46.123051,30.472979,2.501366,1.452300,0.608580,0.700624,0.362795,7.471267,4.261740,1.482583,0.630683,0.422952
1577418878.781976,74.000000,0.000000,4268.717773,4352.820313,4181.538574,4121.538574,4249.230957,450.000000,4.000000,,,,0.000000,4.000000,4.000000,0.000000,4.000000,4.000000,,,,,,,,,,,,,,,,,,,,,,,,,,,,,,,,,,,,,,,,,,,,,,,,,,,,,,,,
1577418878.789677,75.000000,0.000000,4289.743652,4325.128418,4123.589844,4113.846191,4260.000000,16227.000000,4.000000,,,,0.000000,4.000000,4.000000,0.000000,4.000000,4.000000,,,,,,,,,,,,,,,,,,,,,,,,,,,,,,,,,,,,,,,,,,,,,,,,,,,,,,,,
1577418878.797478,76.000000,0.000000,4314.358887,4335.384766,4191.794922,4117.948730,4273.846191,450.000000,4.000000,,,,0.000000,4.000000,4.000000,0.000000,4.000000,4.000000,,,,,,,,,,,,,,,,,,,,,,,,,,,,,,,,,,,,,,,,,,,,,,,,,,,,,,,,
1577418878.805180,77.000000,0.000000,4359.487305,4370.256348,4245.641113,4120.512695,4304.102539,450.000000,4.000000,,,,0.000000,4.000000,4.000000,0.000000,4.000000,4.000000,,,,,,,,,,,,,,,,,,,,,,,,,,,,,,,,,,,,,,,,,,,,,,,,,,,,,,,,
1577418878.812882,78.000000,0.000000,4404.615234,4368.205078,4183.077148,4107.179688,4324.102539,450.000000,4.000000,,,,0.000000,4.000000,4.000000,0.000000,4.000000,4.000000,,,,,,,,,,,,,,,,,,,,,,,,,,,,,,,,,,,,,,,,,,,,,,,,,,,,,,,,
1577418878.820683,79.000000,0.000000,4437.436035,4357.948730,4133.333496,4122.051270,4339.487305,16227.000000,4.000000,,,,0.000000,4.000000,4.000000,0.000000,4.000000,4.000000,,,,,,,,,,,,,,,,,,,,,,,,,,,,,,,,,,,,,,,,,,,,,,,,,,,,,,,,
1577418878.828385,80.000000,0.000000,4484.615234,4366.153809,4127.179688,4131.794922,4372.820313,450.000000,4.000000,,,,0.000000,4.000000,4.000000,0.000000,4.000000,4.000000,,,,,,,,,,,,,,,,,,,,,,,,,,,,,,,,,,,,,,,,,,,,,,,,,,,,,,,,
1577418878.836186,81.000000,0.000000,4523.077148,4351.282227,4156.922852,4117.948730,4396.410156,450.000000,4.000000,,,,0.000000,4.000000,4.000000,0.000000,4.000000,4.000000,,,,,,,,,,,,,,,,,,,,,,,,,,,,,,,,,,,,,,,,,,,,,,,,,,,,,,,,
1577418878.843888,82.000000,0.000000,4558.461426,4349.230957,4169.743652,4117.948730,4418.461426,450.000000,4.000000,,,,0.000000,4.000000,4.000000,0.000000,4.000000,4.000000,,,,,,,,,,,,,,,,,,,,,,,,,,,,,,,,,,,,,,,,,,,,,,,,,,,,,,,,
1577418878.851689,83.000000,0.000000,4591.794922,4369.743652,4194.871582,4121.538574,4439.487305,16227.000000,4.000000,,,,0.000000,4.000000,4.000000,0.000000,4.000000,4.000000,,,,,,,,,,,,,,,,,,,,,,,,,,,,,,,,,,,,,,,,,,,,,,,,,,,,,,,,
1577418878.859391,84.000000,0.000000,4591.282227,4372.307617,4237.436035,4131.282227,4437.436035,450.000000,4.000000,,,,0.000000,4.000000,4.000000,0.000000,4.000000,4.000000,,,,,,,,,,,,,,,,,,,,,,,,,,,,,,,,,,,,,,,,,,,,,,,,,,,,,,,,
1577418878.867193,85.000000,0.000000,4594.358887,4370.256348,4210.769043,4134.358887,4436.922852,450.000000,4.000000,,,,0.000000,4.000000,4.000000,0.000000,4.000000,4.000000,,,,,,,,,,,,,,,,,,,,,,,,,,,,,,,,,,,,,,,,,,,,,,,,,,,,,,,,
1577418878.874894,86.000000,0.000000,4590.769043,4356.922852,4200.000000,4120.000000,4430.256348,450.000000,4.000000,,,,0.000000,4.000000,4.000000,0.000000,4.000000,4.000000,,,,,,,,,,,,,,,,,,,,,,,,,,,,,,,,,,,,,,,,,,,,,,,,,,,,,,,,
1577418878.882695,87.000000,0.000000,4574.358887,4348.717773,4179.487305,4112.307617,4421.538574,16227.000000,4.000000,,,,0.000000,4.000000,4.000000,0.000000,4.000000,4.000000,,,,,,,,,,,,,,,,,,,,,,,,,,,,,,,,,,,,,,,,,,,,,,,,,,,,,,,,
1577418878.890397,88.000000,0.000000,4581.538574,4366.666504,4157.948730,4112.307617,4424.102539,450.000000,4.000000,,,,0.000000,4.000000,4.000000,0.000000,4.000000,4.000000,,,,,,,,,,,,,,,,,,,,,,,,,,,,,,,,,,,,,,,,,,,,,,,,,,,,,,,,
1577418878.898198,89.000000,0.000000,4586.666504,4370.256348,4235.897461,4112.307617,4415.384766,450.000000,4.000000,,,,0.000000,4.000000,4.000000,0.000000,4.000000,4.000000,,,,,,,,,,,,,,,,,,,,,,,,,,,,,,,,5.059779,4.435490,1.456985,1.483287,0.526202,0.522835,0.692490,1.223777,1.384215,1.832533,26.207973,6.951632,5.021073,45.059616,29.931465,2.479187,1.906749,0.593416,0.690237,0.397454,7.319115,5.193826,1.298868,0.493498,0.395486
1577418878.905899,90.000000,0.000000,4580.512695,4361.025879,4249.230957,4101.538574,4402.051270,450.000000,4.000000,,,,0.000000,4.000000,4.000000,0.000000,4.000000,4.000000,,,,,,,,,,,,,,,,,,,,,,,,,,,,,,,,,,,,,,,,,,,,,,,,,,,,,,,,
1577418878.913701,91.000000,0.000000,4579.487305,4359.487305,4222.051270,4105.128418,4404.615234,16227.000000,4.000000,,,,0.000000,4.000000,4.000000,0.000000,4.000000,4.000000,,,,,,,,,,,,,,,,,,,,,,,,,,,,,,,,,,,,,,,,,,,,,,,,,,,,,,,,
1577418878.921402,92.000000,0.000000,4585.641113,4359.487305,4171.282227,4124.615234,4418.974121,450.000000,4.000000,,,,0.000000,4.000000,4.000000,0.000000,4.000000,4.000000,,,,,,,,,,,,,,,,,,,,,,,,,,,,,,,,,,,,,,,,,,,,,,,,,,,,,,,,
1577418878.929203,93.000000,0.000000,4586.153809,4353.846191,4128.205078,4114.358887,4417.436035,450.000000,4.000000,,,,0.000000,4.000000,4.000000,0.000000,4.000000,4.000000,,,,,,,,,,,,,,,,,,,,,,,,,,,,,,,,,,,,,,,,,,,,,,,,,,,,,,,,
1577418878.936905,94.000000,0.000000,4576.410156,4359.487305,4213.333496,4100.000000,4409.743652,450.000000,4.000000,,,,0.000000,4.000000,4.000000,0.000000,4.000000,4.000000,,,,,,,,,,,,,,,,,,,,,,,,,,,,,,,,,,,,,,,,,,,,,,,,,,,,,,,,
1577418878.944606,95.000000,0.000000,4588.717773,4358.974121,4242.051270,4108.717773,4420.512695,16227.000000,4.000000,,,,0.000000,4.000000,4.000000,0.000000,4.000000,4.000000,,,,,,,,,,,,,,,,,,,,,,,,,,,,,,,,,,,,,,,,,,,,,,,,,,,,,,,,
1577418878.952408,96.000000,0.000000,4601.025879,4348.205078,4172.307617,4131.794922,4422.563965,450.000000,4.000000,,,,0.000000,4.000000,4.000000,0.000000,4.000000,4.000000,,,,,,,,,,,,,,,,,,,,,,,,,,,,,,,,,,,,,,,,,,,,,,,,,,,,,,,,
1577418878.960209,97.000000,0.000000,4591.282227,4371.794922,4115.897461,4145.128418,4415.384766,450.000000,4.000000,,,,0.000000,4.000000,4.000000,0.000000,4.000000,4.000000,,,,,,,,,,,,,,,,,,,,,,,,,,,,,,,,,,,,,,,,,,,,,,,,,,,,,,,,
1577418878.967911,98.000000,0.000000,4586.666504,4385.128418,4112.307617,4138.461426,4409.230957,450.000000,4.000000,,,,0.000000,4.000000,4.000000,0.000000,4.000000,4.000000,,,,,,,,,,,,,,,,,,,,,,,,,,,,,,,,,,,,,,,,,,,,,,,,,,,,,,,,
1577418878.975712,99.000000,0.000000,4577.436035,4345.128418,4208.717773,4137.948730,4403.589844,16227.000000,4.000000,,,,0.000000,4.000000,4.000000,0.000000,4.000000,4.000000,,,,,,,,,,,,,,,,,,,,,,,,,,,,,,,,,,,,,,,,,,,,,,,,,,,,,,,,
1577418878.983414,100.000000,0.000000,4577.436035,4345.128418,4262.563965,4136.922852,4414.358887,450.000000,4.000000,,,,0.000000,4.000000,4.000000,0.000000,4.000000,4.000000,,,,,,,,,,,,,,,,,,,,,,,,,,,,,,,,,,,,,,,,,,,,,,,,,,,,,,,,
1577418878.991115,101.000000,0.000000,4587.692383,4377.436035,4171.794922,4128.717773,4403.589844,450.000000,4.000000,,,,0.000000,4.000000,4.000000,0.000000,4.000000,4.000000,,,,,,,,,,,,,,,,,,,,,,,,,,,,,,,,,,,,,,,,,,,,,,,,,,,,,,,,
1577418878.998917,102.000000,0.000000,4588.205078,4361.025879,4106.666504,4129.743652,4383.077148,450.000000,4.000000,,,,0.000000,4.000000,4.000000,0.000000,4.000000,4.000000,,,,,,,,,,,,,,,,,,,,,,,,,,,,,,,,,,,,,,,,,,,,,,,,,,,,,,,,
1577418879.006618,103.000000,0.000000,4590.256348,4346.666504,4139.487305,4125.641113,4400.000000,16227.000000,4.000000,,,,0.000000,4.000000,4.000000,0.000000,4.000000,4.000000,,,,,,,,,,,,,,,,,,,,,,,,,,,,,,,,,,,,,,,,,,,,,,,,,,,,,,,,
1577418879.014420,104.000000,0.000000,4573.846191,4368.717773,4197.436035,4123.589844,4398.461426,450.000000,4.000000,,,,0.000000,4.000000,4.000000,0.000000,4.000000,4.000000,,,,,,,,,,,,,,,,,,,,,,,,,,,,,,,,,,,,,,,,,,,,,,,,,,,,,,,,
1577418879.022121,105.000000,0.000000,4562.563965,4379.487305,4160.000000,4126.153809,4380.512695,450.000000,4.000000,,,,0.000000,4.000000,4.000000,0.000000,4.000000,4.000000,,,,,,,,,,,,,,,,,,,,,,,,,,,,,,,,5.271498,5.523300,1.258090,1.436043,0.501191,0.534095,0.830971,1.314793,1.220878,1.860099,26.579891,6.119094,4.735808,44.268993,29.470419,2.667709,2.431146,0.626294,0.703525,0.427749,7.356223,6.460435,1.092907,0.418279,0.402884
1577418879.029923,106.000000,0.000000,4563.077148,4357.948730,4153.333496,4125.128418,4384.615234,450.000000,4.000000,,,,0.000000,4.000000,4.000000,0.000000,4.000000,4.000000,,,,,,,,,,,,,,,,,,,,,,,,,,,,,,,,,,,,,,,,,,,,,,,,,,,,,,,,
1577418879.037625,107.000000,0.000000,4550.256348,4353.333496,4263.589844,4128.205078,4384.102539,16227.000000,4.000000,,,,0.000000,4.000000,4.000000,0.000000,4.000000,4.000000,,,,,,,,,,,,,,,,,,,,,,,,,,,,,,,,,,,,,,,,,,,,,,,,,,,,,,,,
1577418879.045426,108.000000,0.000000,4552.820313,4386.153809,4263.077148,4127.179688,4376.922852,450.000000,4.000000,,,,0.000000,4.000000,4.000000,0.000000,4.000000,4.000000,,,,,,,,,,,,,,,,,,,,,,,,,,,,,,,,,,,,,,,,,,,,,,,,,,,,,,,,
1577418879.053128,109.000000,0.000000,4554.871582,4398.974121,4206.666504,4132.307617,4369.743652,450.000000,4.000000,,,,0.000000,4.000000,4.000000,0.000000,4.000000,4.000000,,,,,,,,,,,,,,,,,,,,,,,,,,,,,,,,,,,,,,,,,,,,,,,,,,,,,,,,
1577418879.060929,110.000000,0.000000,4546.666504,4389.743652,4145.128418,4142.051270,4366.153809,450.000000,4.000000,,,,0.000000,4.000000,4.000000,0.000000,4.000000,4.000000,,,,,,,,,,,,,,,,,,,,,,,,,,,,,,,,,,,,,,,,,,,,,,,,,,,,,,,,
1577418879.068631,111.000000,0.000000,4536.922852,4375.384766,4122.563965,4142.563965,4364.615234,16227.000000,4.000000,,,,0.000000,4.000000,4.000000,0.000000,4.000000,4.000000,,,,,,,,,,,,,,,,,,,,,,,,,,,,,,,,,,,,,,,,,,,,,,,,,,,,,,,,
1577418879.076433,112.000000,0.000000,4532.307617,4360.512695,4263.077148,4157.436035,4369.230957,450.000000,4.000000,,,,0.000000,4.000000,4.000000,0.000000,4.000000,4.000000,,,,,,,,,,,,,,,,,,,,,,,,,,,,,,,,,,,,,,,,,,,,,,,,,,,,,,,,
1577418879.084134,113.000000,0.000000,4543.589844,4370.769043,4309.230957,4156.922852,4378.974121,450.000000,4.000000,,,,0.000000,4.000000,4.000000,0.000000,4.000000,4.000000,,,,,,,,,,,,,,,,,,,,,,,,,,,,,,,,,,,,,,,,,,,,,,,,,,,,,,,,
1577418879.091935,114.000000,0.000000,4534.358887,4390.256348,4207.179688,4141.025879,4365.641113,450.000000,4.000000,,,,0.000000,4.000000,4.000000,0.000000,4.000000,4.000000,,,,,,,,,,,,,,,,,,,,,,,,,,,,,,,,,,,,,,,,,,,,,,,,,,,,,,,,
1577418879.099637,115.000000,0.000000,4530.769043,4390.256348,4107.692383,4149.743652,4360.000000,16227.000000,4.000000,,,,0.000000,4.000000,4.000000,0.000000,4.000000,4.000000,,,,,,,,,,,,,,,,,,,,,,,,,,,,,,,,,,,,,,,,,,,,,,,,,,,,,,,,
1577418879.107438,116.000000,0.000000,4531.794922,4378.461426,4110.769043,4154.358887,4361.538574,450.000000,4.000000,,,,0.000000,4.000000,4.000000,0.000000,4.000000,4.000000,,,,,,,,,,,,,,,,,,,,,,,,,,,,,,,,,,,,,,,,,,,,,,,,,,,,,,,,
1577418879.115139,117.000000,0.000000,4499.487305,4377.436035,4236.410156,4150.256348,4338.974121,450.000000,4.000000,,,,0.000000,4.000000,4.000000,0.000000,4.000000,4.000000,,,,,,,,,,,,,,,,,,,,,,,,,,,,,,,,,,,,,,,,,,,,,,,,,,,,,,,,
1577418879.122841,118.000000,0.000000,4494.871582,4392.307617,4257.948730,4148.205078,4335.384766,450.000000,4.000000,,,,0.000000,4.000000,4.000000,0.000000,4.000000,4.000000,,,,,,,,,,,,,,,,,,,,,,,,,,,,,,,,,,,,,,,,,,,,,,,,,,,,,,,,
1577418879.130642,119.000000,0.000000,4503.077148,4373.333496,4165.128418,4152.307617,4344.102539,16227.000000,4.000000,,,,0.000000,4.000000,4.000000,0.000000,4.000000,4.000000,,,,,,,,,,,,,,,,,,,,,,,,,,,,,,,,,,,,,,,,,,,,,,,,,,,,,,,,
1577418879.138444,120.000000,0.000000,4484.102539,4343.589844,4092.820557,4161.025879,4340.512695,450.000000,4.000000,,,,0.000000,4.000000,4.000000,0.000000,4.000000,4.000000,,,,,,,,,,,,,,,,,,,,,,,,,,,,,,,,,,,,,,,,,,,,,,,,,,,,,,,,
1577418879.146145,121.000000,0.000000,4474.871582,4368.717773,4109.743652,4148.717773,4338.461426,450.000000,4.000000,,,,0.000000,4.000000,4.000000,0.000000,4.000000,4.000000,,,,,,,,,,,,,,,,,,,,,,,,,,,,,,,,7.117995,6.974423,1.106251,1.309765,0.487339,0.530634,0.970268,1.388970,1.114200,1.831322,26.442629,5.594943,4.690708,43.576202,29.133553,3.153867,2.955181,0.716645,0.726186,0.444511,7.681771,7.690602,0.878379,0.410273,0.433854
1577418879.153947,122.000000,0.000000,4466.153809,4391.794922,4244.102539,4142.051270,4320.512695,450.000000,4.000000,,,,0.000000,4.000000,4.000000,0.000000,4.000000,4.000000,,,,,,,,,,,,,,,,,,,,,,,,,,,,,,,,,,,,,,,,,,,,,,,,,,,,,,,,
1577418879.161648,123.000000,0.000000,4462.563965,4365.128418,4263.589844,4140.000000,4309.230957,16227.000000,4.000000,,,,0.000000,4.000000,4.000000,0.000000,4.000000,4.000000,,,,,,,,,,,,,,,,,,,,,,,,,,,,,,,,,,,,,,,,,,,,,,,,,,,,,,,,
1577418879.169449,124.000000,0.000000,4463.077148,4344.615234,4157.948730,4137.948730,4330.256348,450.000000,4.000000,,,,0.000000,4.000000,4.000000,0.000000,4.000000,4.000000,,,,,,,,,,,,,,,,,,,,,,,,,,,,,,,,,,,,,,,,,,,,,,,,,,,,,,,,
1577418879.177151,125.000000,0.000000,4458.974121,4377.436035,4166.666504,4167.692383,4354.871582,450.000000,4.000000,,,,0.000000,4.000000,4.000000,0.000000,4.000000,4.000000,,,,,,,,,,,,,,,,,,,,,,,,,,,,,,,,,,,,,,,,,,,,,,,,,,,,,,,,
1577418879.184952,126.000000,0.000000,4462.563965,4401.538574,4181.025879,4177.436035,4369.230957,450.000000,4.000000,,,,0.000000,4.000000,4.000000,0.000000,4.000000,4.000000,,,,,,,,,,,,,,,,,,,,,,,,,,,,,,,,,,,,,,,,,,,,,,,,,,,,,,,,
1577418879.192653,127.000000,0.000000,4451.794922,4362.563965,4140.512695,4159.487305,4362.563965,238.000000,4.000000,,,,0.000000,4.000000,4.000000,0.000000,4.000000,4.000000,,,,,,,,,,,,,,,,,,,,,,,,,,,,,,,,,,,,,,,,,,,,,,,,,,,,,,,,
1577418879.200455,0.000000,0.000000,4445.641113,4355.384766,4095.897461,4154.358887,4347.179688,450.000000,4.000000,,,,0.000000,4.000000,4.000000,0.000000,4.000000,4.000000,,,,,,,,,,,,,,,,,,,,,,,,,,,,,,,,,,,,,,,,,,,,,,,,,,,,,,,,
1577418879.208156,1.000000,0.000000,4446.153809,4388.717773,4127.692383,4148.717773,4345.128418,450.000000,4.000000,,,,0.000000,4.000000,4.000000,0.000000,4.000000,4.000000,,,,,,,,,,,,,,,,,,,,,,,,,,,,,,,,,,,,,,,,,,,,,,,,,,,,,,,,
1577418879.215858,2.000000,0.000000,4424.615234,4373.846191,4269.743652,4146.666504,4330.769043,16216.000000,4.000000,,,,0.000000,4.000000,4.000000,0.000000,4.000000,4.000000,,,,,,,,,,,,,,,,,,,,,,,,,,,,,,,,,,,,,,,,,,,,,,,,,,,,,,,,
1577418879.223659,3.000000,0.000000,4409.230957,4338.974121,4292.820313,4136.922852,4313.846191,450.000000,4.000000,,,,0.000000,4.000000,4.000000,0.000000,4.000000,4.000000,,,,,,,,,,,,,,,,,,,,,,,,,,,,,,,,,,,,,,,,,,,,,,,,,,,,,,,,
1577418879.231461,4.000000,0.000000,4403.077148,4342.563965,4192.820313,4133.333496,4313.846191,16212.000000,4.000000,,,,0.000000,4.000000,4.000000,0.000000,4.000000,4.000000,,,,,,,,,,,,,,,,,,,,,,,,,,,,,,,,,,,,,,,,,,,,,,,,,,,,,,,,
1577418879.239162,5.000000,0.000000,4411.794922,4376.922852,4085.641113,4154.358887,4329.743652,450.000000,4.000000,,,,0.000000,4.000000,4.000000,0.000000,4.000000,4.000000,,,,,,,,,,,,,,,,,,,,,,,,,,,,,,,,,,,,,,,,,,,,,,,,,,,,,,,,
1577418879.246964,6.000000,0.000000,4422.563965,4378.461426,4100.512695,4166.153809,4344.102539,27.000000,4.000000,,,,0.000000,4.000000,4.000000,0.000000,4.000000,4.000000,,,,,,,,,,,,,,,,,,,,,,,,,,,,,,,,,,,,,,,,,,,,,,,,,,,,,,,,
1577418879.254665,7.000000,0.000000,4405.641113,4340.000000,4287.692383,4166.153809,4325.128418,450.000000,4.000000,,,,0.000000,4.000000,4.000000,0.000000,4.000000,4.000000,,,,,,,,,,,,,,,,,,,,,,,,,,,,,,,,,,,,,,,,,,,,,,,,,,,,,,,,
1577418879.262366,8.000000,0.000000,4403.589844,4341.025879,4313.846191,4156.922852,4311.282227,450.000000,4.000000,,,,0.000000,4.000000,4.000000,0.000000,4.000000,4.000000,,,,,,,,,,,,,,,,,,,,,,,,,,,,,,,,,,,,,,,,,,,,,,,,,,,,,,,,
1577418879.270168,9.000000,0.000000,4408.717773,4356.922852,4193.333496,4150.256348,4330.256348,16188.000000,4.000000,,,,0.000000,4.000000,4.000000,0.000000,4.000000,4.000000,,,,,,,,,,,,,,,,,,,,,,,,,,,,,,,,11.413501,8.396103,1.010746,1.143703,0.478537,0.533708,1.061973,1.415464,1.043841,1.760502,25.697273,5.379591,4.791742,42.727398,28.758472,3.901947,3.374140,0.847392,0.743060,0.445987,8.764263,8.536335,0.687854,0.457464,0.468037
1577418879.277869,10.000000,0.000000,4408.717773,4348.205078,4129.743652,4163.589844,4342.051270,450.000000,4.000000,,,,0.000000,4.000000,4.000000,0.000000,4.000000,4.000000,,,,,,,,,,,,,,,,,,,,,,,,,,,,,,,,,,,,,,,,,,,,,,,,,,,,,,,,
1577418879.285670,11.000000,0.000000,4408.205078,4338.461426,4119.487305,4164.102539,4336.922852,16196.000000,4.000000,,,,0.000000,4.000000,4.000000,0.000000,4.000000,4.000000,,,,,,,,,,,,,,,,,,,,,,,,,,,,,,,,,,,,,,,,,,,,,,,,,,,,,,,,
1577418879.293372,12.000000,0.000000,4391.282227,4348.205078,4177.948730,4159.487305,4333.333496,450.000000,4.000000,,,,0.000000,4.000000,4.000000,0.000000,4.000000,4.000000,,,,,,,,,,,,,,,,,,,,,,,,,,,,,,,,,,,,,,,,,,,,,,,,,,,,,,,,
1577418879.301173,13.000000,0.000000,4403.077148,4372.307617,4194.358887,4154.871582,4336.410156,450.000000,4.000000,,,,0.000000,4.000000,4.000000,0.000000,4.000000,4.000000,,,,,,,,,,,,,,,,,,,,,,,,,,,,,,,,,,,,,,,,,,,,,,,,,,,,,,,,
1577418879.308874,14.000000,0.000000,4411.794922,4361.025879,4188.205078,4140.000000,4328.205078,450.000000,4.000000,,,,0.000000,4.000000,4.000000,0.000000,4.000000,4.000000,,,,,,,,,,,,,,,,,,,,,,,,,,,,,,,,,,,,,,,,,,,,,,,,,,,,,,,,
1577418879.316676,15.000000,0.000000,4381.025879,4336.410156,4172.307617,4152.307617,4313.333496,16196.000000,4.000000,,,,0.000000,4.000000,4.000000,0.000000,4.000000,4.000000,,,,,,,,,,,,,,,,,,,,,,,,,,,,,,,,,,,,,,,,,,,,,,,,,,,,,,,,
1577418879.324377,16.000000,0.000000,4371.282227,4344.615234,4122.563965,4158.974121,4313.846191,0.000000,4.000000,,,,0.000000,4.000000,4.000000,0.000000,4.000000,4.000000,,,,,,,,,,,,,,,,,,,,,,,,,,,,,,,,,,,,,,,,,,,,,,,,,,,,,,,,
1577418879.332178,17.000000,0.000000,4364.615234,4339.487305,4173.333496,4137.436035,4309.743652,0.000000,4.000000,,,,0.000000,4.000000,4.000000,0.000000,4.000000,4.000000,,,,,,,,,,,,,,,,,,,,,,,,,,,,,,,,,,,,,,,,,,,,,,,,,,,,,,,,
1577418879.339880,18.000000,0.000000,4355.897461,4332.307617,4215.897461,4128.205078,4295.384766,0.000000,4.000000,,,,0.000000,4.000000,4.000000,0.000000,4.000000,4.000000,,,,,,,,,,,,,,,,,,,,,,,,,,,,,,,,,,,,,,,,,,,,,,,,,,,,,,,,
1577418879.347581,19.000000,0.000000,4364.102539,4338.974121,4163.077148,4128.205078,4298.974121,0.000000,4.000000,,,,0.000000,4.000000,4.000000,0.000000,4.000000,4.000000,,,,,,,,,,,,,,,,,,,,,,,,,,,,,,,,,,,,,,,,,,,,,,,,,,,,,,,,
1577418879.355283,20.000000,0.000000,4362.563965,4341.025879,4197.436035,4129.743652,4305.641113,0.000000,4.000000,,,,0.000000,4.000000,4.000000,0.000000,4.000000,4.000000,,,,,,,,,,,,,,,,,,,,,,,,,,,,,,,,,,,,,,,,,,,,,,,,,,,,,,,,
1577418879.362985,21.000000,0.000000,4371.794922,4349.230957,4225.641113,4127.692383,4295.384766,0.000000,4.000000,,,,0.000000,4.000000,4.000000,0.000000,4.000000,4.000000,,,,,,,,,,,,,,,,,,,,,,,,,,,,,,,,,,,,,,,,,,,,,,,,,,,,,,,,
1577418879.370787,22.000000,0.000000,4364.102539,4341.025879,4213.846191,4130.769043,4278.461426,0.000000,4.000000,,,,0.000000,4.000000,4.000000,0.000000,4.000000,4.000000,,,,,,,,,,,,,,,,,,,,,,,,,,,,,,,,,,,,,,,,,,,,,,,,,,,,,,,,
1577418879.378489,23.000000,0.000000,4349.230957,4332.820313,4155.384766,4139.487305,4285.641113,0.000000,4.000000,,,,0.000000,4.000000,4.000000,0.000000,4.000000,4.000000,,,,,,,,,,,,,,,,,,,,,,,,,,,,,,,,,,,,,,,,,,,,,,,,,,,,,,,,
1577418879.386291,24.000000,0.000000,4367.179688,4353.846191,4146.666504,4125.128418,4306.153809,0.000000,4.000000,,,,0.000000,4.000000,4.000000,0.000000,4.000000,4.000000,,,,,,,,,,,,,,,,,,,,,,,,,,,,,,,,,,,,,,,,,,,,,,,,,,,,,,,,
1577418879.394093,25.000000,0.000000,4357.436035,4365.128418,4279.487305,4121.025879,4302.051270,0.000000,4.000000,,,,0.000000,4.000000,4.000000,0.000000,4.000000,4.000000,,,,,,,,,,,,,,,,,,,,,,,,,,,,,,,,17.939411,9.632588,0.988229,0.991181,0.467868,0.573767,1.074409,1.375437,1.001240,1.688416,24.399282,5.372993,4.876650,41.769894,28.288723,4.736764,3.594105,0.984140,0.750027,0.436396,10.680106,8.867513,0.555370,0.541937,0.488484
1577418879.401795,26.000000,0.000000,4336.922852,4351.794922,4286.666504,4121.538574,4287.692383,0.000000,4.000000,,,,0.000000,4.000000,4.000000,0.000000,4.000000,4.000000,,,,,,,,,,,,,,,,,,,,,,,,,,,,,,,,,,,,,,,,,,,,,,,,,,,,,,,,
1577418879.409497,27.000000,0.000000,4334.358887,4345.128418,4169.230957,4101.025879,4275.384766,0.000000,4.000000,,,,0.000000,4.000000,4.000000,0.000000,4.000000,4.000000,,,,,,,,,,,,,,,,,,,,,,,,,,,,,,,,,,,,,,,,,,,,,,,,,,,,,,,,
1577418879.417298,28.000000,0.000000,4329.743652,4358.974121,4117.948730,4099.487305,4260.000000,0.000000,4.000000,,,,0.000000,4.000000,4.000000,0.000000,4.000000,4.000000,,,,,,,,,,,,,,,,,,,,,,,,,,,,,,,,,,,,,,,,,,,,,,,,,,,,,,,,
1577418879.425000,29.000000,0.000000,4324.102539,4351.282227,4120.000000,4097.948730,4242.563965,0.000000,4.000000,,,,0.000000,4.000000,4.000000,0.000000,4.000000,4.000000,,,,,,,,,,,,,,,,,,,,,,,,,,,,,,,,,,,,,,,,,,,,,,,,,,,,,,,,
1577418879.432802,30.000000,0.000000,4294.871582,4325.641113,4196.410156,4085.641113,4223.589844,0.000000,4.000000,,,,0.000000,4.000000,4.000000,0.000000,4.000000,4.000000,,,,,,,,,,,,,,,,,,,,,,,,,,,,,,,,,,,,,,,,,,,,,,,,,,,,,,,,
1577418879.440504,31.000000,0.000000,4287.179688,4344.615234,4245.641113,4082.051270,4222.051270,0.000000,4.000000,,,,0.000000,4.000000,4.000000,0.000000,4.000000,4.000000,,,,,,,,,,,,,,,,,,,,,,,,,,,,,,,,,,,,,,,,,,,,,,,,,,,,,,,,
1577418879.448306,32.000000,0.000000,4304.102539,4351.794922,4196.922852,4080.512939,4222.051270,0.000000,4.000000,,,,0.000000,4.000000,4.000000,0.000000,4.000000,4.000000,,,,,,,,,,,,,,,,,,,,,,,,,,,,,,,,,,,,,,,,,,,,,,,,,,,,,,,,
1577418879.456008,33.000000,0.000000,4290.769043,4318.461426,4130.256348,4071.794922,4206.666504,0.000000,4.000000,,,,0.000000,4.000000,4.000000,0.000000,4.000000,4.000000,,,,,,,,,,,,,,,,,,,,,,,,,,,,,,,,,,,,,,,,,,,,,,,,,,,,,,,,
1577418879.463809,34.000000,0.000000,4278.974121,4326.153809,4120.512695,4044.102539,4190.769043,0.000000,4.000000,,,,0.000000,4.000000,4.000000,0.000000,4.000000,4.000000,,,,,,,,,,,,,,,,,,,,,,,,,,,,,,,,,,,,,,,,,,,,,,,,,,,,,,,,
1577418879.471511,35.000000,0.000000,4271.282227,4355.384766,4178.461426,4038.461426,4174.358887,0.000000,4.000000,,,,0.000000,4.000000,4.000000,0.000000,4.000000,4.000000,,,,,,,,,,,,,,,,,,,,,,,,,,,,,,,,,,,,,,,,,,,,,,,,,,,,,,,,
1577418879.479313,36.000000,0.000000,4267.179688,4362.051270,4175.384766,4062.051270,4172.820313,0.000000,4.000000,,,,0.000000,4.000000,4.000000,0.000000,4.000000,4.000000,,,,,,,,,,,,,,,,,,,,,,,,,,,,,,,,,,,,,,,,,,,,,,,,,,,,,,,,
1577418879.487015,37.000000,0.000000,4265.641113,4340.000000,4178.461426,4057.948730,4169.743652,0.000000,4.000000,,,,0.000000,4.000000,4.000000,0.000000,4.000000,4.000000,,,,,,,,,,,,,,,,,,,,,,,,,,,,,,,,,,,,,,,,,,,,,,,,,,,,,,,,
1577418879.494817,38.000000,0.000000,4250.769043,4307.692383,4258.461426,4045.641113,4156.410156,0.000000,4.000000,,,,0.000000,4.000000,4.000000,0.000000,4.000000,4.000000,,,,,,,,,,,,,,,,,,,,,,,,,,,,,,,,,,,,,,,,,,,,,,,,,,,,,,,,
1577418879.502518,39.000000,0.000000,4252.820313,4323.077148,4231.794922,4046.153809,4162.563965,0.000000,4.000000,,,,0.000000,4.000000,4.000000,0.000000,4.000000,4.000000,,,,,,,,,,,,,,,,,,,,,,,,,,,,,,,,,,,,,,,,,,,,,,,,,,,,,,,,
1577418879.510320,40.000000,0.000000,4246.666504,4355.384766,4187.692383,4035.897461,4146.153809,0.000000,4.000000,,,,0.000000,4.000000,4.000000,0.000000,4.000000,4.000000,,,,,,,,,,,,,,,,,,,,,,,,,,,,,,,,,,,,,,,,,,,,,,,,,,,,,,,,
1577418879.518022,41.000000,0.000000,4213.333496,4351.282227,4163.589844,4024.615479,4100.512695,0.000000,4.000000,,,,0.000000,4.000000,4.000000,0.000000,4.000000,4.000000,,,,,,,,,,,,,,,,,,,,,,,,,,,,,,,,26.172251,10.591942,1.014248,0.888843,0.451855,0.661329,1.002150,1.269317,0.992324,1.667319,22.742804,5.428438,4.830254,41.143257,27.836130,5.410594,3.587348,1.079684,0.753758,0.424462,13.253247,8.738564,0.497389,0.648967,0.490577
1577418879.525724,42.000000,0.000000,4174.871582,4326.666504,4147.179688,4010.769287,4053.846191,0.000000,4.000000,,,,0.000000,4.000000,4.000000,0.000000,4.000000,4.000000,,,,,,,,,,,,,,,,,,,,,,,,,,,,,,,,,,,,,,,,,,,,,,,,,,,,,,,,
1577418879.533526,43.000000,0.000000,4132.820313,4324.102539,4230.769043,4004.102539,4020.512939,0.000000,4.000000,,,,0.000000,4.000000,4.000000,0.000000,4.000000,4.000000,,,,,,,,,,,,,,,,,,,,,,,,,,,,,,,,,,,,,,,,,,,,,,,,,,,,,,,,
1577418879.541228,44.000000,0.000000,4124.102539,4344.102539,4236.410156,4007.179443,4028.205078,0.000000,4.000000,,,,0.000000,4.000000,4.000000,0.000000,4.000000,4.000000,,,,,,,,,,,,,,,,,,,,,,,,,,,,,,,,,,,,,,,,,,,,,,,,,,,,,,,,
1577418879.549029,45.000000,0.000000,4127.179688,4347.692383,4176.922852,4004.102539,4039.487061,0.000000,4.000000,,,,0.000000,4.000000,4.000000,0.000000,4.000000,4.000000,,,,,,,,,,,,,,,,,,,,,,,,,,,,,,,,,,,,,,,,,,,,,,,,,,,,,,,,
1577418879.556731,46.000000,0.000000,4107.179688,4346.153809,4128.717773,4003.589844,4025.128174,0.000000,4.000000,,,,0.000000,4.000000,4.000000,0.000000,4.000000,4.000000,,,,,,,,,,,,,,,,,,,,,,,,,,,,,,,,,,,,,,,,,,,,,,,,,,,,,,,,
1577418879.564633,47.000000,0.000000,4089.743652,4345.128418,4122.051270,4006.666748,4009.230713,0.000000,4.000000,,,,0.000000,4.000000,4.000000,0.000000,4.000000,4.000000,,,,,,,,,,,,,,,,,,,,,,,,,,,,,,,,,,,,,,,,,,,,,,,,,,,,,,,,
1577418879.572535,48.000000,0.000000,4071.281982,4338.974121,4226.666504,4010.256348,3989.743652,0.000000,4.000000,,,,0.000000,4.000000,4.000000,0.000000,4.000000,4.000000,,,,,,,,,,,,,,,,,,,,,,,,,,,,,,,,,,,,,,,,,,,,,,,,,,,,,,,,
1577418879.580338,49.000000,0.000000,4062.564209,4349.230957,4267.692383,4013.333252,3980.000000,0.000000,4.000000,,,,0.000000,4.000000,4.000000,0.000000,4.000000,4.000000,,,,,,,,,,,,,,,,,,,,,,,,,,,,,,,,,,,,,,,,,,,,,,,,,,,,,,,,
1577418879.588140,50.000000,0.000000,4045.641113,4346.666504,4165.641113,4022.051270,3971.281982,0.000000,4.000000,,,,0.000000,4.000000,4.000000,0.000000,4.000000,4.000000,,,,,,,,,,,,,,,,,,,,,,,,,,,,,,,,,,,,,,,,,,,,,,,,,,,,,,,,
1577418879.596042,51.000000,0.000000,4007.692383,4321.025879,4090.256348,4031.281982,3960.512939,0.000000,4.000000,,,,0.000000,4.000000,4.000000,0.000000,4.000000,4.000000,,,,,,,,,,,,,,,,,,,,,,,,,,,,,,,,,,,,,,,,,,,,,,,,,,,,,,,,
1577418879.603944,52.000000,0.000000,3995.384521,4333.333496,4126.666504,4026.153809,3957.435791,0.000000,4.000000,,,,0.000000,4.000000,4.000000,0.000000,4.000000,4.000000,,,,,,,,,,,,,,,,,,,,,,,,,,,,,,,,,,,,,,,,,,,,,,,,,,,,,,,,
1577418879.611746,53.000000,0.000000,3990.769287,4358.974121,4216.922852,4027.692383,3940.000000,0.000000,4.000000,,,,0.000000,4.000000,4.000000,0.000000,4.000000,4.000000,,,,,,,,,,,,,,,,,,,,,,,,,,,,,,,,,,,,,,,,,,,,,,,,,,,,,,,,
1577418879.619648,54.000000,0.000000,3982.051270,4357.948730,4206.666504,4027.179443,3923.589844,0.000000,4.000000,,,,0.000000,4.000000,4.000000,0.000000,4.000000,4.000000,,,,,,,,,,,,,,,,,,,,,,,,,,,,,,,,,,,,,,,,,,,,,,,,,,,,,,,,
1577418879.627451,55.000000,0.000000,3975.384521,4362.051270,4169.743652,4020.512939,3921.025635,0.000000,4.000000,,,,0.000000,4.000000,4.000000,0.000000,4.000000,4.000000,,,,,,,,,,,,,,,,,,,,,,,,,,,,,,,,,,,,,,,,,,,,,,,,,,,,,,,,
1577418879.635352,56.000000,0.000000,3969.743652,4377.436035,4211.282227,4027.692383,3930.256348,0.000000,4.000000,,,,0.000000,4.000000,4.000000,0.000000,4.000000,4.000000,,,,,,,,,,,,,,,,,,,,,,,,,,,,,,,,,,,,,,,,,,,,,,,,,,,,,,,,
1577418879.643154,57.000000,0.000000,3977.435791,4374.358887,4187.692383,4036.410156,3949.743652,0.000000,4.000000,,,,0.000000,4.000000,4.000000,0.000000,4.000000,4.000000,,,,,,,,,,,,,,,,,,,,,,,,,,,,,,,,33.674294,11.076400,1.043924,0.839529,0.432750,0.776770,0.882780,1.122491,1.009913,1.731362,21.020632,5.452007,4.631920,41.307995,27.581388,5.637065,3.380536,1.112423,0.764790,0.418820,15.493969,8.278132,0.520181,0.769897,0.482531
1577418879.651056,58.000000,0.000000,3978.974365,4355.384766,4159.487305,4053.846191,3951.794922,0.000000,4.000000,,,,0.000000,4.000000,4.000000,0.000000,4.000000,4.000000,,,,,,,,,,,,,,,,,,,,,,,,,,,,,,,,,,,,,,,,,,,,,,,,,,,,,,,,
1577418879.658858,59.000000,0.000000,3991.281982,4355.897461,4146.153809,4068.718018,3954.871826,0.000000,4.000000,,,,0.000000,4.000000,4.000000,0.000000,4.000000,4.000000,,,,,,,,,,,,,,,,,,,,,,,,,,,,,,,,,,,,,,,,,,,,,,,,,,,,,,,,
1577418879.666760,60.000000,0.000000,4007.692383,4359.487305,4164.102539,4075.384521,3963.076904,0.000000,4.000000,,,,0.000000,4.000000,4.000000,0.000000,4.000000,4.000000,,,,,,,,,,,,,,,,,,,,,,,,,,,,,,,,,,,,,,,,,,,,,,,,,,,,,,,,
1577418879.674562,61.000000,0.000000,3995.897461,4360.000000,4270.256348,4098.974121,3962.051270,0.000000,4.000000,,,,0.000000,4.000000,4.000000,0.000000,4.000000,4.000000,,,,,,,,,,,,,,,,,,,,,,,,,,,,,,,,,,,,,,,,,,,,,,,,,,,,,,,,
1577418879.682464,62.000000,0.000000,3994.358887,4383.589844,4261.025879,4104.615234,3968.718018,0.000000,4.000000,,,,0.000000,4.000000,4.000000,0.000000,4.000000,4.000000,,,,,,,,,,,,,,,,,,,,,,,,,,,,,,,,,,,,,,,,,,,,,,,,,,,,,,,,
1577418879.690266,63.000000,0.000000,3997.948730,4381.025879,4164.615234,4100.512695,3977.948730,0.000000,4.000000,,,,0.000000,4.000000,4.000000,0.000000,4.000000,4.000000,,,,,,,,,,,,,,,,,,,,,,,,,,,,,,,,,,,,,,,,,,,,,,,,,,,,,,,,
1577418879.698168,64.000000,0.000000,3993.333252,4364.102539,4123.589844,4104.102539,3983.589844,450.000000,4.000000,,,,0.000000,4.000000,4.000000,0.000000,4.000000,4.000000,,,,,,,,,,,,,,,,,,,,,,,,,,,,,,,,,,,,,,,,,,,,,,,,,,,,,,,,
1577418879.705970,65.000000,0.000000,3986.153809,4371.794922,4146.153809,4093.846191,3972.820557,450.000000,4.000000,,,,0.000000,4.000000,4.000000,0.000000,4.000000,4.000000,,,,,,,,,,,,,,,,,,,,,,,,,,,,,,,,,,,,,,,,,,,,,,,,,,,,,,,,
1577418879.713872,66.000000,0.000000,3978.974365,4372.307617,4244.102539,4094.358887,3952.820557,16257.000000,4.000000,,,,0.000000,4.000000,4.000000,0.000000,4.000000,4.000000,,,,,,,,,,,,,,,,,,,,,,,,,,,,,,,,,,,,,,,,,,,,,,,,,,,,,,,,
1577418879.721674,67.000000,0.000000,3992.820557,4370.769043,4259.487305,4102.563965,3957.948730,450.000000,4.000000,,,,0.000000,4.000000,4.000000,0.000000,4.000000,4.000000,,,,,,,,,,,,,,,,,,,,,,,,,,,,,,,,,,,,,,,,,,,,,,,,,,,,,,,,
1577418879.729576,68.000000,0.000000,4002.564209,4387.179688,4174.358887,4109.230957,3971.794922,16219.000000,4.000000,,,,0.000000,4.000000,4.000000,0.000000,4.000000,4.000000,,,,,,,,,,,,,,,,,,,,,,,,,,,,,,,,,,,,,,,,,,,,,,,,,,,,,,,,
1577418879.737378,69.000000,0.000000,4005.128174,4395.384766,4094.871826,4120.000000,3984.615479,450.000000,4.000000,,,,0.000000,4.000000,4.000000,0.000000,4.000000,4.000000,,,,,,,,,,,,,,,,,,,,,,,,,,,,,,,,,,,,,,,,,,,,,,,,,,,,,,,,
1577418879.745280,70.000000,0.000000,3996.410156,4371.282227,4125.128418,4103.589844,3992.820557,35.000000,4.000000,,,,0.000000,4.000000,4.000000,0.000000,4.000000,4.000000,,,,,,,,,,,,,,,,,,,,,,,,,,,,,,,,,,,,,,,,,,,,,,,,,,,,,,,,
1577418879.753082,71.000000,0.000000,3964.615479,4359.487305,4257.948730,4091.281982,3982.051270,450.000000,4.000000,,,,0.000000,4.000000,4.000000,0.000000,4.000000,4.000000,,,,,,,,,,,,,,,,,,,,,,,,,,,,,,,,,,,,,,,,,,,,,,,,,,,,,,,,
1577418879.760984,72.000000,0.000000,3976.410156,4392.307617,4260.000000,4102.563965,3980.000000,450.000000,4.000000,,,,0.000000,4.000000,4.000000,0.000000,4.000000,4.000000,,,,,,,,,,,,,,,,,,,,,,,,,,,,,,,,,,,,,,,,,,,,,,,,,,,,,,,,
1577418879.768786,73.000000,0.000000,4004.615479,4391.282227,4163.077148,4111.794922,3980.512939,16166.000000,4.000000,,,,0.000000,4.000000,4.000000,0.000000,4.000000,4.000000,,,,,,,,,,,,,,,,,,,,,,,,,,,,,,,,37.617825,10.883930,1.047784,0.820187,0.416015,0.874408,0.775338,0.976617,1.038994,1.880884,19.410032,5.455002,4.299541,42.523289,27.612717,5.298326,3.048141,1.094237,0.786760,0.423457,16.333485,7.673603,0.619857,0.914813,0.477907
1577418879.776688,74.000000,0.000000,3993.846191,4362.051270,4173.333496,4123.077148,3965.128174,450.000000,4.000000,,,,0.000000,4.000000,4.000000,0.000000,4.000000,4.000000,,,,,,,,,,,,,,,,,,,,,,,,,,,,,,,,,,,,,,,,,,,,,,,,,,,,,,,,
1577418879.784590,75.000000,0.000000,3981.025635,4367.692383,4176.922852,4127.692383,3975.897461,16202.000000,4.000000,,,,0.000000,4.000000,4.000000,0.000000,4.000000,4.000000,,,,,,,,,,,,,,,,,,,,,,,,,,,,,,,,,,,,,,,,,,,,,,,,,,,,,,,,
1577418879.792392,76.000000,0.000000,3975.384521,4380.000000,4149.230957,4139.487305,4000.512939,450.000000,4.000000,,,,0.000000,4.000000,4.000000,0.000000,4.000000,4.000000,,,,,,,,,,,,,,,,,,,,,,,,,,,,,,,,,,,,,,,,,,,,,,,,,,,,,,,,
1577418879.800294,77.000000,0.000000,3986.153809,4380.000000,4122.563965,4138.974121,4001.538574,450.000000,4.000000,,,,0.000000,4.000000,4.000000,0.000000,4.000000,4.000000,,,,,,,,,,,,,,,,,,,,,,,,,,,,,,,,,,,,,,,,,,,,,,,,,,,,,,,,
1577418879.808096,78.000000,0.000000,3991.794922,4375.384766,4184.615234,4108.205078,3988.718018,450.000000,4.000000,,,,0.000000,4.000000,4.000000,0.000000,4.000000,4.000000,,,,,,,,,,,,,,,,,,,,,,,,,,,,,,,,,,,,,,,,,,,,,,,,,,,,,,,,
1577418879.815999,79.000000,0.000000,3978.461426,4370.256348,4325.128418,4097.948730,3981.538574,16202.000000,4.000000,,,,0.000000,4.000000,4.000000,0.000000,4.000000,4.000000,,,,,,,,,,,,,,,,,,,,,,,,,,,,,,,,,,,,,,,,,,,,,,,,,,,,,,,,
1577418879.823801,80.000000,0.000000,3982.051270,4377.436035,4295.384766,4104.102539,3989.230713,450.000000,4.000000,,,,0.000000,4.000000,4.000000,0.000000,4.000000,4.000000,,,,,,,,,,,,,,,,,,,,,,,,,,,,,,,,,,,,,,,,,,,,,,,,,,,,,,,,
1577418879.831703,81.000000,0.000000,3978.461426,4371.794922,4189.230957,4116.922852,3990.256348,450.000000,4.000000,,,,0.000000,4.000000,4.000000,0.000000,4.000000,4.000000,,,,,,,,,,,,,,,,,,,,,,,,,,,,,,,,,,,,,,,,,,,,,,,,,,,,,,,,
1577418879.839505,82.000000,0.000000,3971.794922,4354.358887,4125.128418,4125.641113,3992.307617,450.000000,4.000000,,,,0.000000,4.000000,4.000000,0.000000,4.000000,4.000000,,,,,,,,,,,,,,,,,,,,,,,,,,,,,,,,,,,,,,,,,,,,,,,,,,,,,,,,
1577418879.847407,83.000000,0.000000,3979.487061,4343.077148,4141.025879,4112.307617,4011.794922,16202.000000,4.000000,,,,0.000000,4.000000,4.000000,0.000000,4.000000,4.000000,,,,,,,,,,,,,,,,,,,,,,,,,,,,,,,,,,,,,,,,,,,,,,,,,,,,,,,,
1577418879.855209,84.000000,0.000000,3979.487061,4343.077148,4305.128418,4113.846191,4014.358887,450.000000,4.000000,,,,0.000000,4.000000,4.000000,0.000000,4.000000,4.000000,,,,,,,,,,,,,,,,,,,,,,,,,,,,,,,,,,,,,,,,,,,,,,,,,,,,,,,,
1577418879.863111,85.000000,0.000000,3994.358887,4358.461426,4326.666504,4116.922852,4009.743652,450.000000,4.000000,,,,0.000000,4.000000,4.000000,0.000000,4.000000,4.000000,,,,,,,,,,,,,,,,,,,,,,,,,,,,,,,,,,,,,,,,,,,,,,,,,,,,,,,,
1577418879.870913,86.000000,0.000000,3996.923096,4354.358887,4169.743652,4113.333496,4008.205078,450.000000,4.000000,,,,0.000000,4.000000,4.000000,0.000000,4.000000,4.000000,,,,,,,,,,,,,,,,,,,,,,,,,,,,,,,,,,,,,,,,,,,,,,,,,,,,,,,,
1577418879.878815,87.000000,0.000000,3981.538574,4353.333496,4054.358887,4130.769043,4005.641113,16202.000000,4.000000,,,,0.000000,4.000000,4.000000,0.000000,4.000000,4.000000,,,,,,,,,,,,,,,,,,,,,,,,,,,,,,,,,,,,,,,,,,,,,,,,,,,,,,,,
1577418879.886617,88.000000,0.000000,3982.564209,4364.102539,4118.461426,4128.205078,4014.358887,450.000000,4.000000,,,,0.000000,4.000000,4.000000,0.000000,4.000000,4.000000,,,,,,,,,,,,,,,,,,,,,,,,,,,,,,,,,,,,,,,,,,,,,,,,,,,,,,,,
1577418879.894518,89.000000,0.000000,3966.153809,4351.282227,4291.794922,4109.743652,4009.743652,450.000000,4.000000,,,,0.000000,4.000000,4.000000,0.000000,4.000000,4.000000,,,,,,,,,,,,,,,,,,,,,,,,,,,,,,,,36.652103,10.045573,1.044148,0.810761,0.410357,0.917050,0.736757,0.879666,1.073046,2.078936,17.952436,5.492432,3.845456,44.651333,27.835867,4.509356,2.725047,1.055764,0.816444,0.435261,15.253263,7.171779,0.798503,1.113057,0.485955
1577418879.902421,90.000000,0.000000,3957.948730,4349.230957,4274.358887,4112.307617,3994.871826,450.000000,4.000000,,,,0.000000,4.000000,4.000000,0.000000,4.000000,4.000000,,,,,,,,,,,,,,,,,,,,,,,,,,,,,,,,,,,,,,,,,,,,,,,,,,,,,,,,
1577418879.910223,91.000000,0.000000,3974.358887,4357.436035,4189.230957,4127.179688,3998.974365,16202.000000,4.000000,,,,0.000000,4.000000,4.000000,0.000000,4.000000,4.000000,,,,,,,,,,,,,,,,,,,,,,,,,,,,,,,,,,,,,,,,,,,,,,,,,,,,,,,,
1577418879.918025,92.000000,0.000000,3972.307617,4347.692383,4184.615234,4132.307617,4002.564209,450.000000,4.000000,,,,0.000000,4.000000,4.000000,0.000000,4.000000,4.000000,,,,,,,,,,,,,,,,,,,,,,,,,,,,,,,,,,,,,,,,,,,,,,,,,,,,,,,,
1577418879.925927,93.000000,0.000000,3957.435791,4328.205078,4151.282227,4118.461426,4000.000000,450.000000,4.000000,,,,0.000000,4.000000,4.000000,0.000000,4.000000,4.000000,,,,,,,,,,,,,,,,,,,,,,,,,,,,,,,,,,,,,,,,,,,,,,,,,,,,,,,,
1577418879.933729,94.000000,0.000000,3939.487061,4323.589844,4178.461426,4125.128418,4004.102539,450.000000,4.000000,,,,0.000000,4.000000,4.000000,0.000000,4.000000,4.000000,,,,,,,,,,,,,,,,,,,,,,,,,,,,,,,,,,,,,,,,,,,,,,,,,,,,,,,,
1577418879.941631,95.000000,0.000000,3947.692383,4345.641113,4224.615234,4133.333496,4015.384521,16202.000000,4.000000,,,,0.000000,4.000000,4.000000,0.000000,4.000000,4.000000,,,,,,,,,,,,,,,,,,,,,,,,,,,,,,,,,,,,,,,,,,,,,,,,,,,,,,,,
1577418879.949533,96.000000,0.000000,3967.179443,4351.282227,4203.077148,4111.794922,4026.153809,450.000000,4.000000,,,,0.000000,4.000000,4.000000,0.000000,4.000000,4.000000,,,,,,,,,,,,,,,,,,,,,,,,,,,,,,,,,,,,,,,,,,,,,,,,,,,,,,,,
1577418879.957335,97.000000,0.000000,3969.230713,4335.897461,4201.538574,4106.666504,4031.794922,450.000000,4.000000,,,,0.000000,4.000000,4.000000,0.000000,4.000000,4.000000,,,,,,,,,,,,,,,,,,,,,,,,,,,,,,,,,,,,,,,,,,,,,,,,,,,,,,,,
1577418879.965237,98.000000,0.000000,3971.794922,4337.436035,4186.153809,4105.641113,4031.281982,450.000000,4.000000,,,,0.000000,4.000000,4.000000,0.000000,4.000000,4.000000,,,,,,,,,,,,,,,,,,,,,,,,,,,,,,,,,,,,,,,,,,,,,,,,,,,,,,,,
1577418879.973040,99.000000,0.000000,3963.076904,4338.461426,4165.641113,4104.615234,4025.641113,16202.000000,4.000000,,,,0.000000,4.000000,4.000000,0.000000,4.000000,4.000000,,,,,,,,,,,,,,,,,,,,,,,,,,,,,,,,,,,,,,,,,,,,,,,,,,,,,,,,
1577418879.980942,100.000000,0.000000,3971.794922,4337.436035,4140.512695,4118.461426,4033.846191,450.000000,4.000000,,,,0.000000,4.000000,4.000000,0.000000,4.000000,4.000000,,,,,,,,,,,,,,,,,,,,,,,,,,,,,,,,,,,,,,,,,,,,,,,,,,,,,,,,
1577418879.988744,101.000000,0.000000,3989.743652,4344.615234,4169.743652,4106.666504,4051.281982,450.000000,4.000000,,,,0.000000,4.000000,4.000000,0.000000,4.000000,4.000000,,,,,,,,,,,,,,,,,,,,,,,,,,,,,,,,,,,,,,,,,,,,,,,,,,,,,,,,
1577418879.996646,102.000000,0.000000,3979.487061,4346.666504,4306.153809,4107.692383,4053.846191,450.000000,4.000000,,,,0.000000,4.000000,4.000000,0.000000,4.000000,4.000000,,,,,,,,,,,,,,,,,,,,,,,,,,,,,,,,,,,,,,,,,,,,,,,,,,,,,,,,
1577418880.004448,103.000000,0.000000,3998.974365,4341.025879,4294.358887,4129.743652,4058.461426,16202.000000,4.000000,,,,0.000000,4.000000,4.000000,0.000000,4.000000,4.000000,,,,,,,,,,,,,,,,,,,,,,,,,,,,,,,,,,,,,,,,,,,,,,,,,,,,,,,,
1577418880.012350,104.000000,0.000000,4020.512939,4325.641113,4158.974121,4124.102539,4063.076904,450.000000,4.000000,,,,0.000000,4.000000,4.000000,0.000000,4.000000,4.000000,,,,,,,,,,,,,,,,,,,,,,,,,,,,,,,,,,,,,,,,,,,,,,,,,,,,,,,,
1577418880.020152,105.000000,0.000000,4007.179443,4338.461426,4075.897461,4112.820313,4062.564209,450.000000,4.000000,,,,0.000000,4.000000,4.000000,0.000000,4.000000,4.000000,,,,,,,,,,,,,,,,,,,,,,,,,,,,,,,,31.421904,8.747278,1.072957,0.806394,0.423663,0.879436,0.785967,0.854942,1.110042,2.264075,16.524509,5.591376,3.332110,47.390751,28.095003,3.494357,2.514149,1.017487,0.851286,0.446158,12.681241,6.899669,1.044711,1.387501,0.504892
1577418880.028055,106.000000,0.000000,4006.153809,4361.538574,4141.025879,4103.589844,4061.538574,450.000000,4.000000,,,,0.000000,4.000000,4.000000,0.000000,4.000000,4.000000,,,,,,,,,,,,,,,,,,,,,,,,,,,,,,,,,,,,,,,,,,,,,,,,,,,,,,,,
1577418880.035857,107.000000,0.000000,4009.743652,4341.025879,4329.230957,4100.512695,4058.974365,16202.000000,4.000000,,,,0.000000,4.000000,4.000000,0.000000,4.000000,4.000000,,,,,,,,,,,,,,,,,,,,,,,,,,,,,,,,,,,,,,,,,,,,,,,,,,,,,,,,
1577418880.043759,108.000000,0.000000,4032.820557,4340.512695,4327.692383,4107.179688,4082.051270,450.000000,4.000000,,,,0.000000,4.000000,4.000000,0.000000,4.000000,4.000000,,,,,,,,,,,,,,,,,,,,,,,,,,,,,,,,,,,,,,,,,,,,,,,,,,,,,,,,
1577418880.051561,109.000000,0.000000,4066.666748,4351.282227,4178.461426,4114.871582,4111.794922,450.000000,4.000000,,,,0.000000,4.000000,4.000000,0.000000,4.000000,4.000000,,,,,,,,,,,,,,,,,,,,,,,,,,,,,,,,,,,,,,,,,,,,,,,,,,,,,,,,
1577418880.059463,110.000000,0.000000,4067.179443,4331.282227,4146.666504,4122.051270,4111.282227,450.000000,4.000000,,,,0.000000,4.000000,4.000000,0.000000,4.000000,4.000000,,,,,,,,,,,,,,,,,,,,,,,,,,,,,,,,,,,,,,,,,,,,,,,,,,,,,,,,
1577418880.067265,111.000000,0.000000,4065.641113,4346.666504,4175.384766,4113.846191,4109.230957,16202.000000,4.000000,,,,0.000000,4.000000,4.000000,0.000000,4.000000,4.000000,,,,,,,,,,,,,,,,,,,,,,,,,,,,,,,,,,,,,,,,,,,,,,,,,,,,,,,,
1577418880.075167,112.000000,0.000000,4071.281982,4385.641113,4193.846191,4111.794922,4123.077148,450.000000,4.000000,,,,0.000000,4.000000,4.000000,0.000000,4.000000,4.000000,,,,,,,,,,,,,,,,,,,,,,,,,,,,,,,,,,,,,,,,,,,,,,,,,,,,,,,,
1577418880.083069,113.000000,0.000000,4081.538574,4374.871582,4203.077148,4113.333496,4129.743652,450.000000,4.000000,,,,0.000000,4.000000,4.000000,0.000000,4.000000,4.000000,,,,,,,,,,,,,,,,,,,,,,,,,,,,,,,,,,,,,,,,,,,,,,,,,,,,,,,,
1577418880.090871,114.000000,0.000000,4097.436035,4342.051270,4234.871582,4096.922852,4115.897461,450.000000,4.000000,,,,0.000000,4.000000,4.000000,0.000000,4.000000,4.000000,,,,,,,,,,,,,,,,,,,,,,,,,,,,,,,,,,,,,,,,,,,,,,,,,,,,,,,,
1577418880.098773,115.000000,0.000000,4087.692383,4348.205078,4224.615234,4096.922852,4101.538574,16202.000000,4.000000,,,,0.000000,4.000000,4.000000,0.000000,4.000000,4.000000,,,,,,,,,,,,,,,,,,,,,,,,,,,,,,,,,,,,,,,,,,,,,,,,,,,,,,,,
1577418880.106575,116.000000,0.000000,4061.538574,4363.077148,4164.102539,4098.461426,4102.051270,450.000000,4.000000,,,,0.000000,4.000000,4.000000,0.000000,4.000000,4.000000,,,,,,,,,,,,,,,,,,,,,,,,,,,,,,,,,,,,,,,,,,,,,,,,,,,,,,,,
1577418880.114378,117.000000,0.000000,4041.538574,4341.538574,4197.436035,4085.128174,4094.871826,450.000000,4.000000,,,,0.000000,4.000000,4.000000,0.000000,4.000000,4.000000,,,,,,,,,,,,,,,,,,,,,,,,,,,,,,,,,,,,,,,,,,,,,,,,,,,,,,,,
1577418880.122279,118.000000,0.000000,4045.641113,4336.922852,4226.153809,4075.897461,4087.179443,450.000000,4.000000,,,,0.000000,4.000000,4.000000,0.000000,4.000000,4.000000,,,,,,,,,,,,,,,,,,,,,,,,,,,,,,,,,,,,,,,,,,,,,,,,,,,,,,,,
1577418880.130081,119.000000,0.000000,4064.615479,4366.666504,4198.461426,4071.794922,4091.794922,16202.000000,4.000000,,,,0.000000,4.000000,4.000000,0.000000,4.000000,4.000000,,,,,,,,,,,,,,,,,,,,,,,,,,,,,,,,,,,,,,,,,,,,,,,,,,,,,,,,
1577418880.137983,120.000000,0.000000,4070.256348,4378.461426,4248.205078,4087.179443,4102.051270,450.000000,4.000000,,,,0.000000,4.000000,4.000000,0.000000,4.000000,4.000000,,,,,,,,,,,,,,,,,,,,,,,,,,,,,,,,,,,,,,,,,,,,,,,,,,,,,,,,
1577418880.145785,121.000000,0.000000,4081.538574,4375.384766,4230.769043,4101.538574,4106.666504,450.000000,4.000000,,,,0.000000,4.000000,4.000000,0.000000,4.000000,4.000000,,,,,,,,,,,,,,,,,,,,,,,,,,,,,,,,23.946491,7.206324,1.143345,0.818845,0.458999,0.768242,0.899367,0.899003,1.137151,2.369800,14.967245,5.701976,2.940247,50.429916,28.213118,2.563918,2.483592,0.995229,0.898156,0.449594,9.535436,6.755736,1.300786,1.727339,0.522519
1577418880.153687,122.000000,0.000000,4091.281982,4365.641113,4186.666504,4110.256348,4092.307617,450.000000,4.000000,,,,0.000000,4.000000,4.000000,0.000000,4.000000,4.000000,,,,,,,,,,,,,,,,,,,,,,,,,,,,,,,,,,,,,,,,,,,,,,,,,,,,,,,,
1577418880.161489,123.000000,0.000000,4088.205078,4351.282227,4161.538574,4122.563965,4090.769287,16202.000000,4.000000,,,,0.000000,4.000000,4.000000,0.000000,4.000000,4.000000,,,,,,,,,,,,,,,,,,,,,,,,,,,,,,,,,,,,,,,,,,,,,,,,,,,,,,,,
1577418880.169391,124.000000,0.000000,4094.358887,4355.384766,4172.307617,4116.410156,4106.666504,450.000000,4.000000,,,,0.000000,4.000000,4.000000,0.000000,4.000000,4.000000,,,,,,,,,,,,,,,,,,,,,,,,,,,,,,,,,,,,,,,,,,,,,,,,,,,,,,,,
1577418880.177193,125.000000,0.000000,4097.436035,4373.333496,4278.461426,4113.846191,4108.205078,450.000000,4.000000,,,,0.000000,4.000000,4.000000,0.000000,4.000000,4.000000,,,,,,,,,,,,,,,,,,,,,,,,,,,,,,,,,,,,,,,,,,,,,,,,,,,,,,,,
1577418880.185095,126.000000,0.000000,4099.487305,4381.025879,4291.794922,4116.410156,4104.615234,450.000000,4.000000,,,,0.000000,4.000000,4.000000,0.000000,4.000000,4.000000,,,,,,,,,,,,,,,,,,,,,,,,,,,,,,,,,,,,,,,,,,,,,,,,,,,,,,,,
1577418880.192897,127.000000,0.000000,4100.000000,4364.102539,4184.615234,4103.077148,4090.769287,238.000000,4.000000,,,,0.000000,4.000000,4.000000,0.000000,4.000000,4.000000,,,,,,,,,,,,,,,,,,,,,,,,,,,,,,,,,,,,,,,,,,,,,,,,,,,,,,,,
1577418880.200599,0.000000,0.000000,4105.128418,4365.641113,4150.769043,4094.358887,4081.538574,450.000000,4.000000,,,,0.000000,4.000000,4.000000,0.000000,4.000000,4.000000,,,,,,,,,,,,,,,,,,,,,,,,,,,,,,,,,,,,,,,,,,,,,,,,,,,,,,,,
1577418880.208501,1.000000,0.000000,4116.922852,4386.153809,4171.282227,4103.589844,4091.281982,450.000000,4.000000,,,,0.000000,4.000000,4.000000,0.000000,4.000000,4.000000,,,,,,,,,,,,,,,,,,,,,,,,,,,,,,,,,,,,,,,,,,,,,,,,,,,,,,,,
1577418880.216304,2.000000,0.000000,4107.179688,4374.358887,4192.820313,4112.820313,4095.897461,16205.000000,4.000000,,,,0.000000,4.000000,4.000000,0.000000,4.000000,4.000000,,,,,,,,,,,,,,,,,,,,,,,,,,,,,,,,,,,,,,,,,,,,,,,,,,,,,,,,
1577418880.224206,3.000000,0.000000,4117.436035,4372.307617,4206.666504,4110.256348,4105.128418,450.000000,4.000000,,,,0.000000,4.000000,4.000000,0.000000,4.000000,4.000000,,,,,,,,,,,,,,,,,,,,,,,,,,,,,,,,,,,,,,,,,,,,,,,,,,,,,,,,
1577418880.232008,4.000000,0.000000,4144.615234,4389.230957,4226.153809,4114.871582,4105.641113,16213.000000,4.000000,,,,0.000000,4.000000,4.000000,0.000000,4.000000,4.000000,,,,,,,,,,,,,,,,,,,,,,,,,,,,,,,,,,,,,,,,,,,,,,,,,,,,,,,,
1577418880.239909,5.000000,0.000000,4142.563965,4386.153809,4211.794922,4124.102539,4095.897461,450.000000,4.000000,,,,0.000000,4.000000,4.000000,0.000000,4.000000,4.000000,,,,,,,,,,,,,,,,,,,,,,,,,,,,,,,,,,,,,,,,,,,,,,,,,,,,,,,,
1577418880.247711,6.000000,0.000000,4134.871582,4375.897461,4166.153809,4113.333496,4104.102539,31.000000,4.000000,,,,0.000000,4.000000,4.000000,0.000000,4.000000,4.000000,,,,,,,,,,,,,,,,,,,,,,,,,,,,,,,,,,,,,,,,,,,,,,,,,,,,,,,,
1577418880.255613,7.000000,0.000000,4136.410156,4362.563965,4193.846191,4124.615234,4118.461426,450.000000,4.000000,,,,0.000000,4.000000,4.000000,0.000000,4.000000,4.000000,,,,,,,,,,,,,,,,,,,,,,,,,,,,,,,,,,,,,,,,,,,,,,,,,,,,,,,,
1577418880.263415,8.000000,0.000000,4144.102539,4360.000000,4191.282227,4138.974121,4123.077148,450.000000,4.000000,,,,0.000000,4.000000,4.000000,0.000000,4.000000,4.000000,,,,,,,,,,,,,,,,,,,,,,,,,,,,,,,,,,,,,,,,,,,,,,,,,,,,,,,,
1577418880.271317,9.000000,0.000000,4135.384766,4371.282227,4195.384766,4109.230957,4103.077148,16158.000000,4.000000,,,,0.000000,4.000000,4.000000,0.000000,4.000000,4.000000,,,,,,,,,,,,,,,,,,,,,,,,,,,,,,,,17.234221,5.685208,1.250585,0.859327,0.513051,0.628574,1.032911,0.989744,1.143769,2.351047,13.229658,5.708323,2.869905,53.698811,28.115082,1.989891,2.610058,1.003124,0.957281,0.443509,7.067141,6.540438,1.516066,2.075561,0.524240
1577418880.279119,10.000000,0.000000,4127.692383,4378.461426,4282.563965,4088.718018,4087.692383,450.000000,4.000000,,,,0.000000,4.000000,4.000000,0.000000,4.000000,4.000000,,,,,,,,,,,,,,,,,,,,,,,,,,,,,,,,,,,,,,,,,,,,,,,,,,,,,,,,
1577418880.287021,11.000000,0.000000,4145.128418,4370.769043,4226.153809,4107.692383,4103.589844,16252.000000,4.000000,,,,0.000000,4.000000,4.000000,0.000000,4.000000,4.000000,,,,,,,,,,,,,,,,,,,,,,,,,,,,,,,,,,,,,,,,,,,,,,,,,,,,,,,,
1577418880.294823,12.000000,0.000000,4130.769043,4367.179688,4170.769043,4141.025879,4103.077148,450.000000,4.000000,,,,0.000000,4.000000,4.000000,0.000000,4.000000,4.000000,,,,,,,,,,,,,,,,,,,,,,,,,,,,,,,,,,,,,,,,,,,,,,,,,,,,,,,,
1577418880.302725,13.000000,0.000000,4114.358887,4385.641113,4177.948730,4144.615234,4086.153809,450.000000,4.000000,,,,0.000000,4.000000,4.000000,0.000000,4.000000,4.000000,,,,,,,,,,,,,,,,,,,,,,,,,,,,,,,,,,,,,,,,,,,,,,,,,,,,,,,,
1577418880.310527,14.000000,0.000000,4129.230957,4383.077148,4183.077148,4123.589844,4091.794922,450.000000,4.000000,,,,0.000000,4.000000,4.000000,0.000000,4.000000,4.000000,,,,,,,,,,,,,,,,,,,,,,,,,,,,,,,,,,,,,,,,,,,,,,,,,,,,,,,,
1577418880.318429,15.000000,0.000000,4134.358887,4370.256348,4261.025879,4129.230957,4109.230957,16252.000000,4.000000,,,,0.000000,4.000000,4.000000,0.000000,4.000000,4.000000,,,,,,,,,,,,,,,,,,,,,,,,,,,,,,,,,,,,,,,,,,,,,,,,,,,,,,,,
1577418880.326231,16.000000,0.000000,4138.974121,4384.615234,4253.333496,4127.179688,4107.692383,0.000000,4.000000,,,,0.000000,4.000000,4.000000,0.000000,4.000000,4.000000,,,,,,,,,,,,,,,,,,,,,,,,,,,,,,,,,,,,,,,,,,,,,,,,,,,,,,,,
1577418880.334133,17.000000,0.000000,4129.743652,4387.692383,4171.794922,4108.717773,4075.384521,0.000000,4.000000,,,,0.000000,4.000000,4.000000,0.000000,4.000000,4.000000,,,,,,,,,,,,,,,,,,,,,,,,,,,,,,,,,,,,,,,,,,,,,,,,,,,,,,,,
1577418880.341935,18.000000,0.000000,4119.487305,4382.051270,4129.743652,4111.794922,4068.718018,0.000000,4.000000,,,,0.000000,4.000000,4.000000,0.000000,4.000000,4.000000,,,,,,,,,,,,,,,,,,,,,,,,,,,,,,,,,,,,,,,,,,,,,,,,,,,,,,,,
1577418880.349837,19.000000,0.000000,4135.897461,4382.563965,4145.128418,4127.692383,4105.128418,0.000000,4.000000,,,,0.000000,4.000000,4.000000,0.000000,4.000000,4.000000,,,,,,,,,,,,,,,,,,,,,,,,,,,,,,,,,,,,,,,,,,,,,,,,,,,,,,,,
1577418880.357739,20.000000,0.000000,4125.641113,4373.333496,4240.512695,4142.563965,4107.179688,0.000000,4.000000,,,,0.000000,4.000000,4.000000,0.000000,4.000000,4.000000,,,,,,,,,,,,,,,,,,,,,,,,,,,,,,,,,,,,,,,,,,,,,,,,,,,,,,,,
1577418880.365541,21.000000,0.000000,4112.820313,4379.487305,4280.512695,4129.230957,4097.436035,0.000000,4.000000,,,,0.000000,4.000000,4.000000,0.000000,4.000000,4.000000,,,,,,,,,,,,,,,,,,,,,,,,,,,,,,,,,,,,,,,,,,,,,,,,,,,,,,,,
1577418880.373443,22.000000,0.000000,4132.820313,4378.974121,4203.589844,4110.769043,4121.025879,0.000000,4.000000,,,,0.000000,4.000000,4.000000,0.000000,4.000000,4.000000,,,,,,,,,,,,,,,,,,,,,,,,,,,,,,,,,,,,,,,,,,,,,,,,,,,,,,,,
1577418880.381246,23.000000,0.000000,4160.512695,4362.051270,4114.871582,4131.282227,4137.436035,0.000000,4.000000,,,,0.000000,4.000000,4.000000,0.000000,4.000000,4.000000,,,,,,,,,,,,,,,,,,,,,,,,,,,,,,,,,,,,,,,,,,,,,,,,,,,,,,,,
1577418880.389148,24.000000,0.000000,4162.563965,4375.384766,4123.589844,4152.820313,4126.666504,0.000000,4.000000,,,,0.000000,4.000000,4.000000,0.000000,4.000000,4.000000,,,,,,,,,,,,,,,,,,,,,,,,,,,,,,,,,,,,,,,,,,,,,,,,,,,,,,,,
1577418880.396950,25.000000,0.000000,4133.333496,4378.974121,4246.153809,4160.000000,4106.666504,0.000000,4.000000,,,,0.000000,4.000000,4.000000,0.000000,4.000000,4.000000,,,,,,,,,,,,,,,,,,,,,,,,,,,,,,,,12.789340,4.481937,1.388135,0.935844,0.573808,0.498017,1.142645,1.112378,1.134538,2.208321,11.386865,5.516435,3.220299,57.332764,27.882910,1.805790,2.801596,1.079990,1.021977,0.430270,5.588403,6.136935,1.665477,2.341765,0.502968
1577418880.404852,26.000000,0.000000,4132.307617,4356.922852,4263.589844,4153.333496,4108.205078,0.000000,4.000000,,,,0.000000,4.000000,4.000000,0.000000,4.000000,4.000000,,,,,,,,,,,,,,,,,,,,,,,,,,,,,,,,,,,,,,,,,,,,,,,,,,,,,,,,
1577418880.412654,27.000000,0.000000,4150.256348,4350.256348,4197.948730,4140.512695,4126.666504,0.000000,4.000000,,,,0.000000,4.000000,4.000000,0.000000,4.000000,4.000000,,,,,,,,,,,,,,,,,,,,,,,,,,,,,,,,,,,,,,,,,,,,,,,,,,,,,,,,
1577418880.420557,28.000000,0.000000,4156.922852,4376.410156,4225.128418,4149.230957,4136.410156,0.000000,4.000000,,,,0.000000,4.000000,4.000000,0.000000,4.000000,4.000000,,,,,,,,,,,,,,,,,,,,,,,,,,,,,,,,,,,,,,,,,,,,,,,,,,,,,,,,
1577418880.428359,29.000000,0.000000,4176.410156,4397.436035,4206.666504,4155.384766,4148.205078,0.000000,4.000000,,,,0.000000,4.000000,4.000000,0.000000,4.000000,4.000000,,,,,,,,,,,,,,,,,,,,,,,,,,,,,,,,,,,,,,,,,,,,,,,,,,,,,,,,
1577418880.436261,30.000000,0.000000,4180.512695,4367.692383,4169.230957,4160.512695,4151.282227,0.000000,4.000000,,,,0.000000,4.000000,4.000000,0.000000,4.000000,4.000000,,,,,,,,,,,,,,,,,,,,,,,,,,,,,,,,,,,,,,,,,,,,,,,,,,,,,,,,
1577418880.444063,31.000000,0.000000,4174.871582,4355.384766,4142.563965,4167.692383,4149.743652,0.000000,4.000000,,,,0.000000,4.000000,4.000000,0.000000,4.000000,4.000000,,,,,,,,,,,,,,,,,,,,,,,,,,,,,,,,,,,,,,,,,,,,,,,,,,,,,,,,
1577418880.451965,32.000000,0.000000,4176.410156,4387.179688,4184.615234,4159.487305,4161.538574,0.000000,4.000000,,,,0.000000,4.000000,4.000000,0.000000,4.000000,4.000000,,,,,,,,,,,,,,,,,,,,,,,,,,,,,,,,,,,,,,,,,,,,,,,,,,,,,,,,
1577418880.459767,33.000000,0.000000,4172.820313,4385.128418,4323.077148,4170.256348,4163.589844,0.000000,4.000000,,,,0.000000,4.000000,4.000000,0.000000,4.000000,4.000000,,,,,,,,,,,,,,,,,,,,,,,,,,,,,,,,,,,,,,,,,,,,,,,,,,,,,,,,
1577418880.467669,34.000000,0.000000,4167.692383,4349.230957,4283.077148,4166.153809,4154.871582,0.000000,4.000000,,,,0.000000,4.000000,4.000000,0.000000,4.000000,4.000000,,,,,,,,,,,,,,,,,,,,,,,,,,,,,,,,,,,,,,,,,,,,,,,,,,,,,,,,
1577418880.475471,35.000000,0.000000,4150.256348,4331.282227,4149.743652,4140.000000,4142.563965,0.000000,4.000000,,,,0.000000,4.000000,4.000000,0.000000,4.000000,4.000000,,,,,,,,,,,,,,,,,,,,,,,,,,,,,,,,,,,,,,,,,,,,,,,,,,,,,,,,
1577418880.483372,36.000000,0.000000,4155.897461,4355.897461,4107.179688,4140.512695,4140.000000,0.000000,4.000000,,,,0.000000,4.000000,4.000000,0.000000,4.000000,4.000000,,,,,,,,,,,,,,,,,,,,,,,,,,,,,,,,,,,,,,,,,,,,,,,,,,,,,,,,
1577418880.491175,37.000000,0.000000,4172.820313,4372.307617,4156.922852,4143.077148,4156.922852,0.000000,4.000000,,,,0.000000,4.000000,4.000000,0.000000,4.000000,4.000000,,,,,,,,,,,,,,,,,,,,,,,,,,,,,,,,,,,,,,,,,,,,,,,,,,,,,,,,
1577418880.499076,38.000000,0.000000,4154.358887,4357.948730,4302.051270,4143.077148,4155.384766,0.000000,4.000000,,,,0.000000,4.000000,4.000000,0.000000,4.000000,4.000000,,,,,,,,,,,,,,,,,,,,,,,,,,,,,,,,,,,,,,,,,,,,,,,,,,,,,,,,
1577418880.506979,39.000000,0.000000,4150.256348,4348.717773,4314.871582,4140.512695,4142.563965,0.000000,4.000000,,,,0.000000,4.000000,4.000000,0.000000,4.000000,4.000000,,,,,,,,,,,,,,,,,,,,,,,,,,,,,,,,,,,,,,,,,,,,,,,,,,,,,,,,
1577418880.514781,40.000000,0.000000,4160.000000,4350.769043,4169.743652,4140.000000,4142.563965,0.000000,4.000000,,,,0.000000,4.000000,4.000000,0.000000,4.000000,4.000000,,,,,,,,,,,,,,,,,,,,,,,,,,,,,,,,,,,,,,,,,,,,,,,,,,,,,,,,
1577418880.522683,41.000000,0.000000,4151.794922,4360.000000,4081.025635,4146.666504,4140.000000,0.000000,4.000000,,,,0.000000,4.000000,4.000000,0.000000,4.000000,4.000000,,,,,,,,,,,,,,,,,,,,,,,,,,,,,,,,11.330638,3.739443,1.532480,1.046144,0.626186,0.396854,1.195821,1.247262,1.123829,1.985637,9.599165,5.116138,3.879108,61.320255,27.600946,1.919413,2.969759,1.273590,1.083731,0.417536,5.284014,5.571402,1.738234,2.448101,0.466694
1577418880.530485,42.000000,0.000000,4147.692383,4357.436035,4137.436035,4131.794922,4141.538574,0.000000,4.000000,,,,0.000000,4.000000,4.000000,0.000000,4.000000,4.000000,,,,,,,,,,,,,,,,,,,,,,,,,,,,,,,,,,,,,,,,,,,,,,,,,,,,,,,,
1577418880.538387,43.000000,0.000000,4143.589844,4342.051270,4254.358887,4128.717773,4154.358887,0.000000,4.000000,,,,0.000000,4.000000,4.000000,0.000000,4.000000,4.000000,,,,,,,,,,,,,,,,,,,,,,,,,,,,,,,,,,,,,,,,,,,,,,,,,,,,,,,,
1577418880.546190,44.000000,0.000000,4162.563965,4343.077148,4249.743652,4145.641113,4170.769043,0.000000,4.000000,,,,0.000000,4.000000,4.000000,0.000000,4.000000,4.000000,,,,,,,,,,,,,,,,,,,,,,,,,,,,,,,,,,,,,,,,,,,,,,,,,,,,,,,,
1577418880.553992,45.000000,0.000000,4179.487305,4348.717773,4209.743652,4137.436035,4174.358887,0.000000,4.000000,,,,0.000000,4.000000,4.000000,0.000000,4.000000,4.000000,,,,,,,,,,,,,,,,,,,,,,,,,,,,,,,,,,,,,,,,,,,,,,,,,,,,,,,,
1577418880.561694,46.000000,0.000000,4165.128418,4346.666504,4212.307617,4125.128418,4167.179688,0.000000,4.000000,,,,0.000000,4.000000,4.000000,0.000000,4.000000,4.000000,,,,,,,,,,,,,,,,,,,,,,,,,,,,,,,,,,,,,,,,,,,,,,,,,,,,,,,,
1577418880.569496,47.000000,0.000000,4175.384766,4340.512695,4169.230957,4130.256348,4181.538574,0.000000,4.000000,,,,0.000000,4.000000,4.000000,0.000000,4.000000,4.000000,,,,,,,,,,,,,,,,,,,,,,,,,,,,,,,,,,,,,,,,,,,,,,,,,,,,,,,,
1577418880.577198,48.000000,0.000000,4192.307617,4339.487305,4184.615234,4145.641113,4205.641113,0.000000,4.000000,,,,0.000000,4.000000,4.000000,0.000000,4.000000,4.000000,,,,,,,,,,,,,,,,,,,,,,,,,,,,,,,,,,,,,,,,,,,,,,,,,,,,,,,,
1577418880.585100,49.000000,0.000000,4191.282227,4366.666504,4200.000000,4144.615234,4203.077148,0.000000,4.000000,,,,0.000000,4.000000,4.000000,0.000000,4.000000,4.000000,,,,,,,,,,,,,,,,,,,,,,,,,,,,,,,,,,,,,,,,,,,,,,,,,,,,,,,,
1577418880.592902,50.000000,0.000000,4186.153809,4367.692383,4191.282227,4119.487305,4188.717773,0.000000,4.000000,,,,0.000000,4.000000,4.000000,0.000000,4.000000,4.000000,,,,,,,,,,,,,,,,,,,,,,,,,,,,,,,,,,,,,,,,,,,,,,,,,,,,,,,,
1577418880.600805,51.000000,0.000000,4177.436035,4334.871582,4269.743652,4129.230957,4192.307617,0.000000,4.000000,,,,0.000000,4.000000,4.000000,0.000000,4.000000,4.000000,,,,,,,,,,,,,,,,,,,,,,,,,,,,,,,,,,,,,,,,,,,,,,,,,,,,,,,,
1577418880.608607,52.000000,0.000000,4195.897461,4351.282227,4246.666504,4149.743652,4204.102539,0.000000,4.000000,,,,0.000000,4.000000,4.000000,0.000000,4.000000,4.000000,,,,,,,,,,,,,,,,,,,,,,,,,,,,,,,,,,,,,,,,,,,,,,,,,,,,,,,,
1577418880.616509,53.000000,0.000000,4198.974121,4363.077148,4163.589844,4135.897461,4199.487305,0.000000,4.000000,,,,0.000000,4.000000,4.000000,0.000000,4.000000,4.000000,,,,,,,,,,,,,,,,,,,,,,,,,,,,,,,,,,,,,,,,,,,,,,,,,,,,,,,,
1577418880.624311,54.000000,0.000000,4186.666504,4335.384766,4105.128418,4134.358887,4197.948730,0.000000,4.000000,,,,0.000000,4.000000,4.000000,0.000000,4.000000,4.000000,,,,,,,,,,,,,,,,,,,,,,,,,,,,,,,,,,,,,,,,,,,,,,,,,,,,,,,,
1577418880.632213,55.000000,0.000000,4202.563965,4328.717773,4149.743652,4143.077148,4212.820313,0.000000,4.000000,,,,0.000000,4.000000,4.000000,0.000000,4.000000,4.000000,,,,,,,,,,,,,,,,,,,,,,,,,,,,,,,,,,,,,,,,,,,,,,,,,,,,,,,,
1577418880.640015,56.000000,0.000000,4195.384766,4335.384766,4334.358887,4138.974121,4212.307617,0.000000,4.000000,,,,0.000000,4.000000,4.000000,0.000000,4.000000,4.000000,,,,,,,,,,,,,,,,,,,,,,,,,,,,,,,,,,,,,,,,,,,,,,,,,,,,,,,,
1577418880.647917,57.000000,0.000000,4185.641113,4347.179688,4333.333496,4124.102539,4206.153809,0.000000,4.000000,,,,0.000000,4.000000,4.000000,0.000000,4.000000,4.000000,,,,,,,,,,,,,,,,,,,,,,,,,,,,,,,,11.728194,3.389673,1.656644,1.175743,0.660727,0.334669,1.181483,1.352621,1.115631,1.747990,7.971608,4.592478,4.573069,65.388786,27.320154,2.220453,3.046156,1.588474,1.136716,0.418331,5.560796,4.931342,1.747080,2.364873,0.438802
1577418880.655819,58.000000,0.000000,4200.000000,4353.846191,4157.436035,4120.000000,4210.769043,0.000000,4.000000,,,,0.000000,4.000000,4.000000,0.000000,4.000000,4.000000,,,,,,,,,,,,,,,,,,,,,,,,,,,,,,,,,,,,,,,,,,,,,,,,,,,,,,,,
1577418880.663621,59.000000,0.000000,4197.436035,4349.230957,4076.410156,4123.589844,4208.717773,0.000000,4.000000,,,,0.000000,4.000000,4.000000,0.000000,4.000000,4.000000,,,,,,,,,,,,,,,,,,,,,,,,,,,,,,,,,,,,,,,,,,,,,,,,,,,,,,,,
1577418880.671424,60.000000,0.000000,4192.307617,4351.794922,4134.871582,4104.102539,4196.410156,0.000000,4.000000,,,,0.000000,4.000000,4.000000,0.000000,4.000000,4.000000,,,,,,,,,,,,,,,,,,,,,,,,,,,,,,,,,,,,,,,,,,,,,,,,,,,,,,,,
1577418880.679326,61.000000,0.000000,4186.666504,4351.282227,4258.461426,4099.487305,4185.128418,0.000000,4.000000,,,,0.000000,4.000000,4.000000,0.000000,4.000000,4.000000,,,,,,,,,,,,,,,,,,,,,,,,,,,,,,,,,,,,,,,,,,,,,,,,,,,,,,,,
1577418880.687128,62.000000,0.000000,4184.615234,4346.666504,4271.794922,4108.717773,4187.692383,0.000000,4.000000,,,,0.000000,4.000000,4.000000,0.000000,4.000000,4.000000,,,,,,,,,,,,,,,,,,,,,,,,,,,,,,,,,,,,,,,,,,,,,,,,,,,,,,,,
1577418880.694830,63.000000,0.000000,4187.179688,4341.538574,4197.948730,4095.897461,4191.282227,0.000000,4.000000,,,,0.000000,4.000000,4.000000,0.000000,4.000000,4.000000,,,,,,,,,,,,,,,,,,,,,,,,,,,,,,,,,,,,,,,,,,,,,,,,,,,,,,,,
1577418880.702632,64.000000,0.000000,4190.256348,4346.153809,4143.589844,4101.025879,4193.333496,450.000000,4.000000,,,,0.000000,4.000000,4.000000,0.000000,4.000000,4.000000,,,,,,,,,,,,,,,,,,,,,,,,,,,,,,,,,,,,,,,,,,,,,,,,,,,,,,,,
1577418880.710334,65.000000,0.000000,4198.461426,4367.692383,4138.974121,4111.282227,4190.769043,450.000000,4.000000,,,,0.000000,4.000000,4.000000,0.000000,4.000000,4.000000,,,,,,,,,,,,,,,,,,,,,,,,,,,,,,,,,,,,,,,,,,,,,,,,,,,,,,,,
1577418880.718136,66.000000,0.000000,4188.205078,4370.256348,4205.128418,4111.794922,4177.436035,16263.000000,4.000000,,,,0.000000,4.000000,4.000000,0.000000,4.000000,4.000000,,,,,,,,,,,,,,,,,,,,,,,,,,,,,,,,,,,,,,,,,,,,,,,,,,,,,,,,
1577418880.725838,67.000000,0.000000,4187.179688,4353.333496,4213.846191,4116.922852,4189.743652,450.000000,4.000000,,,,0.000000,4.000000,4.000000,0.000000,4.000000,4.000000,,,,,,,,,,,,,,,,,,,,,,,,,,,,,,,,,,,,,,,,,,,,,,,,,,,,,,,,
1577418880.733640,68.000000,0.000000,4218.461426,4346.153809,4206.666504,4117.436035,4216.922852,16236.000000,4.000000,,,,0.000000,4.000000,4.000000,0.000000,4.000000,4.000000,,,,,,,,,,,,,,,,,,,,,,,,,,,,,,,,,,,,,,,,,,,,,,,,,,,,,,,,
1577418880.741342,69.000000,0.000000,4229.230957,4345.641113,4261.025879,4120.512695,4217.436035,450.000000,4.000000,,,,0.000000,4.000000,4.000000,0.000000,4.000000,4.000000,,,,,,,,,,,,,,,,,,,,,,,,,,,,,,,,,,,,,,,,,,,,,,,,,,,,,,,,
1577418880.749144,70.000000,0.000000,4215.897461,4349.743652,4212.820313,4108.205078,4200.512695,29.000000,4.000000,,,,0.000000,4.000000,4.000000,0.000000,4.000000,4.000000,,,,,,,,,,,,,,,,,,,,,,,,,,,,,,,,,,,,,,,,,,,,,,,,,,,,,,,,
1577418880.756846,71.000000,0.000000,4206.666504,4356.922852,4163.077148,4099.487305,4184.102539,450.000000,4.000000,,,,0.000000,4.000000,4.000000,0.000000,4.000000,4.000000,,,,,,,,,,,,,,,,,,,,,,,,,,,,,,,,,,,,,,,,,,,,,,,,,,,,,,,,
1577418880.764748,72.000000,0.000000,4209.230957,4369.743652,4160.512695,4108.205078,4187.692383,450.000000,4.000000,,,,0.000000,4.000000,4.000000,0.000000,4.000000,4.000000,,,,,,,,,,,,,,,,,,,,,,,,,,,,,,,,,,,,,,,,,,,,,,,,,,,,,,,,
1577418880.772551,73.000000,0.000000,4207.179688,4365.128418,4179.487305,4095.897461,4186.153809,16210.000000,4.000000,,,,0.000000,4.000000,4.000000,0.000000,4.000000,4.000000,,,,,,,,,,,,,,,,,,,,,,,,,,,,,,,,12.252638,3.231379,1.736710,1.302901,0.679010,0.304899,1.118982,1.393144,1.099226,1.557610,6.513931,4.039920,4.970163,69.020493,26.915833,2.596405,2.965743,1.973162,1.180900,0.444310,5.713992,4.296553,1.719025,2.126306,0.445271
1577418880.780453,74.000000,0.000000,4186.153809,4334.358887,4266.153809,4084.102539,4159.487305,450.000000,4.000000,,,,0.000000,4.000000,4.000000,0.000000,4.000000,4.000000,,,,,,,,,,,,,,,,,,,,,,,,,,,,,,,,,,,,,,,,,,,,,,,,,,,,,,,,
1577418880.788255,75.000000,0.000000,4182.563965,4329.743652,4248.717773,4090.256348,4158.974121,16203.000000,4.000000,,,,0.000000,4.000000,4.000000,0.000000,4.000000,4.000000,,,,,,,,,,,,,,,,,,,,,,,,,,,,,,,,,,,,,,,,,,,,,,,,,,,,,,,,
1577418880.796157,76.000000,0.000000,4189.743652,4354.358887,4176.410156,4096.410156,4175.384766,450.000000,4.000000,,,,0.000000,4.000000,4.000000,0.000000,4.000000,4.000000,,,,,,,,,,,,,,,,,,,,,,,,,,,,,,,,,,,,,,,,,,,,,,,,,,,,,,,,
1577418880.803959,77.000000,0.000000,4200.000000,4376.410156,4155.384766,4099.487305,4185.641113,450.000000,4.000000,,,,0.000000,4.000000,4.000000,0.000000,4.000000,4.000000,,,,,,,,,,,,,,,,,,,,,,,,,,,,,,,,,,,,,,,,,,,,,,,,,,,,,,,,
1577418880.811862,78.000000,0.000000,4219.487305,4381.538574,4157.948730,4098.974121,4191.794922,450.000000,4.000000,,,,0.000000,4.000000,4.000000,0.000000,4.000000,4.000000,,,,,,,,,,,,,,,,,,,,,,,,,,,,,,,,,,,,,,,,,,,,,,,,,,,,,,,,
1577418880.819664,79.000000,0.000000,4217.436035,4370.769043,4217.436035,4098.461426,4179.487305,16203.000000,4.000000,,,,0.000000,4.000000,4.000000,0.000000,4.000000,4.000000,,,,,,,,,,,,,,,,,,,,,,,,,,,,,,,,,,,,,,,,,,,,,,,,,,,,,,,,
1577418880.827566,80.000000,0.000000,4219.487305,4369.230957,4252.307617,4100.512695,4170.769043,450.000000,4.000000,,,,0.000000,4.000000,4.000000,0.000000,4.000000,4.000000,,,,,,,,,,,,,,,,,,,,,,,,,,,,,,,,,,,,,,,,,,,,,,,,,,,,,,,,
1577418880.835368,81.000000,0.000000,4233.333496,4374.871582,4196.410156,4117.948730,4174.871582,450.000000,4.000000,,,,0.000000,4.000000,4.000000,0.000000,4.000000,4.000000,,,,,,,,,,,,,,,,,,,,,,,,,,,,,,,,,,,,,,,,,,,,,,,,,,,,,,,,
1577418880.843270,82.000000,0.000000,4236.922852,4387.692383,4135.384766,4131.794922,4186.666504,450.000000,4.000000,,,,0.000000,4.000000,4.000000,0.000000,4.000000,4.000000,,,,,,,,,,,,,,,,,,,,,,,,,,,,,,,,,,,,,,,,,,,,,,,,,,,,,,,,
1577418880.851072,83.000000,0.000000,4237.948730,4382.563965,4140.000000,4117.948730,4198.974121,16203.000000,4.000000,,,,0.000000,4.000000,4.000000,0.000000,4.000000,4.000000,,,,,,,,,,,,,,,,,,,,,,,,,,,,,,,,,,,,,,,,,,,,,,,,,,,,,,,,
1577418880.858974,84.000000,0.000000,4232.307617,4355.897461,4195.897461,4122.563965,4200.512695,450.000000,4.000000,,,,0.000000,4.000000,4.000000,0.000000,4.000000,4.000000,,,,,,,,,,,,,,,,,,,,,,,,,,,,,,,,,,,,,,,,,,,,,,,,,,,,,,,,
1577418880.866776,85.000000,0.000000,4243.589844,4369.743652,4183.589844,4137.948730,4206.153809,450.000000,4.000000,,,,0.000000,4.000000,4.000000,0.000000,4.000000,4.000000,,,,,,,,,,,,,,,,,,,,,,,,,,,,,,,,,,,,,,,,,,,,,,,,,,,,,,,,
1577418880.874677,86.000000,0.000000,4254.358887,4389.743652,4200.512695,4127.692383,4197.436035,450.000000,4.000000,,,,0.000000,4.000000,4.000000,0.000000,4.000000,4.000000,,,,,,,,,,,,,,,,,,,,,,,,,,,,,,,,,,,,,,,,,,,,,,,,,,,,,,,,
1577418880.882580,87.000000,0.000000,4237.436035,4357.948730,4280.000000,4123.077148,4176.410156,16203.000000,4.000000,,,,0.000000,4.000000,4.000000,0.000000,4.000000,4.000000,,,,,,,,,,,,,,,,,,,,,,,,,,,,,,,,,,,,,,,,,,,,,,,,,,,,,,,,
1577418880.890482,88.000000,0.000000,4218.974121,4344.615234,4217.436035,4130.256348,4176.922852,450.000000,4.000000,,,,0.000000,4.000000,4.000000,0.000000,4.000000,4.000000,,,,,,,,,,,,,,,,,,,,,,,,,,,,,,,,,,,,,,,,,,,,,,,,,,,,,,,,
1577418880.898384,89.000000,0.000000,4202.051270,4374.871582,4157.436035,4129.230957,4174.871582,450.000000,4.000000,,,,0.000000,4.000000,4.000000,0.000000,4.000000,4.000000,,,,,,,,,,,,,,,,,,,,,,,,,,,,,,,,11.875169,3.078245,1.762040,1.402140,0.689194,0.302660,1.047883,1.371669,1.064481,1.452227,5.239118,3.512965,4.891227,71.776985,26.249445,2.907562,2.687951,2.334647,1.213672,0.499502,5.479606,3.711285,1.682104,1.814769,0.500057
1577418880.906187,90.000000,0.000000,4205.641113,4389.743652,4153.846191,4117.948730,4165.641113,450.000000,4.000000,,,,0.000000,4.000000,4.000000,0.000000,4.000000,4.000000,,,,,,,,,,,,,,,,,,,,,,,,,,,,,,,,,,,,,,,,,,,,,,,,,,,,,,,,
1577418880.914089,91.000000,0.000000,4211.794922,4379.487305,4173.333496,4113.333496,4157.436035,16203.000000,4.000000,,,,0.000000,4.000000,4.000000,0.000000,4.000000,4.000000,,,,,,,,,,,,,,,,,,,,,,,,,,,,,,,,,,,,,,,,,,,,,,,,,,,,,,,,
1577418880.921892,92.000000,0.000000,4193.846191,4377.436035,4266.666504,4124.102539,4146.153809,450.000000,4.000000,,,,0.000000,4.000000,4.000000,0.000000,4.000000,4.000000,,,,,,,,,,,,,,,,,,,,,,,,,,,,,,,,,,,,,,,,,,,,,,,,,,,,,,,,
1577418880.929794,93.000000,0.000000,4196.410156,4374.871582,4242.563965,4121.025879,4147.179688,450.000000,4.000000,,,,0.000000,4.000000,4.000000,0.000000,4.000000,4.000000,,,,,,,,,,,,,,,,,,,,,,,,,,,,,,,,,,,,,,,,,,,,,,,,,,,,,,,,
1577418880.937597,94.000000,0.000000,4201.025879,4348.205078,4167.692383,4118.974121,4148.205078,450.000000,4.000000,,,,0.000000,4.000000,4.000000,0.000000,4.000000,4.000000,,,,,,,,,,,,,,,,,,,,,,,,,,,,,,,,,,,,,,,,,,,,,,,,,,,,,,,,
1577418880.945499,95.000000,0.000000,4202.051270,4337.948730,4132.307617,4123.589844,4154.871582,16203.000000,4.000000,,,,0.000000,4.000000,4.000000,0.000000,4.000000,4.000000,,,,,,,,,,,,,,,,,,,,,,,,,,,,,,,,,,,,,,,,,,,,,,,,,,,,,,,,
1577418880.953301,96.000000,0.000000,4204.615234,4357.436035,4145.128418,4112.307617,4151.794922,450.000000,4.000000,,,,0.000000,4.000000,4.000000,0.000000,4.000000,4.000000,,,,,,,,,,,,,,,,,,,,,,,,,,,,,,,,,,,,,,,,,,,,,,,,,,,,,,,,
1577418880.961204,97.000000,0.000000,4186.666504,4378.461426,4254.358887,4115.897461,4125.641113,450.000000,4.000000,,,,0.000000,4.000000,4.000000,0.000000,4.000000,4.000000,,,,,,,,,,,,,,,,,,,,,,,,,,,,,,,,,,,,,,,,,,,,,,,,,,,,,,,,
1577418880.969006,98.000000,0.000000,4191.282227,4391.794922,4262.051270,4125.641113,4122.051270,450.000000,4.000000,,,,0.000000,4.000000,4.000000,0.000000,4.000000,4.000000,,,,,,,,,,,,,,,,,,,,,,,,,,,,,,,,,,,,,,,,,,,,,,,,,,,,,,,,
1577418880.976809,99.000000,0.000000,4194.358887,4364.615234,4149.230957,4134.358887,4130.769043,16203.000000,4.000000,,,,0.000000,4.000000,4.000000,0.000000,4.000000,4.000000,,,,,,,,,,,,,,,,,,,,,,,,,,,,,,,,,,,,,,,,,,,,,,,,,,,,,,,,
1577418880.984711,100.000000,0.000000,4179.487305,4336.922852,4069.230713,4152.820313,4136.410156,450.000000,4.000000,,,,0.000000,4.000000,4.000000,0.000000,4.000000,4.000000,,,,,,,,,,,,,,,,,,,,,,,,,,,,,,,,,,,,,,,,,,,,,,,,,,,,,,,,
1577418880.992613,101.000000,0.000000,4182.563965,4362.051270,4113.846191,4142.051270,4148.205078,450.000000,4.000000,,,,0.000000,4.000000,4.000000,0.000000,4.000000,4.000000,,,,,,,,,,,,,,,,,,,,,,,,,,,,,,,,,,,,,,,,,,,,,,,,,,,,,,,,
1577418881.000416,102.000000,0.000000,4183.077148,4380.000000,4249.230957,4129.743652,4143.077148,450.000000,4.000000,,,,0.000000,4.000000,4.000000,0.000000,4.000000,4.000000,,,,,,,,,,,,,,,,,,,,,,,,,,,,,,,,,,,,,,,,,,,,,,,,,,,,,,,,
1577418881.008318,103.000000,0.000000,4182.563965,4367.179688,4227.692383,4135.384766,4133.846191,16203.000000,4.000000,,,,0.000000,4.000000,4.000000,0.000000,4.000000,4.000000,,,,,,,,,,,,,,,,,,,,,,,,,,,,,,,,,,,,,,,,,,,,,,,,,,,,,,,,
1577418881.016121,104.000000,0.000000,4176.922852,4365.641113,4148.717773,4141.025879,4134.871582,450.000000,4.000000,,,,0.000000,4.000000,4.000000,0.000000,4.000000,4.000000,,,,,,,,,,,,,,,,,,,,,,,,,,,,,,,,,,,,,,,,,,,,,,,,,,,,,,,,
1577418881.024023,105.000000,0.000000,4170.256348,4382.051270,4184.615234,4154.358887,4133.333496,450.000000,4.000000,,,,0.000000,4.000000,4.000000,0.000000,4.000000,4.000000,,,,,,,,,,,,,,,,,,,,,,,,,,,,,,,,10.924489,2.896582,1.729921,1.449651,0.699177,0.333856,0.998348,1.308810,1.018816,1.430109,4.208284,2.999283,4.371217,73.570267,25.301514,3.113180,2.272150,2.564045,1.225325,0.575683,5.283740,3.222021,1.650907,1.523126,0.597839
1577418881.031826,106.000000,0.000000,4180.512695,4372.307617,4173.846191,4149.743652,4148.717773,450.000000,4.000000,,,,0.000000,4.000000,4.000000,0.000000,4.000000,4.000000,,,,,,,,,,,,,,,,,,,,,,,,,,,,,,,,,,,,,,,,,,,,,,,,,,,,,,,,
1577418881.039728,107.000000,0.000000,4177.948730,4346.666504,4145.641113,4146.666504,4169.743652,16203.000000,4.000000,,,,0.000000,4.000000,4.000000,0.000000,4.000000,4.000000,,,,,,,,,,,,,,,,,,,,,,,,,,,,,,,,,,,,,,,,,,,,,,,,,,,,,,,,
1577418881.047530,108.000000,0.000000,4179.487305,4356.410156,4125.128418,4154.358887,4171.282227,450.000000,4.000000,,,,0.000000,4.000000,4.000000,0.000000,4.000000,4.000000,,,,,,,,,,,,,,,,,,,,,,,,,,,,,,,,,,,,,,,,,,,,,,,,,,,,,,,,
1577418881.055433,109.000000,0.000000,4188.205078,4360.512695,4142.051270,4148.717773,4157.436035,450.000000,4.000000,,,,0.000000,4.000000,4.000000,0.000000,4.000000,4.000000,,,,,,,,,,,,,,,,,,,,,,,,,,,,,,,,,,,,,,,,,,,,,,,,,,,,,,,,
1577418881.063235,110.000000,0.000000,4193.846191,4358.461426,4269.230957,4156.410156,4148.205078,450.000000,4.000000,,,,0.000000,4.000000,4.000000,0.000000,4.000000,4.000000,,,,,,,,,,,,,,,,,,,,,,,,,,,,,,,,,,,,,,,,,,,,,,,,,,,,,,,,
1577418881.071138,111.000000,0.000000,4202.051270,4368.205078,4292.307617,4164.615234,4171.282227,16203.000000,4.000000,,,,0.000000,4.000000,4.000000,0.000000,4.000000,4.000000,,,,,,,,,,,,,,,,,,,,,,,,,,,,,,,,,,,,,,,,,,,,,,,,,,,,,,,,
1577418881.079040,112.000000,0.000000,4187.179688,4353.846191,4183.077148,4162.051270,4188.717773,450.000000,4.000000,,,,0.000000,4.000000,4.000000,0.000000,4.000000,4.000000,,,,,,,,,,,,,,,,,,,,,,,,,,,,,,,,,,,,,,,,,,,,,,,,,,,,,,,,
1577418881.086843,113.000000,0.000000,4191.282227,4352.307617,4087.692383,4160.512695,4187.692383,450.000000,4.000000,,,,0.000000,4.000000,4.000000,0.000000,4.000000,4.000000,,,,,,,,,,,,,,,,,,,,,,,,,,,,,,,,,,,,,,,,,,,,,,,,,,,,,,,,
1577418881.094645,114.000000,0.000000,4217.948730,4356.922852,4112.820313,4150.769043,4196.922852,450.000000,4.000000,,,,0.000000,4.000000,4.000000,0.000000,4.000000,4.000000,,,,,,,,,,,,,,,,,,,,,,,,,,,,,,,,,,,,,,,,,,,,,,,,,,,,,,,,
1577418881.102547,115.000000,0.000000,4212.820313,4343.589844,4267.179688,4160.000000,4198.461426,16203.000000,4.000000,,,,0.000000,4.000000,4.000000,0.000000,4.000000,4.000000,,,,,,,,,,,,,,,,,,,,,,,,,,,,,,,,,,,,,,,,,,,,,,,,,,,,,,,,
1577418881.110350,116.000000,0.000000,4212.820313,4353.333496,4296.410156,4170.769043,4205.128418,450.000000,4.000000,,,,0.000000,4.000000,4.000000,0.000000,4.000000,4.000000,,,,,,,,,,,,,,,,,,,,,,,,,,,,,,,,,,,,,,,,,,,,,,,,,,,,,,,,
1577418881.118252,117.000000,0.000000,4214.358887,4352.307617,4214.358887,4164.102539,4213.333496,450.000000,4.000000,,,,0.000000,4.000000,4.000000,0.000000,4.000000,4.000000,,,,,,,,,,,,,,,,,,,,,,,,,,,,,,,,,,,,,,,,,,,,,,,,,,,,,,,,
1577418881.126054,118.000000,0.000000,4210.769043,4350.769043,4116.922852,4176.410156,4211.282227,450.000000,4.000000,,,,0.000000,4.000000,4.000000,0.000000,4.000000,4.000000,,,,,,,,,,,,,,,,,,,,,,,,,,,,,,,,,,,,,,,,,,,,,,,,,,,,,,,,
1577418881.133956,119.000000,0.000000,4227.692383,4363.077148,4093.846191,4186.666504,4231.794922,16203.000000,4.000000,,,,0.000000,4.000000,4.000000,0.000000,4.000000,4.000000,,,,,,,,,,,,,,,,,,,,,,,,,,,,,,,,,,,,,,,,,,,,,,,,,,,,,,,,
1577418881.141759,120.000000,0.000000,4232.307617,4344.615234,4224.615234,4182.051270,4247.179688,450.000000,4.000000,,,,0.000000,4.000000,4.000000,0.000000,4.000000,4.000000,,,,,,,,,,,,,,,,,,,,,,,,,,,,,,,,,,,,,,,,,,,,,,,,,,,,,,,,
1577418881.149661,121.000000,0.000000,4231.794922,4342.563965,4243.589844,4168.717773,4235.897461,450.000000,4.000000,,,,0.000000,4.000000,4.000000,0.000000,4.000000,4.000000,,,,,,,,,,,,,,,,,,,,,,,,,,,,,,,,10.373717,2.710715,1.639056,1.429811,0.712019,0.413421,0.981037,1.240716,0.988092,1.460434,3.477469,2.472784,3.632433,74.614548,24.243412,3.252092,1.864779,2.574353,1.200162,0.654021,5.540467,2.855481,1.625661,1.317688,0.712624
1577418881.157463,122.000000,0.000000,4227.179688,4359.487305,4159.487305,4153.846191,4221.538574,450.000000,4.000000,,,,0.000000,4.000000,4.000000,0.000000,4.000000,4.000000,,,,,,,,,,,,,,,,,,,,,,,,,,,,,,,,,,,,,,,,,,,,,,,,,,,,,,,,
1577418881.165365,123.000000,0.000000,4205.641113,4343.589844,4131.282227,4149.743652,4204.615234,16203.000000,4.000000,,,,0.000000,4.000000,4.000000,0.000000,4.000000,4.000000,,,,,,,,,,,,,,,,,,,,,,,,,,,,,,,,,,,,,,,,,,,,,,,,,,,,,,,,
1577418881.173168,124.000000,0.000000,4200.000000,4335.384766,4129.743652,4141.025879,4192.307617,450.000000,4.000000,,,,0.000000,4.000000,4.000000,0.000000,4.000000,4.000000,,,,,,,,,,,,,,,,,,,,,,,,,,,,,,,,,,,,,,,,,,,,,,,,,,,,,,,,
1577418881.181070,125.000000,0.000000,4196.410156,4340.000000,4190.769043,4148.205078,4198.974121,450.000000,4.000000,,,,0.000000,4.000000,4.000000,0.000000,4.000000,4.000000,,,,,,,,,,,,,,,,,,,,,,,,,,,,,,,,,,,,,,,,,,,,,,,,,,,,,,,,
1577418881.188872,126.000000,0.000000,4196.410156,4331.794922,4201.538574,4159.487305,4216.410156,450.000000,4.000000,,,,0.000000,4.000000,4.000000,0.000000,4.000000,4.000000,,,,,,,,,,,,,,,,,,,,,,,,,,,,,,,,,,,,,,,,,,,,,,,,,,,,,,,,
1577418881.196774,127.000000,0.000000,4202.051270,4337.436035,4166.153809,4141.025879,4220.000000,238.000000,4.000000,,,,0.000000,4.000000,4.000000,0.000000,4.000000,4.000000,,,,,,,,,,,,,,,,,,,,,,,,,,,,,,,,,,,,,,,,,,,,,,,,,,,,,,,,
1577418881.204576,0.000000,0.000000,4194.358887,4360.000000,4198.974121,4138.974121,4205.641113,450.000000,4.000000,,,,0.000000,4.000000,4.000000,0.000000,4.000000,4.000000,,,,,,,,,,,,,,,,,,,,,,,,,,,,,,,,,,,,,,,,,,,,,,,,,,,,,,,,
1577418881.212478,1.000000,0.000000,4206.666504,4356.410156,4212.820313,4148.717773,4199.487305,450.000000,4.000000,,,,0.000000,4.000000,4.000000,0.000000,4.000000,4.000000,,,,,,,,,,,,,,,,,,,,,,,,,,,,,,,,,,,,,,,,,,,,,,,,,,,,,,,,
1577418881.220381,2.000000,0.000000,4210.256348,4330.769043,4232.820313,4145.641113,4207.692383,16245.000000,4.000000,,,,0.000000,4.000000,4.000000,0.000000,4.000000,4.000000,,,,,,,,,,,,,,,,,,,,,,,,,,,,,,,,,,,,,,,,,,,,,,,,,,,,,,,,
1577418881.228183,3.000000,0.000000,4197.436035,4330.769043,4203.077148,4152.820313,4216.410156,450.000000,4.000000,,,,0.000000,4.000000,4.000000,0.000000,4.000000,4.000000,,,,,,,,,,,,,,,,,,,,,,,,,,,,,,,,,,,,,,,,,,,,,,,,,,,,,,,,
1577418881.236086,4.000000,0.000000,4190.769043,4328.205078,4121.538574,4142.563965,4209.743652,16204.000000,4.000000,,,,0.000000,4.000000,4.000000,0.000000,4.000000,4.000000,,,,,,,,,,,,,,,,,,,,,,,,,,,,,,,,,,,,,,,,,,,,,,,,,,,,,,,,
1577418881.243888,5.000000,0.000000,4181.025879,4316.410156,4192.820313,4125.128418,4204.102539,450.000000,4.000000,,,,0.000000,4.000000,4.000000,0.000000,4.000000,4.000000,,,,,,,,,,,,,,,,,,,,,,,,,,,,,,,,,,,,,,,,,,,,,,,,,,,,,,,,
1577418881.251791,6.000000,0.000000,4207.692383,4344.615234,4283.589844,4131.794922,4222.051270,33.000000,4.000000,,,,0.000000,4.000000,4.000000,0.000000,4.000000,4.000000,,,,,,,,,,,,,,,,,,,,,,,,,,,,,,,,,,,,,,,,,,,,,,,,,,,,,,,,
1577418881.259593,7.000000,0.000000,4229.743652,4357.436035,4276.922852,4138.461426,4226.666504,450.000000,4.000000,,,,0.000000,4.000000,4.000000,0.000000,4.000000,4.000000,,,,,,,,,,,,,,,,,,,,,,,,,,,,,,,,,,,,,,,,,,,,,,,,,,,,,,,,
1577418881.267495,8.000000,0.000000,4217.948730,4342.051270,4172.307617,4135.384766,4218.974121,450.000000,4.000000,,,,0.000000,4.000000,4.000000,0.000000,4.000000,4.000000,,,,,,,,,,,,,,,,,,,,,,,,,,,,,,,,,,,,,,,,,,,,,,,,,,,,,,,,
1577418881.275298,9.000000,0.000000,4226.153809,4346.666504,4104.615234,4136.410156,4230.769043,16182.000000,4.000000,,,,0.000000,4.000000,4.000000,0.000000,4.000000,4.000000,,,,,,,,,,,,,,,,,,,,,,,,,,,,,,,,9.712606,2.574889,1.511296,1.339843,0.723958,0.536025,0.986290,1.205313,1.020591,1.507256,3.059862,1.954383,2.964872,75.190178,23.408508,3.396508,1.578141,2.339457,1.127759,0.710160,6.125109,2.594690,1.598047,1.224414,0.806740
1577418881.283200,10.000000,0.000000,4225.128418,4344.615234,4212.820313,4154.358887,4237.436035,450.000000,4.000000,,,,0.000000,4.000000,4.000000,0.000000,4.000000,4.000000,,,,,,,,,,,,,,,,,,,,,,,,,,,,,,,,,,,,,,,,,,,,,,,,,,,,,,,,
1577418881.291003,11.000000,0.000000,4216.922852,4341.025879,4257.948730,4147.692383,4232.820313,16236.000000,4.000000,,,,0.000000,4.000000,4.000000,0.000000,4.000000,4.000000,,,,,,,,,,,,,,,,,,,,,,,,,,,,,,,,,,,,,,,,,,,,,,,,,,,,,,,,
1577418881.298905,12.000000,0.000000,4224.102539,4338.974121,4154.871582,4123.589844,4236.922852,450.000000,4.000000,,,,0.000000,4.000000,4.000000,0.000000,4.000000,4.000000,,,,,,,,,,,,,,,,,,,,,,,,,,,,,,,,,,,,,,,,,,,,,,,,,,,,,,,,
1577418881.306708,13.000000,0.000000,4229.230957,4337.436035,4100.512695,4128.205078,4240.000000,450.000000,4.000000,,,,0.000000,4.000000,4.000000,0.000000,4.000000,4.000000,,,,,,,,,,,,,,,,,,,,,,,,,,,,,,,,,,,,,,,,,,,,,,,,,,,,,,,,
1577418881.314610,14.000000,0.000000,4243.077148,4351.794922,4107.692383,4126.666504,4233.846191,450.000000,4.000000,,,,0.000000,4.000000,4.000000,0.000000,4.000000,4.000000,,,,,,,,,,,,,,,,,,,,,,,,,,,,,,,,,,,,,,,,,,,,,,,,,,,,,,,,
1577418881.322512,15.000000,0.000000,4246.666504,4342.051270,4150.256348,4131.794922,4225.641113,16236.000000,4.000000,,,,0.000000,4.000000,4.000000,0.000000,4.000000,4.000000,,,,,,,,,,,,,,,,,,,,,,,,,,,,,,,,,,,,,,,,,,,,,,,,,,,,,,,,
1577418881.330315,16.000000,0.000000,4236.922852,4334.358887,4168.205078,4146.666504,4233.333496,0.000000,4.000000,,,,0.000000,4.000000,4.000000,0.000000,4.000000,4.000000,,,,,,,,,,,,,,,,,,,,,,,,,,,,,,,,,,,,,,,,,,,,,,,,,,,,,,,,
1577418881.338117,17.000000,0.000000,4243.077148,4361.538574,4183.077148,4132.307617,4248.717773,0.000000,4.000000,,,,0.000000,4.000000,4.000000,0.000000,4.000000,4.000000,,,,,,,,,,,,,,,,,,,,,,,,,,,,,,,,,,,,,,,,,,,,,,,,,,,,,,,,
1577418881.346019,18.000000,0.000000,4252.307617,4366.666504,4237.948730,4123.077148,4253.846191,0.000000,4.000000,,,,0.000000,4.000000,4.000000,0.000000,4.000000,4.000000,,,,,,,,,,,,,,,,,,,,,,,,,,,,,,,,,,,,,,,,,,,,,,,,,,,,,,,,
1577418881.353922,19.000000,0.000000,4253.846191,4341.025879,4257.948730,4121.025879,4248.717773,0.000000,4.000000,,,,0.000000,4.000000,4.000000,0.000000,4.000000,4.000000,,,,,,,,,,,,,,,,,,,,,,,,,,,,,,,,,,,,,,,,,,,,,,,,,,,,,,,,
1577418881.361724,20.000000,0.000000,4243.589844,4344.102539,4253.846191,4119.487305,4230.769043,0.000000,4.000000,,,,0.000000,4.000000,4.000000,0.000000,4.000000,4.000000,,,,,,,,,,,,,,,,,,,,,,,,,,,,,,,,,,,,,,,,,,,,,,,,,,,,,,,,
1577418881.369627,21.000000,0.000000,4248.717773,4379.487305,4193.846191,4135.384766,4230.256348,0.000000,4.000000,,,,0.000000,4.000000,4.000000,0.000000,4.000000,4.000000,,,,,,,,,,,,,,,,,,,,,,,,,,,,,,,,,,,,,,,,,,,,,,,,,,,,,,,,
1577418881.377429,22.000000,0.000000,4259.487305,4367.179688,4142.563965,4143.589844,4249.743652,0.000000,4.000000,,,,0.000000,4.000000,4.000000,0.000000,4.000000,4.000000,,,,,,,,,,,,,,,,,,,,,,,,,,,,,,,,,,,,,,,,,,,,,,,,,,,,,,,,
1577418881.385331,23.000000,0.000000,4238.461426,4329.743652,4226.153809,4133.333496,4249.743652,0.000000,4.000000,,,,0.000000,4.000000,4.000000,0.000000,4.000000,4.000000,,,,,,,,,,,,,,,,,,,,,,,,,,,,,,,,,,,,,,,,,,,,,,,,,,,,,,,,
1577418881.393134,24.000000,0.000000,4234.358887,4353.846191,4266.153809,4117.436035,4240.000000,0.000000,4.000000,,,,0.000000,4.000000,4.000000,0.000000,4.000000,4.000000,,,,,,,,,,,,,,,,,,,,,,,,,,,,,,,,,,,,,,,,,,,,,,,,,,,,,,,,
1577418881.401036,25.000000,0.000000,4251.282227,4387.692383,4249.743652,4108.717773,4231.282227,0.000000,4.000000,,,,0.000000,4.000000,4.000000,0.000000,4.000000,4.000000,,,,,,,,,,,,,,,,,,,,,,,,,,,,,,,,9.510147,2.513859,1.375220,1.191675,0.726501,0.673224,0.985677,1.206456,1.155817,1.541771,2.955279,1.499352,2.596177,75.396011,23.135977,3.600679,1.460387,1.930273,1.009919,0.725233,7.250315,2.394940,1.562797,1.231779,0.848683
1577418881.408839,26.000000,0.000000,4261.025879,4372.820313,4183.077148,4117.948730,4234.358887,0.000000,4.000000,,,,0.000000,4.000000,4.000000,0.000000,4.000000,4.000000,,,,,,,,,,,,,,,,,,,,,,,,,,,,,,,,,,,,,,,,,,,,,,,,,,,,,,,,
1577418881.416741,27.000000,0.000000,4271.282227,4342.051270,4118.974121,4131.794922,4244.615234,0.000000,4.000000,,,,0.000000,4.000000,4.000000,0.000000,4.000000,4.000000,,,,,,,,,,,,,,,,,,,,,,,,,,,,,,,,,,,,,,,,,,,,,,,,,,,,,,,,
1577418881.424544,28.000000,0.000000,4278.461426,4338.974121,4206.666504,4144.102539,4244.102539,0.000000,4.000000,,,,0.000000,4.000000,4.000000,0.000000,4.000000,4.000000,,,,,,,,,,,,,,,,,,,,,,,,,,,,,,,,,,,,,,,,,,,,,,,,,,,,,,,,
1577418881.432446,29.000000,0.000000,4288.717773,4375.384766,4243.077148,4134.871582,4243.589844,0.000000,4.000000,,,,0.000000,4.000000,4.000000,0.000000,4.000000,4.000000,,,,,,,,,,,,,,,,,,,,,,,,,,,,,,,,,,,,,,,,,,,,,,,,,,,,,,,,
1577418881.440249,30.000000,0.000000,4286.153809,4393.846191,4176.410156,4118.974121,4235.384766,0.000000,4.000000,,,,0.000000,4.000000,4.000000,0.000000,4.000000,4.000000,,,,,,,,,,,,,,,,,,,,,,,,,,,,,,,,,,,,,,,,,,,,,,,,,,,,,,,,
1577418881.448151,31.000000,0.000000,4278.974121,4366.666504,4119.487305,4132.307617,4226.666504,0.000000,4.000000,,,,0.000000,4.000000,4.000000,0.000000,4.000000,4.000000,,,,,,,,,,,,,,,,,,,,,,,,,,,,,,,,,,,,,,,,,,,,,,,,,,,,,,,,
1577418881.455953,32.000000,0.000000,4276.410156,4349.743652,4109.743652,4136.410156,4218.461426,0.000000,4.000000,,,,0.000000,4.000000,4.000000,0.000000,4.000000,4.000000,,,,,,,,,,,,,,,,,,,,,,,,,,,,,,,,,,,,,,,,,,,,,,,,,,,,,,,,
1577418881.463856,33.000000,0.000000,4255.384766,4371.282227,4206.666504,4129.743652,4206.153809,0.000000,4.000000,,,,0.000000,4.000000,4.000000,0.000000,4.000000,4.000000,,,,,,,,,,,,,,,,,,,,,,,,,,,,,,,,,,,,,,,,,,,,,,,,,,,,,,,,
1577418881.471658,34.000000,0.000000,4256.410156,4388.717773,4268.717773,4131.794922,4218.461426,0.000000,4.000000,,,,0.000000,4.000000,4.000000,0.000000,4.000000,4.000000,,,,,,,,,,,,,,,,,,,,,,,,,,,,,,,,,,,,,,,,,,,,,,,,,,,,,,,,
1577418881.479561,35.000000,0.000000,4279.487305,4382.051270,4182.563965,4133.333496,4228.717773,0.000000,4.000000,,,,0.000000,4.000000,4.000000,0.000000,4.000000,4.000000,,,,,,,,,,,,,,,,,,,,,,,,,,,,,,,,,,,,,,,,,,,,,,,,,,,,,,,,
1577418881.487363,36.000000,0.000000,4277.948730,4388.717773,4096.410156,4138.461426,4216.922852,0.000000,4.000000,,,,0.000000,4.000000,4.000000,0.000000,4.000000,4.000000,,,,,,,,,,,,,,,,,,,,,,,,,,,,,,,,,,,,,,,,,,,,,,,,,,,,,,,,
1577418881.495266,37.000000,0.000000,4266.153809,4399.487305,4113.846191,4134.871582,4206.666504,0.000000,4.000000,,,,0.000000,4.000000,4.000000,0.000000,4.000000,4.000000,,,,,,,,,,,,,,,,,,,,,,,,,,,,,,,,,,,,,,,,,,,,,,,,,,,,,,,,
1577418881.503168,38.000000,0.000000,4253.333496,4369.743652,4191.282227,4131.282227,4198.974121,0.000000,4.000000,,,,0.000000,4.000000,4.000000,0.000000,4.000000,4.000000,,,,,,,,,,,,,,,,,,,,,,,,,,,,,,,,,,,,,,,,,,,,,,,,,,,,,,,,
1577418881.510970,39.000000,0.000000,4258.974121,4357.436035,4175.897461,4132.307617,4206.153809,0.000000,4.000000,,,,0.000000,4.000000,4.000000,0.000000,4.000000,4.000000,,,,,,,,,,,,,,,,,,,,,,,,,,,,,,,,,,,,,,,,,,,,,,,,,,,,,,,,
1577418881.518873,40.000000,0.000000,4266.153809,4389.743652,4150.256348,4129.230957,4206.666504,0.000000,4.000000,,,,0.000000,4.000000,4.000000,0.000000,4.000000,4.000000,,,,,,,,,,,,,,,,,,,,,,,,,,,,,,,,,,,,,,,,,,,,,,,,,,,,,,,,
1577418881.526675,41.000000,0.000000,4248.717773,4401.538574,4230.256348,4134.871582,4186.153809,0.000000,4.000000,,,,0.000000,4.000000,4.000000,0.000000,4.000000,4.000000,,,,,,,,,,,,,,,,,,,,,,,,,,,,,,,,9.419963,2.551475,1.270653,1.016856,0.710438,0.798254,0.957691,1.221971,1.397663,1.545725,3.317817,1.208856,2.632349,74.761086,23.564016,3.878696,1.484695,1.479794,0.869946,0.693921,8.649501,2.228292,1.521000,1.311526,0.829102
1577418881.534478,42.000000,0.000000,4241.025879,4384.102539,4237.948730,4140.512695,4179.487305,0.000000,4.000000,,,,0.000000,4.000000,4.000000,0.000000,4.000000,4.000000,,,,,,,,,,,,,,,,,,,,,,,,,,,,,,,,,,,,,,,,,,,,,,,,,,,,,,,,
1577418881.542380,43.000000,0.000000,4233.846191,4354.871582,4201.538574,4150.769043,4178.974121,0.000000,4.000000,,,,0.000000,4.000000,4.000000,0.000000,4.000000,4.000000,,,,,,,,,,,,,,,,,,,,,,,,,,,,,,,,,,,,,,,,,,,,,,,,,,,,,,,,
1577418881.550182,44.000000,0.000000,4231.794922,4354.871582,4145.128418,4154.358887,4176.410156,0.000000,4.000000,,,,0.000000,4.000000,4.000000,0.000000,4.000000,4.000000,,,,,,,,,,,,,,,,,,,,,,,,,,,,,,,,,,,,,,,,,,,,,,,,,,,,,,,,
1577418881.558084,45.000000,0.000000,4238.974121,4391.282227,4128.205078,4146.666504,4177.948730,0.000000,4.000000,,,,0.000000,4.000000,4.000000,0.000000,4.000000,4.000000,,,,,,,,,,,,,,,,,,,,,,,,,,,,,,,,,,,,,,,,,,,,,,,,,,,,,,,,
1577418881.565887,46.000000,0.000000,4234.871582,4395.897461,4262.051270,4155.384766,4176.410156,0.000000,4.000000,,,,0.000000,4.000000,4.000000,0.000000,4.000000,4.000000,,,,,,,,,,,,,,,,,,,,,,,,,,,,,,,,,,,,,,,,,,,,,,,,,,,,,,,,
1577418881.573789,47.000000,0.000000,4248.717773,4360.000000,4285.128418,4160.512695,4187.692383,0.000000,4.000000,,,,0.000000,4.000000,4.000000,0.000000,4.000000,4.000000,,,,,,,,,,,,,,,,,,,,,,,,,,,,,,,,,,,,,,,,,,,,,,,,,,,,,,,,
1577418881.581691,48.000000,0.000000,4260.512695,4350.769043,4169.230957,4163.077148,4195.897461,0.000000,4.000000,,,,0.000000,4.000000,4.000000,0.000000,4.000000,4.000000,,,,,,,,,,,,,,,,,,,,,,,,,,,,,,,,,,,,,,,,,,,,,,,,,,,,,,,,
1577418881.589494,49.000000,0.000000,4250.769043,4387.179688,4089.743652,4167.179688,4189.230957,0.000000,4.000000,,,,0.000000,4.000000,4.000000,0.000000,4.000000,4.000000,,,,,,,,,,,,,,,,,,,,,,,,,,,,,,,,,,,,,,,,,,,,,,,,,,,,,,,,
1577418881.597396,50.000000,0.000000,4235.384766,4389.743652,4115.897461,4156.922852,4175.384766,0.000000,4.000000,,,,0.000000,4.000000,4.000000,0.000000,4.000000,4.000000,,,,,,,,,,,,,,,,,,,,,,,,,,,,,,,,,,,,,,,,,,,,,,,,,,,,,,,,
1577418881.605198,51.000000,0.000000,4220.000000,4348.205078,4236.410156,4155.897461,4166.153809,0.000000,4.000000,,,,0.000000,4.000000,4.000000,0.000000,4.000000,4.000000,,,,,,,,,,,,,,,,,,,,,,,,,,,,,,,,,,,,,,,,,,,,,,,,,,,,,,,,
1577418881.613101,52.000000,0.000000,4244.102539,4344.102539,4240.512695,4155.384766,4191.282227,0.000000,4.000000,,,,0.000000,4.000000,4.000000,0.000000,4.000000,4.000000,,,,,,,,,,,,,,,,,,,,,,,,,,,,,,,,,,,,,,,,,,,,,,,,,,,,,,,,
1577418881.620903,53.000000,0.000000,4267.179688,4369.743652,4156.922852,4148.717773,4210.769043,0.000000,4.000000,,,,0.000000,4.000000,4.000000,0.000000,4.000000,4.000000,,,,,,,,,,,,,,,,,,,,,,,,,,,,,,,,,,,,,,,,,,,,,,,,,,,,,,,,
1577418881.628806,54.000000,0.000000,4271.794922,4380.512695,4130.256348,4150.256348,4208.205078,0.000000,4.000000,,,,0.000000,4.000000,4.000000,0.000000,4.000000,4.000000,,,,,,,,,,,,,,,,,,,,,,,,,,,,,,,,,,,,,,,,,,,,,,,,,,,,,,,,
1577418881.636708,55.000000,0.000000,4306.666504,4377.436035,4129.230957,4156.922852,4228.205078,0.000000,4.000000,,,,0.000000,4.000000,4.000000,0.000000,4.000000,4.000000,,,,,,,,,,,,,,,,,,,,,,,,,,,,,,,,,,,,,,,,,,,,,,,,,,,,,,,,
1577418881.644511,56.000000,0.000000,4341.538574,4365.641113,4176.410156,4182.051270,4260.000000,0.000000,4.000000,,,,0.000000,4.000000,4.000000,0.000000,4.000000,4.000000,,,,,,,,,,,,,,,,,,,,,,,,,,,,,,,,,,,,,,,,,,,,,,,,,,,,,,,,
1577418881.652313,57.000000,0.000000,4368.205078,4367.692383,4202.563965,4188.717773,4292.307617,0.000000,4.000000,,,,0.000000,4.000000,4.000000,0.000000,4.000000,4.000000,,,,,,,,,,,,,,,,,,,,,,,,,,,,,,,,9.261959,2.639400,1.206755,0.860178,0.671091,0.870605,0.894277,1.221570,1.700374,1.527965,4.495821,1.260660,3.118547,72.367477,24.545311,4.099975,1.559321,1.114507,0.750103,0.626625,9.819573,2.068405,1.465939,1.429413,0.759838
1577418881.660215,58.000000,0.000000,4390.769043,4363.589844,4187.179688,4175.384766,4312.820313,0.000000,4.000000,,,,0.000000,4.000000,4.000000,0.000000,4.000000,4.000000,,,,,,,,,,,,,,,,,,,,,,,,,,,,,,,,,,,,,,,,,,,,,,,,,,,,,,,,
1577418881.668018,59.000000,0.000000,4408.205078,4359.487305,4202.051270,4194.358887,4318.461426,0.000000,4.000000,,,,0.000000,4.000000,4.000000,0.000000,4.000000,4.000000,,,,,,,,,,,,,,,,,,,,,,,,,,,,,,,,,,,,,,,,,,,,,,,,,,,,,,,,
1577418881.675920,60.000000,0.000000,4428.717773,4365.128418,4177.948730,4203.077148,4334.358887,0.000000,4.000000,,,,0.000000,4.000000,4.000000,0.000000,4.000000,4.000000,,,,,,,,,,,,,,,,,,,,,,,,,,,,,,,,,,,,,,,,,,,,,,,,,,,,,,,,
1577418881.683723,61.000000,0.000000,4412.820313,4349.230957,4158.974121,4195.384766,4334.871582,0.000000,4.000000,,,,0.000000,4.000000,4.000000,0.000000,4.000000,4.000000,,,,,,,,,,,,,,,,,,,,,,,,,,,,,,,,,,,,,,,,,,,,,,,,,,,,,,,,
1577418881.691625,62.000000,0.000000,4383.589844,4353.333496,4129.230957,4198.974121,4315.384766,0.000000,4.000000,,,,0.000000,4.000000,4.000000,0.000000,4.000000,4.000000,,,,,,,,,,,,,,,,,,,,,,,,,,,,,,,,,,,,,,,,,,,,,,,,,,,,,,,,
1577418881.699428,63.000000,0.000000,4369.743652,4378.461426,4136.922852,4191.794922,4304.102539,0.000000,4.000000,,,,0.000000,4.000000,4.000000,0.000000,4.000000,4.000000,,,,,,,,,,,,,,,,,,,,,,,,,,,,,,,,,,,,,,,,,,,,,,,,,,,,,,,,
1577418881.707330,64.000000,0.000000,4349.230957,4365.641113,4284.102539,4194.871582,4296.922852,450.000000,4.000000,,,,0.000000,4.000000,4.000000,0.000000,4.000000,4.000000,,,,,,,,,,,,,,,,,,,,,,,,,,,,,,,,,,,,,,,,,,,,,,,,,,,,,,,,
1577418881.715132,65.000000,0.000000,4334.871582,4349.230957,4307.692383,4194.358887,4295.897461,450.000000,4.000000,,,,0.000000,4.000000,4.000000,0.000000,4.000000,4.000000,,,,,,,,,,,,,,,,,,,,,,,,,,,,,,,,,,,,,,,,,,,,,,,,,,,,,,,,
1577418881.723034,66.000000,0.000000,4320.512695,4350.769043,4191.282227,4178.974121,4287.692383,16220.000000,4.000000,,,,0.000000,4.000000,4.000000,0.000000,4.000000,4.000000,,,,,,,,,,,,,,,,,,,,,,,,,,,,,,,,,,,,,,,,,,,,,,,,,,,,,,,,
1577418881.730836,67.000000,0.000000,4303.077148,4360.000000,4078.974365,4172.307617,4265.641113,450.000000,4.000000,,,,0.000000,4.000000,4.000000,0.000000,4.000000,4.000000,,,,,,,,,,,,,,,,,,,,,,,,,,,,,,,,,,,,,,,,,,,,,,,,,,,,,,,,
1577418881.738739,68.000000,0.000000,4285.641113,4357.948730,4103.589844,4170.769043,4252.307617,16210.000000,4.000000,,,,0.000000,4.000000,4.000000,0.000000,4.000000,4.000000,,,,,,,,,,,,,,,,,,,,,,,,,,,,,,,,,,,,,,,,,,,,,,,,,,,,,,,,
1577418881.746541,69.000000,0.000000,4263.077148,4349.743652,4293.846191,4189.743652,4242.051270,450.000000,4.000000,,,,0.000000,4.000000,4.000000,0.000000,4.000000,4.000000,,,,,,,,,,,,,,,,,,,,,,,,,,,,,,,,,,,,,,,,,,,,,,,,,,,,,,,,
1577418881.754443,70.000000,0.000000,4267.692383,4352.820313,4322.051270,4202.051270,4250.769043,12.000000,4.000000,,,,0.000000,4.000000,4.000000,0.000000,4.000000,4.000000,,,,,,,,,,,,,,,,,,,,,,,,,,,,,,,,,,,,,,,,,,,,,,,,,,,,,,,,
1577418881.762245,71.000000,0.000000,4263.077148,4340.512695,4198.461426,4181.025879,4272.307617,450.000000,4.000000,,,,0.000000,4.000000,4.000000,0.000000,4.000000,4.000000,,,,,,,,,,,,,,,,,,,,,,,,,,,,,,,,,,,,,,,,,,,,,,,,,,,,,,,,
1577418881.770147,72.000000,0.000000,4247.179688,4337.948730,4129.230957,4168.717773,4270.256348,450.000000,4.000000,,,,0.000000,4.000000,4.000000,0.000000,4.000000,4.000000,,,,,,,,,,,,,,,,,,,,,,,,,,,,,,,,,,,,,,,,,,,,,,,,,,,,,,,,
1577418881.778050,73.000000,0.000000,4260.512695,4363.077148,4122.051270,4171.794922,4264.615234,16183.000000,4.000000,,,,0.000000,4.000000,4.000000,0.000000,4.000000,4.000000,,,,,,,,,,,,,,,,,,,,,,,,,,,,,,,,9.268556,2.661890,1.207750,0.759784,0.614542,0.869438,0.800171,1.184891,1.985287,1.527223,6.773766,1.798761,4.011925,67.617500,25.797203,4.117222,1.576672,0.905321,0.695603,0.543437,10.765817,1.880498,1.401617,1.550015,0.669250
1577418881.785852,74.000000,0.000000,4264.102539,4366.666504,4191.282227,4185.128418,4260.512695,450.000000,4.000000,,,,0.000000,4.000000,4.000000,0.000000,4.000000,4.000000,,,,,,,,,,,,,,,,,,,,,,,,,,,,,,,,,,,,,,,,,,,,,,,,,,,,,,,,
1577418881.793755,75.000000,0.000000,4261.538574,4356.410156,4205.128418,4197.948730,4257.948730,16181.000000,4.000000,,,,0.000000,4.000000,4.000000,0.000000,4.000000,4.000000,,,,,,,,,,,,,,,,,,,,,,,,,,,,,,,,,,,,,,,,,,,,,,,,,,,,,,,,
1577418881.801557,76.000000,0.000000,4254.871582,4335.897461,4181.025879,4197.436035,4270.256348,450.000000,4.000000,,,,0.000000,4.000000,4.000000,0.000000,4.000000,4.000000,,,,,,,,,,,,,,,,,,,,,,,,,,,,,,,,,,,,,,,,,,,,,,,,,,,,,,,,
1577418881.809459,77.000000,0.000000,4250.769043,4329.230957,4174.871582,4203.077148,4285.641113,450.000000,4.000000,,,,0.000000,4.000000,4.000000,0.000000,4.000000,4.000000,,,,,,,,,,,,,,,,,,,,,,,,,,,,,,,,,,,,,,,,,,,,,,,,,,,,,,,,
1577418881.817262,78.000000,0.000000,4267.692383,4347.179688,4144.615234,4185.128418,4286.153809,450.000000,4.000000,,,,0.000000,4.000000,4.000000,0.000000,4.000000,4.000000,,,,,,,,,,,,,,,,,,,,,,,,,,,,,,,,,,,,,,,,,,,,,,,,,,,,,,,,
1577418881.825164,79.000000,0.000000,4256.410156,4340.512695,4185.128418,4161.538574,4270.256348,16181.000000,4.000000,,,,0.000000,4.000000,4.000000,0.000000,4.000000,4.000000,,,,,,,,,,,,,,,,,,,,,,,,,,,,,,,,,,,,,,,,,,,,,,,,,,,,,,,,
1577418881.832967,80.000000,0.000000,4254.871582,4341.538574,4202.051270,4170.769043,4273.333496,450.000000,4.000000,,,,0.000000,4.000000,4.000000,0.000000,4.000000,4.000000,,,,,,,,,,,,,,,,,,,,,,,,,,,,,,,,,,,,,,,,,,,,,,,,,,,,,,,,
1577418881.840869,81.000000,0.000000,4284.102539,4362.051270,4162.051270,4182.051270,4289.743652,450.000000,4.000000,,,,0.000000,4.000000,4.000000,0.000000,4.000000,4.000000,,,,,,,,,,,,,,,,,,,,,,,,,,,,,,,,,,,,,,,,,,,,,,,,,,,,,,,,
1577418881.848672,82.000000,0.000000,4270.769043,4343.077148,4219.487305,4192.307617,4287.179688,450.000000,4.000000,,,,0.000000,4.000000,4.000000,0.000000,4.000000,4.000000,,,,,,,,,,,,,,,,,,,,,,,,,,,,,,,,,,,,,,,,,,,,,,,,,,,,,,,,
1577418881.856574,83.000000,0.000000,4248.205078,4323.077148,4248.205078,4172.307617,4280.000000,16181.000000,4.000000,,,,0.000000,4.000000,4.000000,0.000000,4.000000,4.000000,,,,,,,,,,,,,,,,,,,,,,,,,,,,,,,,,,,,,,,,,,,,,,,,,,,,,,,,
1577418881.864377,84.000000,0.000000,4245.641113,4334.871582,4237.436035,4142.563965,4281.538574,450.000000,4.000000,,,,0.000000,4.000000,4.000000,0.000000,4.000000,4.000000,,,,,,,,,,,,,,,,,,,,,,,,,,,,,,,,,,,,,,,,,,,,,,,,,,,,,,,,
1577418881.872279,85.000000,0.000000,4256.922852,4354.871582,4188.717773,4164.615234,4289.743652,450.000000,4.000000,,,,0.000000,4.000000,4.000000,0.000000,4.000000,4.000000,,,,,,,,,,,,,,,,,,,,,,,,,,,,,,,,,,,,,,,,,,,,,,,,,,,,,,,,
1577418881.880081,86.000000,0.000000,4270.256348,4352.307617,4142.051270,4174.358887,4290.256348,450.000000,4.000000,,,,0.000000,4.000000,4.000000,0.000000,4.000000,4.000000,,,,,,,,,,,,,,,,,,,,,,,,,,,,,,,,,,,,,,,,,,,,,,,,,,,,,,,,
1577418881.887984,87.000000,0.000000,4258.461426,4330.256348,4215.897461,4162.563965,4281.025879,16181.000000,4.000000,,,,0.000000,4.000000,4.000000,0.000000,4.000000,4.000000,,,,,,,,,,,,,,,,,,,,,,,,,,,,,,,,,,,,,,,,,,,,,,,,,,,,,,,,
1577418881.895786,88.000000,0.000000,4266.153809,4334.358887,4224.102539,4169.743652,4288.717773,450.000000,4.000000,,,,0.000000,4.000000,4.000000,0.000000,4.000000,4.000000,,,,,,,,,,,,,,,,,,,,,,,,,,,,,,,,,,,,,,,,,,,,,,,,,,,,,,,,
1577418881.903689,89.000000,0.000000,4267.692383,4340.000000,4170.256348,4172.820313,4299.487305,450.000000,4.000000,,,,0.000000,4.000000,4.000000,0.000000,4.000000,4.000000,,,,,,,,,,,,,,,,,,,,,,,,,,,,,,,,9.837136,2.588325,1.322161,0.728258,0.554141,0.809771,0.687051,1.112028,2.164964,1.594974,10.112192,2.831876,5.139880,60.862438,27.044249,3.864482,1.482045,0.843810,0.730943,0.465625,11.378843,1.649089,1.338838,1.627945,0.584923
1577418881.911591,90.000000,0.000000,4251.794922,4337.436035,4152.820313,4175.384766,4301.538574,450.000000,4.000000,,,,0.000000,4.000000,4.000000,0.000000,4.000000,4.000000,,,,,,,,,,,,,,,,,,,,,,,,,,,,,,,,,,,,,,,,,,,,,,,,,,,,,,,,
1577418881.919394,91.000000,0.000000,4287.179688,4348.717773,4125.128418,4169.230957,4316.410156,16181.000000,4.000000,,,,0.000000,4.000000,4.000000,0.000000,4.000000,4.000000,,,,,,,,,,,,,,,,,,,,,,,,,,,,,,,,,,,,,,,,,,,,,,,,,,,,,,,,
1577418881.927196,92.000000,0.000000,4287.692383,4331.282227,4171.282227,4168.205078,4307.692383,450.000000,4.000000,,,,0.000000,4.000000,4.000000,0.000000,4.000000,4.000000,,,,,,,,,,,,,,,,,,,,,,,,,,,,,,,,,,,,,,,,,,,,,,,,,,,,,,,,
1577418881.935098,93.000000,0.000000,4275.897461,4343.589844,4188.717773,4173.846191,4306.153809,450.000000,4.000000,,,,0.000000,4.000000,4.000000,0.000000,4.000000,4.000000,,,,,,,,,,,,,,,,,,,,,,,,,,,,,,,,,,,,,,,,,,,,,,,,,,,,,,,,
1577418881.943001,94.000000,0.000000,4292.820313,4357.436035,4191.282227,4149.230957,4314.358887,450.000000,4.000000,,,,0.000000,4.000000,4.000000,0.000000,4.000000,4.000000,,,,,,,,,,,,,,,,,,,,,,,,,,,,,,,,,,,,,,,,,,,,,,,,,,,,,,,,
1577418881.950803,95.000000,0.000000,4251.794922,4323.589844,4189.743652,4163.077148,4289.230957,16181.000000,4.000000,,,,0.000000,4.000000,4.000000,0.000000,4.000000,4.000000,,,,,,,,,,,,,,,,,,,,,,,,,,,,,,,,,,,,,,,,,,,,,,,,,,,,,,,,
1577418881.958705,96.000000,0.000000,4347.179688,4391.282227,4057.948730,4163.077148,4352.307617,450.000000,4.000000,,,,0.000000,4.000000,4.000000,0.000000,4.000000,4.000000,,,,,,,,,,,,,,,,,,,,,,,,,,,,,,,,,,,,,,,,,,,,,,,,,,,,,,,,
1577418881.966508,97.000000,0.000000,4269.230957,4321.538574,4405.641113,4144.102539,4299.487305,450.000000,4.000000,,,,0.000000,4.000000,4.000000,0.000000,4.000000,4.000000,,,,,,,,,,,,,,,,,,,,,,,,,,,,,,,,,,,,,,,,,,,,,,,,,,,,,,,,
1577418881.974410,98.000000,0.000000,4133.846191,4278.461426,4187.179688,4213.846191,4205.128418,450.000000,4.000000,,,,0.000000,4.000000,4.000000,0.000000,4.000000,4.000000,,,,,,,,,,,,,,,,,,,,,,,,,,,,,,,,,,,,,,,,,,,,,,,,,,,,,,,,
1577418881.982213,99.000000,0.000000,4502.563965,4481.025879,3505.641113,4101.538574,4421.538574,16181.000000,4.000000,,,,0.000000,4.000000,4.000000,0.000000,4.000000,4.000000,,,,,,,,,,,,,,,,,,,,,,,,,,,,,,,,,,,,,,,,,,,,,,,,,,,,,,,,
1577418881.990115,100.000000,0.000000,4141.538574,4178.974121,4934.871582,4120.512695,4221.538574,450.000000,4.000000,,,,0.000000,4.000000,4.000000,0.000000,4.000000,4.000000,,,,,,,,,,,,,,,,,,,,,,,,,,,,,,,,,,,,,,,,,,,,,,,,,,,,,,,,
1577418881.997918,101.000000,0.000000,3521.025635,3998.974365,4608.205078,4187.692383,3737.435791,450.000000,4.000000,,,,0.000000,4.000000,4.000000,0.000000,4.000000,4.000000,,,,,,,,,,,,,,,,,,,,,,,,,,,,,,,,,,,,,,,,,,,,,,,,,,,,,,,,
1577418882.005820,102.000000,0.000000,3967.692383,4398.974121,2167.179443,3777.435791,3855.384521,450.000000,4.000000,,,,0.000000,4.000000,4.000000,0.000000,4.000000,4.000000,,,,,,,,,,,,,,,,,,,,,,,,,,,,,,,,,,,,,,,,,,,,,,,,,,,,,,,,
1577418882.013623,103.000000,0.000000,4214.358887,4411.282227,3480.000000,3910.769287,4145.641113,16181.000000,4.000000,,,,0.000000,4.000000,4.000000,0.000000,4.000000,4.000000,,,,,,,,,,,,,,,,,,,,,,,,,,,,,,,,,,,,,,,,,,,,,,,,,,,,,,,,
1577418882.021525,104.000000,0.000000,4171.794922,4353.846191,4426.153809,4302.051270,4247.692383,450.000000,4.000000,,,,0.000000,4.000000,4.000000,0.000000,4.000000,4.000000,,,,,,,,,,,,,,,,,,,,,,,,,,,,,,,,,,,,,,,,,,,,,,,,,,,,,,,,
1577418882.029327,105.000000,0.000000,4323.077148,4450.769043,3388.718018,4132.307617,4285.641113,450.000000,4.000000,,,,0.000000,4.000000,4.000000,0.000000,4.000000,4.000000,,,,,,,,,,,,,,,,,,,,,,,,,,,,,,,,12.430684,2.659729,1.571810,0.756090,0.505883,0.716804,0.571235,1.029423,2.180551,1.759923,14.014890,4.231986,6.187406,53.723816,28.171452,3.343990,1.314108,0.856915,0.847695,0.408458,12.198727,1.504307,1.289890,1.633020,0.527152
1577418882.037230,106.000000,0.000000,4307.179688,4402.563965,3971.281982,4166.666504,4306.153809,450.000000,4.000000,,,,0.000000,4.000000,4.000000,0.000000,4.000000,4.000000,,,,,,,,,,,,,,,,,,,,,,,,,,,,,,,,,,,,,,,,,,,,,,,,,,,,,,,,
1577418882.045032,107.000000,0.000000,4325.641113,4386.666504,4007.179443,4233.846191,4329.230957,16181.000000,4.000000,,,,0.000000,4.000000,4.000000,0.000000,4.000000,4.000000,,,,,,,,,,,,,,,,,,,,,,,,,,,,,,,,,,,,,,,,,,,,,,,,,,,,,,,,
1577418882.052935,108.000000,0.000000,4324.615234,4356.922852,3795.384521,4162.051270,4304.102539,450.000000,4.000000,,,,0.000000,4.000000,4.000000,0.000000,4.000000,4.000000,,,,,,,,,,,,,,,,,,,,,,,,,,,,,,,,,,,,,,,,,,,,,,,,,,,,,,,,
