title:l2, start timestamp:2019-12-27T07:52:31.192234+03:00, stop timestamp:2019-12-27T07:53:02.254281+03:00, headset type:INSIGHT, headset serial:A2D200FB, headset firmware:930, subject name:Qasim, channels:44, sampling rate:eeg_128;pow_8, samples:3988      , version:2.0
Timestamp,EEG.Counter,EEG.Interpolated,EEG.AF3,EEG.T7,EEG.Pz,EEG.T8,EEG.AF4,EEG.RawCq,EEG.Battery,MarkerIndex,MarkerType,MarkerValueInt,EEG.MarkerHardware,CQ.AF3,CQ.T7,CQ.Pz,CQ.T8,CQ.AF4,POW.AF3.Theta,POW.AF3.Alpha,POW.AF3.BetaL,POW.AF3.BetaH,POW.AF3.Gamma,POW.T7.Theta,POW.T7.Alpha,POW.T7.BetaL,POW.T7.BetaH,POW.T7.Gamma,POW.Pz.Theta,POW.Pz.Alpha,POW.Pz.BetaL,POW.Pz.BetaH,POW.Pz.Gamma,POW.T8.Theta,POW.T8.Alpha,POW.T8.BetaL,POW.T8.BetaH,POW.T8.Gamma,POW.AF4.Theta,POW.AF4.Alpha,POW.AF4.BetaL,POW.AF4.BetaH,POW.AF4.Gamma
1577422351.192234,48.000000,0.000000,4156.922852,4235.384766,4101.538574,4117.948730,4147.179688,0.000000,4.000000,,,,0.000000,4.000000,4.000000,4.000000,4.000000,4.000000,,,,,,,,,,,,,,,,,,,,,,,,,
1577422351.200042,49.000000,0.000000,4180.000000,4273.333496,4105.128418,4105.641113,4168.205078,0.000000,4.000000,,,,0.000000,4.000000,4.000000,4.000000,4.000000,4.000000,,,,,,,,,,,,,,,,,,,,,,,,,
1577422351.207862,50.000000,1.000000,4174.928711,4262.791992,4097.891602,4106.837402,4167.920410,0.000000,4.000000,,,,0.000000,4.000000,4.000000,4.000000,4.000000,4.000000,,,,,,,,,,,,,,,,,,,,,,,,,
1577422351.215583,51.000000,1.000000,4169.857422,4252.250488,4090.655273,4108.034180,4167.635254,0.000000,4.000000,,,,0.000000,4.000000,4.000000,4.000000,4.000000,4.000000,,,,,,,,,,,,,,,,,,,,,,,,,
1577422351.223303,52.000000,1.000000,4164.786133,4241.709473,4083.418701,4109.230957,4167.350586,0.000000,4.000000,,,,0.000000,4.000000,4.000000,4.000000,4.000000,4.000000,,,,,,,,,,,,,,,,,,,,,,,,,
1577422351.231023,53.000000,1.000000,4159.715332,4231.167969,4076.182373,4110.427246,4167.065430,0.000000,4.000000,,,,0.000000,4.000000,4.000000,4.000000,4.000000,4.000000,,,,,,,,,,,,,,,,,,,,,,,,,
1577422351.238743,54.000000,1.000000,4154.644043,4220.626953,4068.945801,4111.624023,4166.780762,0.000000,4.000000,,,,0.000000,4.000000,4.000000,4.000000,4.000000,4.000000,,,,,,,,,,,,,,,,,,,,,,,,,
1577422351.246464,55.000000,1.000000,4149.572754,4210.085449,4061.709473,4112.820313,4166.495605,0.000000,4.000000,,,,0.000000,4.000000,4.000000,4.000000,4.000000,4.000000,,,,,,,,,,,,,,,,,,,,,,,,,
1577422351.254184,56.000000,1.000000,4144.501465,4199.543945,4054.472900,4114.017090,4166.210938,0.000000,4.000000,,,,0.000000,4.000000,4.000000,4.000000,4.000000,4.000000,,,,,,,,,,,,,,,,,,,,,,,,,
1577422351.261904,57.000000,1.000000,4139.430176,4189.002930,4047.236572,4115.213867,4165.925781,0.000000,4.000000,,,,0.000000,4.000000,4.000000,4.000000,4.000000,4.000000,,,,,,,,,,,,,,,,,,,,,,,,,
1577422351.269624,58.000000,0.000000,4134.358887,4178.461426,4040.000000,4116.410156,4165.641113,0.000000,4.000000,,,,0.000000,4.000000,4.000000,4.000000,4.000000,4.000000,,,,,,,,,,,,,,,,,,,,,,,,,
1577422351.277427,59.000000,0.000000,4155.384766,4194.871582,4027.179443,4097.948730,4162.563965,0.000000,4.000000,,,,0.000000,4.000000,4.000000,4.000000,4.000000,4.000000,,,,,,,,,,,,,,,,,,,,,,,,,
1577422351.285131,60.000000,0.000000,4175.897461,4208.205078,4029.743652,4111.794922,4182.563965,0.000000,4.000000,,,,0.000000,4.000000,4.000000,4.000000,4.000000,4.000000,,,,,,,,,,,,,,,,,,,,,,,,,
1577422351.292834,61.000000,0.000000,4186.666504,4210.256348,4042.051270,4126.666504,4188.717773,0.000000,4.000000,,,,0.000000,4.000000,4.000000,4.000000,4.000000,4.000000,,,,,,,,,,,,,,,,,,,,,,,,,
1577422351.300537,62.000000,0.000000,4127.692383,4164.102539,3992.307617,4070.256348,4112.820313,0.000000,4.000000,,,,0.000000,4.000000,4.000000,4.000000,4.000000,4.000000,5.311649,5.222950,3.902894,12.856562,5.377241,13.575007,2.847220,4.355677,9.349692,4.147532,80.242188,9.534803,3.509408,7.934227,3.092698,2.243730,2.055536,0.894659,3.486921,1.700423,5.692034,4.696019,3.749169,9.081516,4.088853
1577422351.308340,63.000000,0.000000,4101.538574,4158.461426,3971.281982,4067.692383,4093.333252,0.000000,4.000000,,,,0.000000,4.000000,4.000000,4.000000,4.000000,4.000000,,,,,,,,,,,,,,,,,,,,,,,,,
1577422351.316146,64.000000,0.000000,4126.666504,4169.743652,3990.769287,4092.307617,4136.410156,450.000000,4.000000,,,,0.000000,4.000000,4.000000,4.000000,4.000000,4.000000,,,,,,,,,,,,,,,,,,,,,,,,,
1577422351.323851,65.000000,0.000000,4127.179688,4135.384766,3983.589844,4078.461426,4147.692383,450.000000,4.000000,,,,0.000000,4.000000,4.000000,4.000000,4.000000,4.000000,,,,,,,,,,,,,,,,,,,,,,,,,
1577422351.331661,66.000000,0.000000,4136.410156,4154.871582,4003.076904,4075.384521,4158.461426,16139.000000,4.000000,,,,0.000000,4.000000,4.000000,4.000000,4.000000,4.000000,,,,,,,,,,,,,,,,,,,,,,,,,
1577422351.339473,67.000000,0.000000,4180.000000,4241.538574,4062.051270,4108.205078,4194.871582,450.000000,4.000000,,,,0.000000,4.000000,4.000000,4.000000,4.000000,4.000000,,,,,,,,,,,,,,,,,,,,,,,,,
1577422351.347185,68.000000,0.000000,4227.179688,4287.179688,4104.615234,4149.743652,4233.846191,16134.000000,4.000000,,,,0.000000,4.000000,4.000000,4.000000,4.000000,4.000000,,,,,,,,,,,,,,,,,,,,,,,,,
1577422351.354897,69.000000,0.000000,4190.256348,4222.051270,4074.358887,4128.717773,4200.512695,450.000000,4.000000,,,,0.000000,4.000000,4.000000,4.000000,4.000000,4.000000,,,,,,,,,,,,,,,,,,,,,,,,,
1577422351.362706,70.000000,0.000000,4108.205078,4147.179688,4026.666748,4091.794922,4138.974121,16099.000000,4.000000,,,,0.000000,4.000000,4.000000,4.000000,4.000000,4.000000,,,,,,,,,,,,,,,,,,,,,,,,,
1577422351.370518,71.000000,0.000000,4111.794922,4160.512695,4038.974365,4084.615479,4132.820313,450.000000,4.000000,,,,0.000000,4.000000,4.000000,4.000000,4.000000,4.000000,,,,,,,,,,,,,,,,,,,,,,,,,
1577422351.378332,72.000000,0.000000,4151.794922,4194.871582,4055.897461,4073.333252,4145.641113,450.000000,4.000000,,,,0.000000,4.000000,4.000000,4.000000,4.000000,4.000000,,,,,,,,,,,,,,,,,,,,,,,,,
1577422351.386046,73.000000,0.000000,4202.563965,4245.641113,4088.718018,4106.153809,4196.922852,16135.000000,4.000000,,,,0.000000,4.000000,4.000000,4.000000,4.000000,4.000000,,,,,,,,,,,,,,,,,,,,,,,,,
1577422351.393760,74.000000,0.000000,4212.307617,4262.051270,4106.666504,4121.025879,4207.692383,450.000000,4.000000,,,,0.000000,4.000000,4.000000,4.000000,4.000000,4.000000,,,,,,,,,,,,,,,,,,,,,,,,,
1577422351.401474,75.000000,0.000000,4131.282227,4195.897461,4060.512939,4082.564209,4128.717773,16144.000000,4.000000,,,,0.000000,4.000000,4.000000,4.000000,4.000000,4.000000,,,,,,,,,,,,,,,,,,,,,,,,,
1577422351.409288,76.000000,0.000000,4105.641113,4167.692383,4047.179443,4081.025635,4100.000000,450.000000,4.000000,,,,0.000000,4.000000,4.000000,4.000000,4.000000,4.000000,,,,,,,,,,,,,,,,,,,,,,,,,
1577422351.417104,77.000000,0.000000,4152.820313,4206.153809,4080.000000,4092.307617,4136.922852,450.000000,4.000000,,,,0.000000,4.000000,4.000000,4.000000,4.000000,4.000000,,,,,,,,,,,,,,,,,,,,,,,,,
1577422351.424820,78.000000,0.000000,4214.358887,4256.410156,4128.717773,4121.025879,4213.846191,450.000000,4.000000,,,,0.000000,4.000000,4.000000,4.000000,4.000000,4.000000,4.362033,5.599416,3.135779,12.880478,5.577435,11.009818,2.945538,3.598742,9.564010,4.717350,81.214821,11.825798,3.602111,7.876233,3.207978,1.679429,2.132660,1.017015,3.274369,1.982286,4.811509,5.016091,3.777000,9.429876,4.166035
1577422351.432536,79.000000,0.000000,4231.794922,4253.333496,4137.436035,4130.256348,4234.871582,16144.000000,4.000000,,,,0.000000,4.000000,4.000000,4.000000,4.000000,4.000000,,,,,,,,,,,,,,,,,,,,,,,,,
1577422351.440252,80.000000,0.000000,4169.230957,4207.692383,4095.384521,4101.025879,4162.563965,450.000000,4.000000,,,,0.000000,4.000000,4.000000,4.000000,4.000000,4.000000,,,,,,,,,,,,,,,,,,,,,,,,,
1577422351.448067,81.000000,0.000000,4148.717773,4208.717773,4101.538574,4103.077148,4135.384766,450.000000,4.000000,,,,0.000000,4.000000,4.000000,4.000000,4.000000,4.000000,,,,,,,,,,,,,,,,,,,,,,,,,
1577422351.455885,82.000000,0.000000,4165.128418,4213.846191,4117.436035,4098.461426,4147.179688,450.000000,4.000000,,,,0.000000,4.000000,4.000000,4.000000,4.000000,4.000000,,,,,,,,,,,,,,,,,,,,,,,,,
1577422351.463603,83.000000,0.000000,4192.820313,4229.230957,4138.974121,4110.769043,4190.769043,16144.000000,4.000000,,,,0.000000,4.000000,4.000000,4.000000,4.000000,4.000000,,,,,,,,,,,,,,,,,,,,,,,,,
1577422351.471426,84.000000,1.000000,4194.985840,4238.632324,4142.905762,4109.686523,4190.939941,14400.222656,4.000000,,,,0.000000,4.000000,4.000000,4.000000,4.000000,4.000000,,,,,,,,,,,,,,,,,,,,,,,,,
1577422351.479149,85.000000,1.000000,4197.150879,4248.034180,4146.837402,4108.604004,4191.111328,12656.444336,4.000000,,,,0.000000,4.000000,4.000000,4.000000,4.000000,4.000000,,,,,,,,,,,,,,,,,,,,,,,,,
1577422351.486872,86.000000,1.000000,4199.316406,4257.436035,4150.769043,4107.521484,4191.282227,10912.666992,4.000000,,,,0.000000,4.000000,4.000000,4.000000,4.000000,4.000000,,,,,,,,,,,,,,,,,,,,,,,,,
1577422351.494595,87.000000,1.000000,4201.481445,4266.837402,4154.700684,4106.438965,4191.453125,9168.888672,4.000000,,,,0.000000,4.000000,4.000000,4.000000,4.000000,4.000000,,,,,,,,,,,,,,,,,,,,,,,,,
1577422351.502317,88.000000,1.000000,4203.646484,4276.239258,4158.632324,4105.355957,4191.624023,7425.111328,4.000000,,,,0.000000,4.000000,4.000000,4.000000,4.000000,4.000000,,,,,,,,,,,,,,,,,,,,,,,,,
1577422351.510040,89.000000,1.000000,4205.812012,4285.641113,4162.563965,4104.273438,4191.794922,5681.333496,4.000000,,,,0.000000,4.000000,4.000000,4.000000,4.000000,4.000000,,,,,,,,,,,,,,,,,,,,,,,,,
1577422351.517763,90.000000,1.000000,4207.977051,4295.042969,4166.495605,4103.190918,4191.965820,3937.555664,4.000000,,,,0.000000,4.000000,4.000000,4.000000,4.000000,4.000000,,,,,,,,,,,,,,,,,,,,,,,,,
1577422351.525486,91.000000,1.000000,4210.142578,4304.444336,4170.427246,4102.108398,4192.136719,2193.777832,4.000000,,,,0.000000,4.000000,4.000000,4.000000,4.000000,4.000000,,,,,,,,,,,,,,,,,,,,,,,,,
1577422351.533209,92.000000,0.000000,4212.307617,4313.846191,4174.358887,4101.025879,4192.307617,450.000000,4.000000,,,,0.000000,4.000000,4.000000,4.000000,4.000000,4.000000,,,,,,,,,,,,,,,,,,,,,,,,,
1577422351.541015,93.000000,0.000000,4158.974121,4267.692383,4131.794922,4081.538574,4146.666504,450.000000,4.000000,,,,0.000000,4.000000,4.000000,4.000000,4.000000,4.000000,,,,,,,,,,,,,,,,,,,,,,,,,
1577422351.548721,94.000000,0.000000,4164.102539,4236.922852,4126.666504,4103.077148,4140.512695,450.000000,4.000000,,,,0.000000,4.000000,4.000000,4.000000,4.000000,4.000000,3.859153,5.676381,2.600644,12.887079,5.745867,9.305020,2.867284,2.861979,9.604657,5.189600,83.124367,13.878517,3.871014,7.773453,3.288726,1.310494,2.199478,1.157879,3.037238,2.263048,4.218279,4.896151,4.062681,9.900601,4.219704
1577422351.556427,95.000000,0.000000,4214.871582,4253.333496,4145.641113,4116.410156,4160.512695,16144.000000,4.000000,,,,0.000000,4.000000,4.000000,4.000000,4.000000,4.000000,,,,,,,,,,,,,,,,,,,,,,,,,
1577422351.564133,96.000000,0.000000,4270.256348,4301.025879,4183.077148,4128.205078,4222.563965,450.000000,4.000000,,,,0.000000,4.000000,4.000000,4.000000,4.000000,4.000000,,,,,,,,,,,,,,,,,,,,,,,,,
1577422351.571934,97.000000,0.000000,4261.025879,4293.333496,4174.871582,4124.102539,4233.333496,450.000000,4.000000,,,,0.000000,4.000000,4.000000,4.000000,4.000000,4.000000,,,,,,,,,,,,,,,,,,,,,,,,,
1577422351.579635,98.000000,0.000000,4204.615234,4233.333496,4115.897461,4107.179688,4177.948730,450.000000,4.000000,,,,0.000000,4.000000,4.000000,4.000000,4.000000,4.000000,,,,,,,,,,,,,,,,,,,,,,,,,
1577422351.587436,99.000000,0.000000,4214.358887,4231.282227,4110.769043,4122.051270,4175.897461,16144.000000,4.000000,,,,0.000000,4.000000,4.000000,4.000000,4.000000,4.000000,,,,,,,,,,,,,,,,,,,,,,,,,
1577422351.595243,100.000000,0.000000,4243.077148,4258.974121,4137.948730,4136.410156,4187.692383,450.000000,4.000000,,,,0.000000,4.000000,4.000000,4.000000,4.000000,4.000000,,,,,,,,,,,,,,,,,,,,,,,,,
1577422351.603053,101.000000,0.000000,4276.410156,4285.128418,4161.538574,4151.282227,4213.846191,450.000000,4.000000,,,,0.000000,4.000000,4.000000,4.000000,4.000000,4.000000,,,,,,,,,,,,,,,,,,,,,,,,,
1577422351.610763,102.000000,0.000000,4296.410156,4282.051270,4158.974121,4142.051270,4237.436035,450.000000,4.000000,,,,0.000000,4.000000,4.000000,4.000000,4.000000,4.000000,,,,,,,,,,,,,,,,,,,,,,,,,
1577422351.618573,103.000000,0.000000,4253.846191,4246.153809,4122.563965,4107.692383,4210.769043,16144.000000,4.000000,,,,0.000000,4.000000,4.000000,4.000000,4.000000,4.000000,,,,,,,,,,,,,,,,,,,,,,,,,
1577422351.626283,104.000000,0.000000,4276.410156,4263.589844,4140.512695,4135.384766,4223.589844,450.000000,4.000000,,,,0.000000,4.000000,4.000000,4.000000,4.000000,4.000000,,,,,,,,,,,,,,,,,,,,,,,,,
1577422351.634093,105.000000,0.000000,4310.256348,4271.282227,4156.922852,4158.974121,4237.948730,450.000000,4.000000,,,,0.000000,4.000000,4.000000,4.000000,4.000000,4.000000,,,,,,,,,,,,,,,,,,,,,,,,,
1577422351.641802,106.000000,0.000000,4277.948730,4246.666504,4125.641113,4123.589844,4214.871582,450.000000,4.000000,,,,0.000000,4.000000,4.000000,4.000000,4.000000,4.000000,,,,,,,,,,,,,,,,,,,,,,,,,
1577422351.649617,107.000000,0.000000,4274.871582,4249.230957,4113.846191,4098.974121,4213.333496,16144.000000,4.000000,,,,0.000000,4.000000,4.000000,4.000000,4.000000,4.000000,,,,,,,,,,,,,,,,,,,,,,,,,
1577422351.657433,108.000000,0.000000,4306.153809,4264.102539,4121.538574,4117.436035,4225.128418,450.000000,4.000000,,,,0.000000,4.000000,4.000000,4.000000,4.000000,4.000000,,,,,,,,,,,,,,,,,,,,,,,,,
1577422351.665149,109.000000,0.000000,4380.512695,4308.717773,4159.487305,4172.307617,4284.102539,450.000000,4.000000,,,,0.000000,4.000000,4.000000,4.000000,4.000000,4.000000,,,,,,,,,,,,,,,,,,,,,,,,,
1577422351.672866,110.000000,0.000000,4403.589844,4306.666504,4156.922852,4178.974121,4318.461426,450.000000,4.000000,,,,0.000000,4.000000,4.000000,4.000000,4.000000,4.000000,3.573480,5.424984,2.459733,13.057717,5.836656,8.447239,2.645707,2.384466,9.683910,5.453869,82.822281,15.400616,4.348863,7.759082,3.311267,1.081666,2.260891,1.338402,2.884514,2.491844,3.732721,4.489989,4.673807,10.546267,4.246351
1577422351.680582,111.000000,0.000000,4337.948730,4244.615234,4097.948730,4138.461426,4271.282227,16144.000000,4.000000,,,,0.000000,4.000000,4.000000,4.000000,4.000000,4.000000,,,,,,,,,,,,,,,,,,,,,,,,,
1577422351.688393,112.000000,0.000000,4340.000000,4236.410156,4097.948730,4130.256348,4259.487305,450.000000,4.000000,,,,0.000000,4.000000,4.000000,4.000000,4.000000,4.000000,,,,,,,,,,,,,,,,,,,,,,,,,
1577422351.696105,113.000000,0.000000,4413.333496,4271.282227,4149.230957,4146.666504,4313.846191,450.000000,4.000000,,,,0.000000,4.000000,4.000000,4.000000,4.000000,4.000000,,,,,,,,,,,,,,,,,,,,,,,,,
1577422351.703916,114.000000,0.000000,4482.563965,4317.948730,4201.025879,4175.384766,4372.307617,450.000000,4.000000,,,,0.000000,4.000000,4.000000,4.000000,4.000000,4.000000,,,,,,,,,,,,,,,,,,,,,,,,,
1577422351.711628,115.000000,0.000000,4457.436035,4302.051270,4183.589844,4163.589844,4353.333496,16144.000000,4.000000,,,,0.000000,4.000000,4.000000,4.000000,4.000000,4.000000,,,,,,,,,,,,,,,,,,,,,,,,,
1577422351.719439,116.000000,0.000000,4372.820313,4234.871582,4130.256348,4138.461426,4290.769043,450.000000,4.000000,,,,0.000000,4.000000,4.000000,4.000000,4.000000,4.000000,,,,,,,,,,,,,,,,,,,,,,,,,
1577422351.727253,117.000000,0.000000,4358.974121,4229.230957,4143.077148,4154.358887,4292.307617,450.000000,4.000000,,,,0.000000,4.000000,4.000000,4.000000,4.000000,4.000000,,,,,,,,,,,,,,,,,,,,,,,,,
1577422351.735068,118.000000,0.000000,4380.000000,4249.230957,4165.128418,4151.794922,4318.461426,450.000000,4.000000,,,,0.000000,4.000000,4.000000,4.000000,4.000000,4.000000,,,,,,,,,,,,,,,,,,,,,,,,,
1577422351.742784,119.000000,0.000000,4401.025879,4278.461426,4180.512695,4147.692383,4330.256348,16144.000000,4.000000,,,,0.000000,4.000000,4.000000,4.000000,4.000000,4.000000,,,,,,,,,,,,,,,,,,,,,,,,,
1577422351.750599,120.000000,0.000000,4389.743652,4284.102539,4181.538574,4144.102539,4310.769043,450.000000,4.000000,,,,0.000000,4.000000,4.000000,4.000000,4.000000,4.000000,,,,,,,,,,,,,,,,,,,,,,,,,
1577422351.758315,121.000000,0.000000,4341.538574,4254.358887,4157.436035,4126.666504,4273.333496,450.000000,4.000000,,,,0.000000,4.000000,4.000000,4.000000,4.000000,4.000000,,,,,,,,,,,,,,,,,,,,,,,,,
1577422351.766130,122.000000,0.000000,4312.820313,4264.102539,4157.948730,4124.615234,4268.205078,450.000000,4.000000,,,,0.000000,4.000000,4.000000,4.000000,4.000000,4.000000,,,,,,,,,,,,,,,,,,,,,,,,,
1577422351.773948,123.000000,0.000000,4287.179688,4264.102539,4144.615234,4117.948730,4256.410156,16144.000000,4.000000,,,,0.000000,4.000000,4.000000,4.000000,4.000000,4.000000,,,,,,,,,,,,,,,,,,,,,,,,,
1577422351.781665,124.000000,0.000000,4273.846191,4251.794922,4146.666504,4141.025879,4240.000000,450.000000,4.000000,,,,0.000000,4.000000,4.000000,4.000000,4.000000,4.000000,,,,,,,,,,,,,,,,,,,,,,,,,
1577422351.789482,125.000000,0.000000,4257.436035,4248.717773,4150.256348,4133.846191,4221.538574,450.000000,4.000000,,,,0.000000,4.000000,4.000000,4.000000,4.000000,4.000000,,,,,,,,,,,,,,,,,,,,,,,,,
1577422351.797302,126.000000,1.000000,4244.444336,4247.692383,4156.581055,4132.022949,4212.535645,2191.111084,4.000000,,,,0.000000,4.000000,4.000000,4.000000,4.000000,4.000000,3.322193,4.897740,2.781946,13.494899,5.810596,8.132869,2.358884,2.329913,10.017924,5.462332,77.623322,16.050953,4.936398,7.871764,3.254595,0.943702,2.354321,1.609533,2.877522,2.630370,3.219271,4.082794,5.559140,11.343925,4.251460
1577422351.805022,127.000000,1.000000,4231.453125,4246.666504,4162.905762,4130.199219,4203.532715,3932.222168,4.000000,,,,0.000000,4.000000,4.000000,4.000000,4.000000,4.000000,,,,,,,,,,,,,,,,,,,,,,,,,
1577422351.812742,0.000000,1.000000,4218.461426,4245.641113,4169.230957,4128.375977,4194.529785,450.000000,4.000000,,,,0.000000,4.000000,4.000000,4.000000,4.000000,4.000000,,,,,,,,,,,,,,,,,,,,,,,,,
1577422351.820461,1.000000,1.000000,4205.470215,4244.615234,4175.555664,4126.552734,4185.526855,450.000000,4.000000,,,,0.000000,4.000000,4.000000,4.000000,4.000000,4.000000,,,,,,,,,,,,,,,,,,,,,,,,,
1577422351.828181,2.000000,1.000000,4192.478516,4243.589844,4181.880371,4124.729492,4176.524414,16139.000000,4.000000,,,,0.000000,4.000000,4.000000,4.000000,4.000000,4.000000,,,,,,,,,,,,,,,,,,,,,,,,,
1577422351.835901,3.000000,1.000000,4179.487305,4242.563965,4188.205078,4122.905762,4167.521484,450.000000,4.000000,,,,0.000000,4.000000,4.000000,4.000000,4.000000,4.000000,,,,,,,,,,,,,,,,,,,,,,,,,
1577422351.843621,4.000000,1.000000,4166.495605,4241.538574,4194.529785,4121.082520,4158.518555,16134.000000,4.000000,,,,0.000000,4.000000,4.000000,4.000000,4.000000,4.000000,,,,,,,,,,,,,,,,,,,,,,,,,
1577422351.851340,5.000000,1.000000,4153.504395,4240.512695,4200.854492,4119.259277,4149.515625,450.000000,4.000000,,,,0.000000,4.000000,4.000000,4.000000,4.000000,4.000000,,,,,,,,,,,,,,,,,,,,,,,,,
1577422351.859060,6.000000,0.000000,4140.512695,4239.487305,4207.179688,4117.436035,4140.512695,16120.000000,4.000000,,,,0.000000,4.000000,4.000000,4.000000,4.000000,4.000000,,,,,,,,,,,,,,,,,,,,,,,,,
1577422351.866780,7.000000,0.000000,4138.461426,4262.563965,4243.589844,4128.717773,4135.384766,450.000000,4.000000,,,,0.000000,4.000000,4.000000,4.000000,4.000000,4.000000,,,,,,,,,,,,,,,,,,,,,,,,,
1577422351.874580,8.000000,0.000000,4147.179688,4297.436035,4269.743652,4096.922852,4141.538574,450.000000,4.000000,,,,0.000000,4.000000,4.000000,4.000000,4.000000,4.000000,,,,,,,,,,,,,,,,,,,,,,,,,
1577422351.882281,9.000000,0.000000,4159.487305,4324.102539,4295.384766,4115.897461,4169.743652,16122.000000,4.000000,,,,0.000000,4.000000,4.000000,4.000000,4.000000,4.000000,,,,,,,,,,,,,,,,,,,,,,,,,
1577422351.889982,10.000000,0.000000,4158.461426,4349.230957,4323.589844,4129.230957,4176.410156,450.000000,4.000000,,,,0.000000,4.000000,4.000000,4.000000,4.000000,4.000000,,,,,,,,,,,,,,,,,,,,,,,,,
1577422351.897785,11.000000,0.000000,4105.128418,4329.230957,4291.794922,4095.384521,4117.948730,16106.000000,4.000000,,,,0.000000,4.000000,4.000000,4.000000,4.000000,4.000000,,,,,,,,,,,,,,,,,,,,,,,,,
1577422351.905594,12.000000,0.000000,4109.743652,4355.384766,4294.358887,4119.487305,4121.538574,450.000000,4.000000,,,,0.000000,4.000000,4.000000,4.000000,4.000000,4.000000,,,,,,,,,,,,,,,,,,,,,,,,,
1577422351.913406,13.000000,0.000000,4122.051270,4373.846191,4302.051270,4103.077148,4136.922852,450.000000,4.000000,,,,0.000000,4.000000,4.000000,4.000000,4.000000,4.000000,,,,,,,,,,,,,,,,,,,,,,,,,
1577422351.921118,14.000000,0.000000,4107.179688,4351.794922,4293.333496,4095.384521,4131.282227,450.000000,4.000000,,,,0.000000,4.000000,4.000000,4.000000,4.000000,4.000000,3.303470,4.232850,3.411921,14.175652,5.693366,8.003745,2.106249,2.662370,10.696324,5.264293,66.684555,15.720796,5.401370,8.070660,3.143467,0.894503,2.505757,1.970181,3.013402,2.684381,2.843967,3.957414,6.497028,12.192426,4.267940
1577422351.928830,15.000000,0.000000,4128.717773,4377.436035,4323.077148,4121.538574,4147.179688,16106.000000,4.000000,,,,0.000000,4.000000,4.000000,4.000000,4.000000,4.000000,,,,,,,,,,,,,,,,,,,,,,,,,
1577422351.936542,16.000000,0.000000,4141.025879,4407.179688,4340.512695,4106.153809,4147.692383,0.000000,4.000000,,,,0.000000,4.000000,4.000000,4.000000,4.000000,4.000000,,,,,,,,,,,,,,,,,,,,,,,,,
1577422351.944349,17.000000,0.000000,4156.410156,4414.358887,4354.871582,4122.563965,4156.922852,0.000000,4.000000,,,,0.000000,4.000000,4.000000,4.000000,4.000000,4.000000,,,,,,,,,,,,,,,,,,,,,,,,,
1577422351.952158,18.000000,0.000000,4143.589844,4388.205078,4342.051270,4116.922852,4150.256348,0.000000,4.000000,,,,0.000000,4.000000,4.000000,4.000000,4.000000,4.000000,,,,,,,,,,,,,,,,,,,,,,,,,
1577422351.959867,19.000000,0.000000,4096.922852,4345.128418,4303.077148,4096.410156,4124.615234,0.000000,4.000000,,,,0.000000,4.000000,4.000000,4.000000,4.000000,4.000000,,,,,,,,,,,,,,,,,,,,,,,,,
1577422351.967577,20.000000,0.000000,4094.871826,4338.974121,4304.102539,4093.333252,4115.384766,0.000000,4.000000,,,,0.000000,4.000000,4.000000,4.000000,4.000000,4.000000,,,,,,,,,,,,,,,,,,,,,,,,,
1577422351.975388,21.000000,0.000000,4122.563965,4363.589844,4328.205078,4073.333252,4121.538574,0.000000,4.000000,,,,0.000000,4.000000,4.000000,4.000000,4.000000,4.000000,,,,,,,,,,,,,,,,,,,,,,,,,
1577422351.983201,22.000000,0.000000,4187.692383,4421.025879,4375.384766,4120.000000,4181.538574,0.000000,4.000000,,,,0.000000,4.000000,4.000000,4.000000,4.000000,4.000000,,,,,,,,,,,,,,,,,,,,,,,,,
1577422351.990915,23.000000,0.000000,4198.461426,4420.000000,4386.153809,4136.922852,4188.717773,0.000000,4.000000,,,,0.000000,4.000000,4.000000,4.000000,4.000000,4.000000,,,,,,,,,,,,,,,,,,,,,,,,,
1577422351.998628,24.000000,0.000000,4105.641113,4345.641113,4330.256348,4078.461426,4113.333496,0.000000,4.000000,,,,0.000000,4.000000,4.000000,4.000000,4.000000,4.000000,,,,,,,,,,,,,,,,,,,,,,,,,
1577422352.006440,25.000000,0.000000,4083.589844,4335.384766,4311.794922,4070.256348,4094.871826,0.000000,4.000000,,,,0.000000,4.000000,4.000000,4.000000,4.000000,4.000000,,,,,,,,,,,,,,,,,,,,,,,,,
1577422352.014151,26.000000,0.000000,4144.615234,4372.307617,4333.333496,4089.230713,4127.692383,0.000000,4.000000,,,,0.000000,4.000000,4.000000,4.000000,4.000000,4.000000,,,,,,,,,,,,,,,,,,,,,,,,,
1577422352.021967,27.000000,0.000000,4186.666504,4400.000000,4359.487305,4107.179688,4166.666504,0.000000,4.000000,,,,0.000000,4.000000,4.000000,4.000000,4.000000,4.000000,,,,,,,,,,,,,,,,,,,,,,,,,
1577422352.029784,28.000000,0.000000,4158.974121,4388.717773,4352.820313,4090.769287,4154.358887,0.000000,4.000000,,,,0.000000,4.000000,4.000000,4.000000,4.000000,4.000000,,,,,,,,,,,,,,,,,,,,,,,,,
1577422352.037502,29.000000,0.000000,4102.563965,4350.769043,4312.820313,4069.743652,4111.282227,0.000000,4.000000,,,,0.000000,4.000000,4.000000,4.000000,4.000000,4.000000,,,,,,,,,,,,,,,,,,,,,,,,,
1577422352.045220,30.000000,0.000000,4122.051270,4359.487305,4309.743652,4096.922852,4117.948730,0.000000,4.000000,,,,0.000000,4.000000,4.000000,4.000000,4.000000,4.000000,4.311311,3.648093,4.049355,14.957076,5.567477,7.983510,1.945220,3.154236,11.597055,4.978043,51.190281,14.424795,5.508708,8.253021,3.036607,0.961833,2.708372,2.364433,3.217829,2.685975,3.318236,4.235230,7.166501,12.907673,4.332302
1577422352.052938,31.000000,0.000000,4150.256348,4368.717773,4311.794922,4091.794922,4119.487305,0.000000,4.000000,,,,0.000000,4.000000,4.000000,4.000000,4.000000,4.000000,,,,,,,,,,,,,,,,,,,,,,,,,
1577422352.060751,32.000000,0.000000,4161.025879,4376.922852,4318.974121,4093.333252,4151.794922,0.000000,4.000000,,,,0.000000,4.000000,4.000000,4.000000,4.000000,4.000000,,,,,,,,,,,,,,,,,,,,,,,,,
1577422352.068464,33.000000,0.000000,4183.077148,4397.436035,4334.871582,4109.230957,4182.563965,0.000000,4.000000,,,,0.000000,4.000000,4.000000,4.000000,4.000000,4.000000,,,,,,,,,,,,,,,,,,,,,,,,,
1577422352.076277,34.000000,0.000000,4155.384766,4374.871582,4310.256348,4090.256348,4137.436035,0.000000,4.000000,,,,0.000000,4.000000,4.000000,4.000000,4.000000,4.000000,,,,,,,,,,,,,,,,,,,,,,,,,
1577422352.083990,35.000000,0.000000,4129.743652,4348.717773,4291.282227,4097.948730,4118.461426,0.000000,4.000000,,,,0.000000,4.000000,4.000000,4.000000,4.000000,4.000000,,,,,,,,,,,,,,,,,,,,,,,,,
1577422352.091803,36.000000,0.000000,4124.102539,4331.282227,4265.641113,4107.179688,4114.871582,0.000000,4.000000,,,,0.000000,4.000000,4.000000,4.000000,4.000000,4.000000,,,,,,,,,,,,,,,,,,,,,,,,,
1577422352.099618,37.000000,0.000000,4114.358887,4309.230957,4231.794922,4091.794922,4122.563965,0.000000,4.000000,,,,0.000000,4.000000,4.000000,4.000000,4.000000,4.000000,,,,,,,,,,,,,,,,,,,,,,,,,
1577422352.107333,38.000000,0.000000,4112.307617,4290.769043,4222.051270,4070.769287,4126.666504,0.000000,4.000000,,,,0.000000,4.000000,4.000000,4.000000,4.000000,4.000000,,,,,,,,,,,,,,,,,,,,,,,,,
1577422352.115148,39.000000,0.000000,4116.410156,4291.282227,4221.538574,4072.820557,4102.563965,0.000000,4.000000,,,,0.000000,4.000000,4.000000,4.000000,4.000000,4.000000,,,,,,,,,,,,,,,,,,,,,,,,,
1577422352.122965,40.000000,0.000000,4142.563965,4332.307617,4234.871582,4112.307617,4130.769043,0.000000,4.000000,,,,0.000000,4.000000,4.000000,4.000000,4.000000,4.000000,,,,,,,,,,,,,,,,,,,,,,,,,
1577422352.130682,41.000000,0.000000,4126.666504,4320.512695,4212.820313,4115.384766,4120.512695,0.000000,4.000000,,,,0.000000,4.000000,4.000000,4.000000,4.000000,4.000000,,,,,,,,,,,,,,,,,,,,,,,,,
1577422352.138399,42.000000,0.000000,4083.076904,4255.384766,4172.307617,4084.102539,4075.384521,0.000000,4.000000,,,,0.000000,4.000000,4.000000,4.000000,4.000000,4.000000,,,,,,,,,,,,,,,,,,,,,,,,,
1577422352.146213,43.000000,0.000000,4089.743652,4246.666504,4177.948730,4077.435791,4081.538574,0.000000,4.000000,,,,0.000000,4.000000,4.000000,4.000000,4.000000,4.000000,,,,,,,,,,,,,,,,,,,,,,,,,
1577422352.153928,44.000000,0.000000,4123.589844,4291.794922,4206.153809,4096.410156,4105.641113,0.000000,4.000000,,,,0.000000,4.000000,4.000000,4.000000,4.000000,4.000000,,,,,,,,,,,,,,,,,,,,,,,,,
1577422352.161742,45.000000,0.000000,4182.051270,4343.077148,4251.282227,4124.102539,4163.077148,0.000000,4.000000,,,,0.000000,4.000000,4.000000,4.000000,4.000000,4.000000,,,,,,,,,,,,,,,,,,,,,,,,,
1577422352.169563,46.000000,1.000000,4174.358887,4334.871582,4241.139648,4123.646484,4157.948730,0.000000,4.000000,,,,0.000000,4.000000,4.000000,4.000000,4.000000,4.000000,7.234214,3.293941,4.436587,15.669987,5.562292,8.489681,1.904159,3.539487,12.464328,4.746516,34.646709,12.439261,5.164950,8.343923,3.011048,1.150718,2.904698,2.682299,3.373937,2.673337,5.306432,4.789155,7.311263,13.325186,4.491840
1577422352.177285,47.000000,1.000000,4166.666504,4326.666504,4230.997070,4123.190918,4152.820313,0.000000,4.000000,,,,0.000000,4.000000,4.000000,4.000000,4.000000,4.000000,,,,,,,,,,,,,,,,,,,,,,,,,
1577422352.185006,48.000000,1.000000,4158.974121,4318.461426,4220.854492,4122.734863,4147.692383,0.000000,4.000000,,,,0.000000,4.000000,4.000000,4.000000,4.000000,4.000000,,,,,,,,,,,,,,,,,,,,,,,,,
1577422352.192727,49.000000,1.000000,4151.282227,4310.256348,4210.712402,4122.279297,4142.563965,0.000000,4.000000,,,,0.000000,4.000000,4.000000,4.000000,4.000000,4.000000,,,,,,,,,,,,,,,,,,,,,,,,,
1577422352.200448,50.000000,1.000000,4143.589844,4302.051270,4200.569824,4121.823242,4137.436035,0.000000,4.000000,,,,0.000000,4.000000,4.000000,4.000000,4.000000,4.000000,,,,,,,,,,,,,,,,,,,,,,,,,
1577422352.208169,51.000000,1.000000,4135.897461,4293.846191,4190.427246,4121.367676,4132.307617,0.000000,4.000000,,,,0.000000,4.000000,4.000000,4.000000,4.000000,4.000000,,,,,,,,,,,,,,,,,,,,,,,,,
1577422352.215890,52.000000,1.000000,4128.205078,4285.641113,4180.284668,4120.911621,4127.179688,0.000000,4.000000,,,,0.000000,4.000000,4.000000,4.000000,4.000000,4.000000,,,,,,,,,,,,,,,,,,,,,,,,,
1577422352.223612,53.000000,1.000000,4120.512695,4277.436035,4170.142578,4120.456055,4122.051270,0.000000,4.000000,,,,0.000000,4.000000,4.000000,4.000000,4.000000,4.000000,,,,,,,,,,,,,,,,,,,,,,,,,
1577422352.231333,54.000000,0.000000,4112.820313,4269.230957,4160.000000,4120.000000,4116.922852,0.000000,4.000000,,,,0.000000,4.000000,4.000000,4.000000,4.000000,4.000000,,,,,,,,,,,,,,,,,,,,,,,,,
1577422352.239137,55.000000,0.000000,4135.384766,4277.948730,4172.820313,4127.692383,4140.512695,0.000000,4.000000,,,,0.000000,4.000000,4.000000,4.000000,4.000000,4.000000,,,,,,,,,,,,,,,,,,,,,,,,,
1577422352.246842,56.000000,0.000000,4153.846191,4308.205078,4180.000000,4118.461426,4162.563965,0.000000,4.000000,,,,0.000000,4.000000,4.000000,4.000000,4.000000,4.000000,,,,,,,,,,,,,,,,,,,,,,,,,
1577422352.254647,57.000000,0.000000,4111.794922,4284.615234,4139.487305,4085.128174,4131.282227,0.000000,4.000000,,,,0.000000,4.000000,4.000000,4.000000,4.000000,4.000000,,,,,,,,,,,,,,,,,,,,,,,,,
1577422352.262352,58.000000,0.000000,4121.538574,4301.025879,4148.717773,4116.922852,4132.307617,0.000000,4.000000,,,,0.000000,4.000000,4.000000,4.000000,4.000000,4.000000,,,,,,,,,,,,,,,,,,,,,,,,,
1577422352.270156,59.000000,0.000000,4125.641113,4308.205078,4164.102539,4137.948730,4138.974121,0.000000,4.000000,,,,0.000000,4.000000,4.000000,4.000000,4.000000,4.000000,,,,,,,,,,,,,,,,,,,,,,,,,
1577422352.277860,60.000000,0.000000,4071.794922,4257.436035,4132.820313,4103.589844,4102.051270,0.000000,4.000000,,,,0.000000,4.000000,4.000000,4.000000,4.000000,4.000000,,,,,,,,,,,,,,,,,,,,,,,,,
1577422352.285665,61.000000,0.000000,4078.461426,4254.358887,4142.051270,4095.384521,4105.128418,0.000000,4.000000,,,,0.000000,4.000000,4.000000,4.000000,4.000000,4.000000,,,,,,,,,,,,,,,,,,,,,,,,,
1577422352.293369,62.000000,0.000000,4138.974121,4303.077148,4190.769043,4118.461426,4150.256348,0.000000,4.000000,,,,0.000000,4.000000,4.000000,4.000000,4.000000,4.000000,12.284286,3.241559,4.476333,16.133087,5.732896,10.042365,1.969969,3.637987,12.987734,4.629711,20.730442,10.009741,4.460819,8.307294,3.075886,1.405221,3.009569,2.803478,3.359905,2.656203,8.861811,5.333981,6.865149,13.308867,4.717815
1577422352.301073,63.000000,0.000000,4187.179688,4366.153809,4241.538574,4148.205078,4181.538574,0.000000,4.000000,,,,0.000000,4.000000,4.000000,4.000000,4.000000,4.000000,,,,,,,,,,,,,,,,,,,,,,,,,
1577422352.308875,64.000000,0.000000,4142.051270,4358.461426,4217.436035,4117.948730,4139.487305,450.000000,4.000000,,,,0.000000,4.000000,4.000000,4.000000,4.000000,4.000000,,,,,,,,,,,,,,,,,,,,,,,,,
1577422352.316679,65.000000,0.000000,4053.846191,4293.846191,4156.922852,4084.615479,4082.051270,450.000000,4.000000,,,,0.000000,4.000000,4.000000,4.000000,4.000000,4.000000,,,,,,,,,,,,,,,,,,,,,,,,,
1577422352.324383,66.000000,0.000000,4058.461426,4290.256348,4178.974121,4107.179688,4107.179688,16114.000000,4.000000,,,,0.000000,4.000000,4.000000,4.000000,4.000000,4.000000,,,,,,,,,,,,,,,,,,,,,,,,,
1577422352.332187,67.000000,0.000000,4101.025879,4313.846191,4212.307617,4096.922852,4141.025879,450.000000,4.000000,,,,0.000000,4.000000,4.000000,4.000000,4.000000,4.000000,,,,,,,,,,,,,,,,,,,,,,,,,
1577422352.339891,68.000000,0.000000,4156.922852,4370.769043,4260.512695,4121.025879,4176.410156,16081.000000,4.000000,,,,0.000000,4.000000,4.000000,4.000000,4.000000,4.000000,,,,,,,,,,,,,,,,,,,,,,,,,
1577422352.347694,69.000000,0.000000,4173.846191,4420.000000,4295.897461,4142.051270,4183.589844,450.000000,4.000000,,,,0.000000,4.000000,4.000000,4.000000,4.000000,4.000000,,,,,,,,,,,,,,,,,,,,,,,,,
1577422352.355398,70.000000,0.000000,4082.564209,4372.307617,4254.358887,4089.230713,4106.153809,16091.000000,4.000000,,,,0.000000,4.000000,4.000000,4.000000,4.000000,4.000000,,,,,,,,,,,,,,,,,,,,,,,,,
1577422352.363202,71.000000,0.000000,4063.076904,4352.820313,4255.384766,4090.256348,4087.179443,450.000000,4.000000,,,,0.000000,4.000000,4.000000,4.000000,4.000000,4.000000,,,,,,,,,,,,,,,,,,,,,,,,,
1577422352.370906,72.000000,0.000000,4110.769043,4391.282227,4281.025879,4111.794922,4124.102539,450.000000,4.000000,,,,0.000000,4.000000,4.000000,4.000000,4.000000,4.000000,,,,,,,,,,,,,,,,,,,,,,,,,
1577422352.378709,73.000000,0.000000,4112.307617,4409.743652,4296.922852,4125.641113,4140.512695,16071.000000,4.000000,,,,0.000000,4.000000,4.000000,4.000000,4.000000,4.000000,,,,,,,,,,,,,,,,,,,,,,,,,
1577422352.386515,74.000000,0.000000,4116.410156,4410.769043,4294.358887,4110.256348,4146.153809,450.000000,4.000000,,,,0.000000,4.000000,4.000000,4.000000,4.000000,4.000000,,,,,,,,,,,,,,,,,,,,,,,,,
1577422352.394220,75.000000,0.000000,4122.051270,4427.692383,4254.871582,4066.666748,4137.436035,16148.000000,4.000000,,,,0.000000,4.000000,4.000000,4.000000,4.000000,4.000000,,,,,,,,,,,,,,,,,,,,,,,,,
1577422352.402026,76.000000,0.000000,4127.179688,4490.769043,4247.179688,4078.461426,4142.563965,450.000000,4.000000,,,,0.000000,4.000000,4.000000,4.000000,4.000000,4.000000,,,,,,,,,,,,,,,,,,,,,,,,,
1577422352.409732,77.000000,0.000000,4098.461426,4491.282227,4215.384766,4067.179443,4111.282227,450.000000,4.000000,,,,0.000000,4.000000,4.000000,4.000000,4.000000,4.000000,,,,,,,,,,,,,,,,,,,,,,,,,
1577422352.417438,78.000000,0.000000,4073.846191,4434.358887,4199.487305,4079.487061,4086.153809,450.000000,4.000000,,,,0.000000,4.000000,4.000000,4.000000,4.000000,4.000000,18.663744,3.482018,4.180454,16.260572,6.038616,12.764243,2.169582,3.377372,13.002197,4.605901,12.299989,7.578952,3.573554,8.210767,3.179897,1.622666,2.953532,2.650467,3.132599,2.628424,13.317897,5.598530,5.931233,12.837119,4.922387
1577422352.425242,79.000000,0.000000,4097.948730,4434.871582,4224.615234,4094.358887,4110.769043,16148.000000,4.000000,,,,0.000000,4.000000,4.000000,4.000000,4.000000,4.000000,,,,,,,,,,,,,,,,,,,,,,,,,
1577422352.432945,80.000000,0.000000,4109.743652,4456.410156,4204.615234,4045.128174,4114.871582,450.000000,4.000000,,,,0.000000,4.000000,4.000000,4.000000,4.000000,4.000000,,,,,,,,,,,,,,,,,,,,,,,,,
1577422352.440748,81.000000,0.000000,4157.436035,4501.538574,4230.256348,4093.846191,4159.487305,450.000000,4.000000,,,,0.000000,4.000000,4.000000,4.000000,4.000000,4.000000,,,,,,,,,,,,,,,,,,,,,,,,,
1577422352.448452,82.000000,0.000000,4167.179688,4493.333496,4242.051270,4114.358887,4165.128418,450.000000,4.000000,,,,0.000000,4.000000,4.000000,4.000000,4.000000,4.000000,,,,,,,,,,,,,,,,,,,,,,,,,
1577422352.456255,83.000000,0.000000,4070.256348,4388.205078,4166.666504,4070.769287,4094.358887,16148.000000,4.000000,,,,0.000000,4.000000,4.000000,4.000000,4.000000,4.000000,,,,,,,,,,,,,,,,,,,,,,,,,
1577422352.463958,84.000000,0.000000,4228.205078,4519.487305,4313.333496,4209.743652,4224.102539,450.000000,4.000000,,,,0.000000,4.000000,4.000000,4.000000,4.000000,4.000000,,,,,,,,,,,,,,,,,,,,,,,,,
1577422352.471761,85.000000,0.000000,4137.436035,4415.897461,4193.333496,3991.794922,4067.179443,450.000000,4.000000,,,,0.000000,4.000000,4.000000,4.000000,4.000000,4.000000,,,,,,,,,,,,,,,,,,,,,,,,,
1577422352.479464,86.000000,0.000000,3870.256348,4190.769043,3958.974365,3964.615479,3965.641113,450.000000,4.000000,,,,0.000000,4.000000,4.000000,4.000000,4.000000,4.000000,,,,,,,,,,,,,,,,,,,,,,,,,
1577422352.487267,87.000000,0.000000,4393.333496,4669.743652,4456.922852,4475.897461,4465.641113,16148.000000,4.000000,,,,0.000000,4.000000,4.000000,4.000000,4.000000,4.000000,,,,,,,,,,,,,,,,,,,,,,,,,
1577422352.494970,88.000000,0.000000,4262.563965,4553.333496,4305.641113,3963.076904,4097.948730,450.000000,4.000000,,,,0.000000,4.000000,4.000000,4.000000,4.000000,4.000000,,,,,,,,,,,,,,,,,,,,,,,,,
1577422352.502772,89.000000,0.000000,3884.615479,4244.102539,3980.512939,3812.307617,3873.333252,450.000000,4.000000,,,,0.000000,4.000000,4.000000,4.000000,4.000000,4.000000,,,,,,,,,,,,,,,,,,,,,,,,,
1577422352.510577,90.000000,0.000000,4342.563965,4613.846191,4392.307617,4376.410156,4395.384766,450.000000,4.000000,,,,0.000000,4.000000,4.000000,4.000000,4.000000,4.000000,,,,,,,,,,,,,,,,,,,,,,,,,
1577422352.518282,91.000000,0.000000,4207.692383,4473.333496,4224.102539,4063.589844,4145.128418,16148.000000,4.000000,,,,0.000000,4.000000,4.000000,4.000000,4.000000,4.000000,,,,,,,,,,,,,,,,,,,,,,,,,
1577422352.526087,92.000000,0.000000,4088.205078,4396.410156,4123.589844,4056.923096,4091.281982,450.000000,4.000000,,,,0.000000,4.000000,4.000000,4.000000,4.000000,4.000000,,,,,,,,,,,,,,,,,,,,,,,,,
1577422352.533792,93.000000,0.000000,4230.256348,4504.102539,4252.820313,4173.846191,4226.666504,450.000000,4.000000,,,,0.000000,4.000000,4.000000,4.000000,4.000000,4.000000,,,,,,,,,,,,,,,,,,,,,,,,,
1577422352.541601,94.000000,0.000000,4096.922852,4389.230957,4135.897461,4029.230713,4091.281982,450.000000,4.000000,,,,0.000000,4.000000,4.000000,4.000000,4.000000,4.000000,24.949493,3.952247,3.700033,16.130688,6.371893,16.225500,2.582741,2.887612,12.607493,4.598767,9.957827,5.587335,2.761514,8.196325,3.251990,1.759665,2.733174,2.251251,2.761356,2.592933,17.494179,5.510481,4.787374,12.052280,5.016286
1577422352.549412,95.000000,0.000000,4190.769043,4474.871582,4217.948730,4156.922852,4200.000000,16148.000000,4.000000,,,,0.000000,4.000000,4.000000,4.000000,4.000000,4.000000,,,,,,,,,,,,,,,,,,,,,,,,,
1577422352.557123,96.000000,0.000000,4196.410156,4468.205078,4211.282227,4112.820313,4174.358887,450.000000,4.000000,,,,0.000000,4.000000,4.000000,4.000000,4.000000,4.000000,,,,,,,,,,,,,,,,,,,,,,,,,
1577422352.564834,97.000000,0.000000,4169.743652,4448.717773,4193.333496,4104.615234,4161.538574,450.000000,4.000000,,,,0.000000,4.000000,4.000000,4.000000,4.000000,4.000000,,,,,,,,,,,,,,,,,,,,,,,,,
1577422352.572643,98.000000,0.000000,4220.512695,4485.128418,4235.384766,4144.102539,4208.717773,450.000000,4.000000,,,,0.000000,4.000000,4.000000,4.000000,4.000000,4.000000,,,,,,,,,,,,,,,,,,,,,,,,,
1577422352.580352,99.000000,0.000000,4161.538574,4427.692383,4185.641113,4091.794922,4154.358887,16148.000000,4.000000,,,,0.000000,4.000000,4.000000,4.000000,4.000000,4.000000,,,,,,,,,,,,,,,,,,,,,,,,,
1577422352.588161,100.000000,0.000000,4180.512695,4434.358887,4197.948730,4126.153809,4185.128418,450.000000,4.000000,,,,0.000000,4.000000,4.000000,4.000000,4.000000,4.000000,,,,,,,,,,,,,,,,,,,,,,,,,
1577422352.595869,101.000000,0.000000,4195.897461,4438.461426,4190.769043,4108.205078,4183.077148,450.000000,4.000000,,,,0.000000,4.000000,4.000000,4.000000,4.000000,4.000000,,,,,,,,,,,,,,,,,,,,,,,,,
1577422352.603678,102.000000,0.000000,4167.179688,4413.846191,4165.641113,4087.179443,4155.384766,450.000000,4.000000,,,,0.000000,4.000000,4.000000,4.000000,4.000000,4.000000,,,,,,,,,,,,,,,,,,,,,,,,,
1577422352.611386,103.000000,0.000000,4186.153809,4418.461426,4190.769043,4117.436035,4174.871582,16148.000000,4.000000,,,,0.000000,4.000000,4.000000,4.000000,4.000000,4.000000,,,,,,,,,,,,,,,,,,,,,,,,,
1577422352.619195,104.000000,0.000000,4168.205078,4389.230957,4165.641113,4092.307617,4156.410156,450.000000,4.000000,,,,0.000000,4.000000,4.000000,4.000000,4.000000,4.000000,,,,,,,,,,,,,,,,,,,,,,,,,
1577422352.627005,105.000000,0.000000,4172.307617,4370.769043,4149.230957,4088.205078,4166.153809,450.000000,4.000000,,,,0.000000,4.000000,4.000000,4.000000,4.000000,4.000000,,,,,,,,,,,,,,,,,,,,,,,,,
1577422352.634716,106.000000,0.000000,4171.794922,4346.666504,4138.974121,4086.666748,4161.025879,450.000000,4.000000,,,,0.000000,4.000000,4.000000,4.000000,4.000000,4.000000,,,,,,,,,,,,,,,,,,,,,,,,,
1577422352.642530,107.000000,0.000000,4158.974121,4333.333496,4129.743652,4095.384521,4153.846191,16148.000000,4.000000,,,,0.000000,4.000000,4.000000,4.000000,4.000000,4.000000,,,,,,,,,,,,,,,,,,,,,,,,,
1577422352.650347,108.000000,0.000000,4169.743652,4346.666504,4139.487305,4112.307617,4163.077148,450.000000,4.000000,,,,0.000000,4.000000,4.000000,4.000000,4.000000,4.000000,,,,,,,,,,,,,,,,,,,,,,,,,
1577422352.658064,109.000000,0.000000,4160.000000,4340.000000,4136.922852,4108.717773,4151.794922,450.000000,4.000000,,,,0.000000,4.000000,4.000000,4.000000,4.000000,4.000000,,,,,,,,,,,,,,,,,,,,,,,,,
1577422352.665781,110.000000,0.000000,4170.769043,4336.922852,4155.384766,4126.666504,4165.641113,450.000000,4.000000,,,,0.000000,4.000000,4.000000,4.000000,4.000000,4.000000,29.135284,4.524775,3.251467,15.849489,6.803392,19.937798,3.310323,2.436862,12.072934,4.710832,11.931087,4.409512,2.294468,8.311095,3.415630,1.822161,2.406892,1.718851,2.327227,2.839590,20.092215,5.156586,3.720379,11.141749,5.149740
1577422352.673595,111.000000,0.000000,4159.487305,4309.743652,4151.282227,4115.897461,4150.769043,16148.000000,4.000000,,,,0.000000,4.000000,4.000000,4.000000,4.000000,4.000000,,,,,,,,,,,,,,,,,,,,,,,,,
1577422352.681310,112.000000,0.000000,4121.538574,4287.179688,4127.692383,4091.281982,4124.615234,450.000000,4.000000,,,,0.000000,4.000000,4.000000,4.000000,4.000000,4.000000,,,,,,,,,,,,,,,,,,,,,,,,,
1577422352.689124,113.000000,0.000000,4119.487305,4296.922852,4141.538574,4091.794922,4125.641113,450.000000,4.000000,,,,0.000000,4.000000,4.000000,4.000000,4.000000,4.000000,,,,,,,,,,,,,,,,,,,,,,,,,
1577422352.696839,114.000000,0.000000,4140.512695,4298.461426,4167.692383,4100.512695,4129.230957,450.000000,4.000000,,,,0.000000,4.000000,4.000000,4.000000,4.000000,4.000000,,,,,,,,,,,,,,,,,,,,,,,,,
1577422352.704653,115.000000,0.000000,4157.948730,4299.487305,4182.563965,4108.205078,4137.436035,16148.000000,4.000000,,,,0.000000,4.000000,4.000000,4.000000,4.000000,4.000000,,,,,,,,,,,,,,,,,,,,,,,,,
1577422352.712367,116.000000,0.000000,4146.666504,4293.333496,4180.512695,4097.948730,4133.846191,450.000000,4.000000,,,,0.000000,4.000000,4.000000,4.000000,4.000000,4.000000,,,,,,,,,,,,,,,,,,,,,,,,,
1577422352.720181,117.000000,0.000000,4135.897461,4282.051270,4181.025879,4089.230713,4129.230957,450.000000,4.000000,,,,0.000000,4.000000,4.000000,4.000000,4.000000,4.000000,,,,,,,,,,,,,,,,,,,,,,,,,
1577422352.727896,118.000000,0.000000,4140.512695,4285.128418,4192.307617,4090.256348,4126.666504,450.000000,4.000000,,,,0.000000,4.000000,4.000000,4.000000,4.000000,4.000000,,,,,,,,,,,,,,,,,,,,,,,,,
1577422352.735709,119.000000,0.000000,4154.871582,4302.051270,4214.871582,4104.102539,4144.102539,16148.000000,4.000000,,,,0.000000,4.000000,4.000000,4.000000,4.000000,4.000000,,,,,,,,,,,,,,,,,,,,,,,,,
1577422352.743526,120.000000,0.000000,4192.820313,4329.743652,4257.436035,4135.384766,4188.205078,450.000000,4.000000,,,,0.000000,4.000000,4.000000,4.000000,4.000000,4.000000,,,,,,,,,,,,,,,,,,,,,,,,,
1577422352.751242,121.000000,0.000000,4175.897461,4310.769043,4247.692383,4120.512695,4162.563965,450.000000,4.000000,,,,0.000000,4.000000,4.000000,4.000000,4.000000,4.000000,,,,,,,,,,,,,,,,,,,,,,,,,
1577422352.758959,122.000000,0.000000,4125.641113,4266.153809,4210.769043,4086.153809,4113.846191,450.000000,4.000000,,,,0.000000,4.000000,4.000000,4.000000,4.000000,4.000000,,,,,,,,,,,,,,,,,,,,,,,,,
1577422352.766773,123.000000,0.000000,4138.974121,4277.948730,4235.384766,4101.025879,4132.307617,16148.000000,4.000000,,,,0.000000,4.000000,4.000000,4.000000,4.000000,4.000000,,,,,,,,,,,,,,,,,,,,,,,,,
1577422352.774588,124.000000,0.000000,4158.461426,4309.230957,4257.948730,4117.948730,4149.743652,450.000000,4.000000,,,,0.000000,4.000000,4.000000,4.000000,4.000000,4.000000,,,,,,,,,,,,,,,,,,,,,,,,,
1577422352.782304,125.000000,0.000000,4158.461426,4320.000000,4254.871582,4122.563965,4156.922852,450.000000,4.000000,,,,0.000000,4.000000,4.000000,4.000000,4.000000,4.000000,,,,,,,,,,,,,,,,,,,,,,,,,
1577422352.790120,126.000000,0.000000,4177.948730,4328.717773,4260.000000,4134.871582,4174.358887,450.000000,4.000000,,,,0.000000,4.000000,4.000000,4.000000,4.000000,4.000000,29.774790,5.002207,2.991467,15.583320,8.186469,22.466646,4.342793,2.272272,11.764157,5.633666,15.765839,4.073853,2.324412,8.526567,4.472710,1.837512,2.105163,1.212559,1.954721,4.680482,20.113306,4.689687,2.927107,10.375073,6.335045
1577422352.797837,127.000000,0.000000,4200.512695,4328.717773,4260.512695,4144.102539,4185.641113,234.000000,4.000000,,,,0.000000,4.000000,4.000000,4.000000,4.000000,4.000000,,,,,,,,,,,,,,,,,,,,,,,,,
1577422352.805652,0.000000,0.000000,4188.717773,4305.641113,4240.512695,4132.307617,4174.871582,450.000000,4.000000,,,,0.000000,4.000000,4.000000,4.000000,4.000000,4.000000,,,,,,,,,,,,,,,,,,,,,,,,,
1577422352.813368,1.000000,0.000000,4172.820313,4287.692383,4222.563965,4116.410156,4158.461426,450.000000,4.000000,,,,0.000000,4.000000,4.000000,4.000000,4.000000,4.000000,,,,,,,,,,,,,,,,,,,,,,,,,
1577422352.821184,2.000000,0.000000,4185.128418,4287.179688,4234.871582,4125.128418,4174.871582,16220.000000,4.000000,,,,0.000000,4.000000,4.000000,4.000000,4.000000,4.000000,,,,,,,,,,,,,,,,,,,,,,,,,
1577422352.828900,3.000000,0.000000,4183.077148,4255.897461,4246.666504,4123.077148,4174.871582,450.000000,4.000000,,,,0.000000,4.000000,4.000000,4.000000,4.000000,4.000000,,,,,,,,,,,,,,,,,,,,,,,,,
1577422352.836616,4.000000,0.000000,4168.717773,4218.974121,4243.077148,4110.256348,4155.384766,16203.000000,4.000000,,,,0.000000,4.000000,4.000000,4.000000,4.000000,4.000000,,,,,,,,,,,,,,,,,,,,,,,,,
1577422352.844429,5.000000,0.000000,4186.666504,4232.820313,4260.512695,4127.179688,4173.846191,450.000000,4.000000,,,,0.000000,4.000000,4.000000,4.000000,4.000000,4.000000,,,,,,,,,,,,,,,,,,,,,,,,,
1577422352.852245,6.000000,0.000000,4198.461426,4242.563965,4275.384766,4141.538574,4191.794922,16143.000000,4.000000,,,,0.000000,4.000000,4.000000,4.000000,4.000000,4.000000,,,,,,,,,,,,,,,,,,,,,,,,,
1577422352.859960,7.000000,0.000000,4173.333496,4197.436035,4252.820313,4115.384766,4165.641113,450.000000,4.000000,,,,0.000000,4.000000,4.000000,4.000000,4.000000,4.000000,,,,,,,,,,,,,,,,,,,,,,,,,
1577422352.867676,8.000000,0.000000,4165.128418,4167.179688,4237.948730,4103.077148,4152.307617,450.000000,4.000000,,,,0.000000,4.000000,4.000000,4.000000,4.000000,4.000000,,,,,,,,,,,,,,,,,,,,,,,,,
1577422352.875489,9.000000,0.000000,4177.436035,4179.487305,4238.974121,4116.410156,4164.615234,16159.000000,4.000000,,,,0.000000,4.000000,4.000000,4.000000,4.000000,4.000000,,,,,,,,,,,,,,,,,,,,,,,,,
1577422352.883304,10.000000,0.000000,4168.717773,4178.974121,4213.846191,4107.179688,4155.384766,450.000000,4.000000,,,,0.000000,4.000000,4.000000,4.000000,4.000000,4.000000,,,,,,,,,,,,,,,,,,,,,,,,,
1577422352.891019,11.000000,0.000000,4151.794922,4147.179688,4186.666504,4085.641113,4133.333496,16224.000000,4.000000,,,,0.000000,4.000000,4.000000,4.000000,4.000000,4.000000,,,,,,,,,,,,,,,,,,,,,,,,,
1577422352.898734,12.000000,0.000000,4149.743652,4117.436035,4177.436035,4079.487061,4130.769043,450.000000,4.000000,,,,0.000000,4.000000,4.000000,4.000000,4.000000,4.000000,,,,,,,,,,,,,,,,,,,,,,,,,
1577422352.906547,13.000000,0.000000,4163.589844,4124.102539,4174.871582,4093.846191,4149.230957,450.000000,4.000000,,,,0.000000,4.000000,4.000000,4.000000,4.000000,4.000000,,,,,,,,,,,,,,,,,,,,,,,,,
1577422352.914362,14.000000,0.000000,4183.589844,4146.153809,4188.205078,4116.410156,4171.282227,450.000000,4.000000,,,,0.000000,4.000000,4.000000,4.000000,4.000000,4.000000,26.524031,5.170238,2.988298,15.411204,11.676991,23.481865,5.588960,2.502784,11.894012,8.244528,20.043476,4.331428,2.812294,8.739823,7.472097,1.838907,1.940447,0.856027,1.741547,9.785473,17.502861,4.198629,2.470674,9.928962,9.919693
1577422352.922179,15.000000,0.000000,4189.743652,4143.077148,4203.589844,4121.025879,4174.358887,16224.000000,4.000000,,,,0.000000,4.000000,4.000000,4.000000,4.000000,4.000000,,,,,,,,,,,,,,,,,,,,,,,,,
1577422352.929896,16.000000,0.000000,4172.820313,4131.282227,4198.461426,4107.179688,4161.538574,0.000000,4.000000,,,,0.000000,4.000000,4.000000,4.000000,4.000000,4.000000,,,,,,,,,,,,,,,,,,,,,,,,,
1577422352.937613,17.000000,0.000000,4176.410156,4146.153809,4211.794922,4117.948730,4172.307617,0.000000,4.000000,,,,0.000000,4.000000,4.000000,4.000000,4.000000,4.000000,,,,,,,,,,,,,,,,,,,,,,,,,
1577422352.945428,18.000000,0.000000,4197.436035,4163.589844,4246.666504,4137.436035,4191.282227,0.000000,4.000000,,,,0.000000,4.000000,4.000000,4.000000,4.000000,4.000000,,,,,,,,,,,,,,,,,,,,,,,,,
1577422352.953143,19.000000,0.000000,4183.077148,4156.410156,4251.794922,4117.948730,4169.743652,0.000000,4.000000,,,,0.000000,4.000000,4.000000,4.000000,4.000000,4.000000,,,,,,,,,,,,,,,,,,,,,,,,,
1577422352.960958,20.000000,0.000000,4169.743652,4150.256348,4248.205078,4109.230957,4156.410156,0.000000,4.000000,,,,0.000000,4.000000,4.000000,4.000000,4.000000,4.000000,,,,,,,,,,,,,,,,,,,,,,,,,
1577422352.968672,21.000000,0.000000,4180.512695,4140.512695,4259.487305,4128.205078,4168.717773,0.000000,4.000000,,,,0.000000,4.000000,4.000000,4.000000,4.000000,4.000000,,,,,,,,,,,,,,,,,,,,,,,,,
1577422352.976487,22.000000,0.000000,4185.128418,4136.922852,4270.769043,4131.794922,4171.282227,0.000000,4.000000,,,,0.000000,4.000000,4.000000,4.000000,4.000000,4.000000,,,,,,,,,,,,,,,,,,,,,,,,,
1577422352.984201,23.000000,0.000000,4190.256348,4151.282227,4282.563965,4121.538574,4175.897461,0.000000,4.000000,,,,0.000000,4.000000,4.000000,4.000000,4.000000,4.000000,,,,,,,,,,,,,,,,,,,,,,,,,
1577422352.992015,24.000000,0.000000,4195.897461,4154.358887,4292.820313,4122.563965,4182.563965,0.000000,4.000000,,,,0.000000,4.000000,4.000000,4.000000,4.000000,4.000000,,,,,,,,,,,,,,,,,,,,,,,,,
1577422352.999730,25.000000,0.000000,4198.974121,4151.794922,4303.589844,4137.436035,4186.666504,0.000000,4.000000,,,,0.000000,4.000000,4.000000,4.000000,4.000000,4.000000,,,,,,,,,,,,,,,,,,,,,,,,,
1577422353.007544,26.000000,0.000000,4212.307617,4168.205078,4314.871582,4148.205078,4196.922852,0.000000,4.000000,,,,0.000000,4.000000,4.000000,4.000000,4.000000,4.000000,,,,,,,,,,,,,,,,,,,,,,,,,
1577422353.015258,27.000000,0.000000,4234.358887,4184.615234,4322.563965,4158.974121,4213.333496,0.000000,4.000000,,,,0.000000,4.000000,4.000000,4.000000,4.000000,4.000000,,,,,,,,,,,,,,,,,,,,,,,,,
1577422353.023072,28.000000,0.000000,4233.333496,4170.769043,4313.846191,4154.871582,4215.384766,0.000000,4.000000,,,,0.000000,4.000000,4.000000,4.000000,4.000000,4.000000,,,,,,,,,,,,,,,,,,,,,,,,,
1577422353.030888,29.000000,0.000000,4223.077148,4158.461426,4296.922852,4145.128418,4207.179688,0.000000,4.000000,,,,0.000000,4.000000,4.000000,4.000000,4.000000,4.000000,,,,,,,,,,,,,,,,,,,,,,,,,
1577422353.038605,30.000000,0.000000,4225.641113,4167.692383,4285.128418,4148.205078,4209.230957,0.000000,4.000000,,,,0.000000,4.000000,4.000000,4.000000,4.000000,4.000000,20.721382,4.937047,3.213818,15.258642,17.745909,23.084743,6.722555,3.048327,12.376831,12.861050,24.223646,4.886778,3.553783,8.808563,12.832956,1.908927,1.979982,0.710933,1.727323,18.785830,13.310516,3.711147,2.314491,9.785606,16.481192
1577422353.046421,31.000000,0.000000,4215.384766,4166.153809,4264.102539,4140.000000,4203.077148,0.000000,4.000000,,,,0.000000,4.000000,4.000000,4.000000,4.000000,4.000000,,,,,,,,,,,,,,,,,,,,,,,,,
1577422353.054137,32.000000,0.000000,4204.102539,4162.051270,4244.615234,4131.282227,4187.179688,0.000000,4.000000,,,,0.000000,4.000000,4.000000,4.000000,4.000000,4.000000,,,,,,,,,,,,,,,,,,,,,,,,,
1577422353.061953,33.000000,0.000000,4216.922852,4172.820313,4243.589844,4136.410156,4197.436035,0.000000,4.000000,,,,0.000000,4.000000,4.000000,4.000000,4.000000,4.000000,,,,,,,,,,,,,,,,,,,,,,,,,
1577422353.069669,34.000000,0.000000,4223.077148,4180.000000,4243.589844,4138.974121,4210.769043,0.000000,4.000000,,,,0.000000,4.000000,4.000000,4.000000,4.000000,4.000000,,,,,,,,,,,,,,,,,,,,,,,,,
1577422353.077484,35.000000,0.000000,4215.384766,4175.384766,4237.436035,4144.615234,4208.205078,0.000000,4.000000,,,,0.000000,4.000000,4.000000,4.000000,4.000000,4.000000,,,,,,,,,,,,,,,,,,,,,,,,,
1577422353.085200,36.000000,0.000000,4223.589844,4174.871582,4241.025879,4158.461426,4220.000000,0.000000,4.000000,,,,0.000000,4.000000,4.000000,4.000000,4.000000,4.000000,,,,,,,,,,,,,,,,,,,,,,,,,
1577422353.093016,37.000000,0.000000,4232.820313,4173.333496,4246.666504,4158.461426,4230.256348,0.000000,4.000000,,,,0.000000,4.000000,4.000000,4.000000,4.000000,4.000000,,,,,,,,,,,,,,,,,,,,,,,,,
1577422353.100732,38.000000,0.000000,4222.563965,4162.051270,4240.000000,4144.615234,4218.974121,0.000000,4.000000,,,,0.000000,4.000000,4.000000,4.000000,4.000000,4.000000,,,,,,,,,,,,,,,,,,,,,,,,,
1577422353.108547,39.000000,0.000000,4211.282227,4152.820313,4234.871582,4143.589844,4212.820313,0.000000,4.000000,,,,0.000000,4.000000,4.000000,4.000000,4.000000,4.000000,,,,,,,,,,,,,,,,,,,,,,,,,
1577422353.116262,40.000000,0.000000,4211.794922,4169.230957,4241.538574,4155.384766,4223.077148,0.000000,4.000000,,,,0.000000,4.000000,4.000000,4.000000,4.000000,4.000000,,,,,,,,,,,,,,,,,,,,,,,,,
1577422353.124078,41.000000,0.000000,4226.666504,4188.205078,4251.794922,4164.102539,4235.897461,0.000000,4.000000,,,,0.000000,4.000000,4.000000,4.000000,4.000000,4.000000,,,,,,,,,,,,,,,,,,,,,,,,,
1577422353.131793,42.000000,0.000000,4236.410156,4175.384766,4247.179688,4162.563965,4233.333496,0.000000,4.000000,,,,0.000000,4.000000,4.000000,4.000000,4.000000,4.000000,,,,,,,,,,,,,,,,,,,,,,,,,
1577422353.139608,43.000000,0.000000,4215.897461,4149.743652,4213.846191,4137.948730,4209.743652,0.000000,4.000000,,,,0.000000,4.000000,4.000000,4.000000,4.000000,4.000000,,,,,,,,,,,,,,,,,,,,,,,,,
1577422353.147324,44.000000,0.000000,4196.922852,4146.153809,4190.256348,4115.897461,4193.846191,0.000000,4.000000,,,,0.000000,4.000000,4.000000,4.000000,4.000000,4.000000,,,,,,,,,,,,,,,,,,,,,,,,,
1577422353.155139,45.000000,0.000000,4215.384766,4166.666504,4210.769043,4136.922852,4210.769043,0.000000,4.000000,,,,0.000000,4.000000,4.000000,4.000000,4.000000,4.000000,,,,,,,,,,,,,,,,,,,,,,,,,
1577422353.162956,46.000000,0.000000,4224.102539,4171.794922,4220.512695,4150.769043,4217.948730,0.000000,4.000000,,,,0.000000,4.000000,4.000000,4.000000,4.000000,4.000000,14.497508,4.354367,3.539080,14.881731,25.496527,22.457081,7.389366,3.732142,12.831107,18.747684,28.414721,5.476489,4.293346,8.597824,19.756979,2.114145,2.190952,0.759435,1.879341,30.357559,9.140652,3.226186,2.350721,9.712585,25.072073
1577422353.170673,47.000000,0.000000,4199.487305,4146.666504,4200.512695,4130.769043,4192.307617,0.000000,4.000000,,,,0.000000,4.000000,4.000000,4.000000,4.000000,4.000000,,,,,,,,,,,,,,,,,,,,,,,,,
1577422353.178490,48.000000,0.000000,4181.025879,4137.436035,4188.717773,4125.641113,4176.410156,0.000000,4.000000,,,,0.000000,4.000000,4.000000,4.000000,4.000000,4.000000,,,,,,,,,,,,,,,,,,,,,,,,,
1577422353.186207,49.000000,0.000000,4188.717773,4163.077148,4192.307617,4143.589844,4191.282227,0.000000,4.000000,,,,0.000000,4.000000,4.000000,4.000000,4.000000,4.000000,,,,,,,,,,,,,,,,,,,,,,,,,
1577422353.194024,50.000000,0.000000,4205.128418,4178.974121,4198.461426,4158.974121,4207.692383,0.000000,4.000000,,,,0.000000,4.000000,4.000000,4.000000,4.000000,4.000000,,,,,,,,,,,,,,,,,,,,,,,,,
1577422353.201741,51.000000,0.000000,4214.358887,4174.358887,4199.487305,4159.487305,4208.717773,0.000000,4.000000,,,,0.000000,4.000000,4.000000,4.000000,4.000000,4.000000,,,,,,,,,,,,,,,,,,,,,,,,,
1577422353.209557,52.000000,0.000000,4215.897461,4177.948730,4187.179688,4161.025879,4208.205078,0.000000,4.000000,,,,0.000000,4.000000,4.000000,4.000000,4.000000,4.000000,,,,,,,,,,,,,,,,,,,,,,,,,
1577422353.217274,53.000000,0.000000,4212.307617,4174.358887,4161.025879,4160.000000,4205.641113,0.000000,4.000000,,,,0.000000,4.000000,4.000000,4.000000,4.000000,4.000000,,,,,,,,,,,,,,,,,,,,,,,,,
1577422353.225091,54.000000,0.000000,4202.051270,4155.897461,4135.384766,4141.538574,4197.948730,0.000000,4.000000,,,,0.000000,4.000000,4.000000,4.000000,4.000000,4.000000,,,,,,,,,,,,,,,,,,,,,,,,,
1577422353.232807,55.000000,0.000000,4205.128418,4164.102539,4138.461426,4145.641113,4208.205078,0.000000,4.000000,,,,0.000000,4.000000,4.000000,4.000000,4.000000,4.000000,,,,,,,,,,,,,,,,,,,,,,,,,
1577422353.240624,56.000000,0.000000,4221.538574,4185.128418,4152.307617,4166.666504,4222.563965,0.000000,4.000000,,,,0.000000,4.000000,4.000000,4.000000,4.000000,4.000000,,,,,,,,,,,,,,,,,,,,,,,,,
1577422353.248341,57.000000,0.000000,4216.410156,4176.922852,4141.025879,4152.307617,4207.179688,0.000000,4.000000,,,,0.000000,4.000000,4.000000,4.000000,4.000000,4.000000,,,,,,,,,,,,,,,,,,,,,,,,,
1577422353.256157,58.000000,0.000000,4200.000000,4174.358887,4131.794922,4136.922852,4194.358887,0.000000,4.000000,,,,0.000000,4.000000,4.000000,4.000000,4.000000,4.000000,,,,,,,,,,,,,,,,,,,,,,,,,
1577422353.263874,59.000000,0.000000,4191.794922,4185.128418,4137.948730,4143.077148,4197.436035,0.000000,4.000000,,,,0.000000,4.000000,4.000000,4.000000,4.000000,4.000000,,,,,,,,,,,,,,,,,,,,,,,,,
1577422353.271690,60.000000,0.000000,4179.487305,4178.974121,4132.307617,4134.358887,4186.153809,0.000000,4.000000,,,,0.000000,4.000000,4.000000,4.000000,4.000000,4.000000,,,,,,,,,,,,,,,,,,,,,,,,,
1577422353.279407,61.000000,0.000000,4176.922852,4172.307617,4127.179688,4128.205078,4181.538574,0.000000,4.000000,,,,0.000000,4.000000,4.000000,4.000000,4.000000,4.000000,,,,,,,,,,,,,,,,,,,,,,,,,
1577422353.287124,62.000000,0.000000,4188.717773,4182.563965,4142.563965,4145.641113,4197.436035,0.000000,4.000000,,,,0.000000,4.000000,4.000000,4.000000,4.000000,4.000000,9.547855,3.587920,3.776375,13.893628,32.747925,23.015579,7.321618,4.347643,12.726110,24.232147,32.723038,5.948109,4.817316,7.991024,26.332123,2.508096,2.466687,0.940600,2.090127,41.409229,6.236504,2.744412,2.422974,9.327310,33.323780
1577422353.294938,63.000000,0.000000,4190.769043,4183.077148,4160.000000,4149.743652,4198.461426,0.000000,4.000000,,,,0.000000,4.000000,4.000000,4.000000,4.000000,4.000000,,,,,,,,,,,,,,,,,,,,,,,,,
1577422353.302754,64.000000,0.000000,4188.205078,4177.948730,4183.077148,4139.487305,4189.230957,450.000000,4.000000,,,,0.000000,4.000000,4.000000,4.000000,4.000000,4.000000,,,,,,,,,,,,,,,,,,,,,,,,,
1577422353.310470,65.000000,0.000000,4185.641113,4188.717773,4213.333496,4139.487305,4190.256348,450.000000,4.000000,,,,0.000000,4.000000,4.000000,4.000000,4.000000,4.000000,,,,,,,,,,,,,,,,,,,,,,,,,
1577422353.318286,66.000000,0.000000,4178.461426,4190.769043,4235.897461,4137.436035,4187.179688,16224.000000,4.000000,,,,0.000000,4.000000,4.000000,4.000000,4.000000,4.000000,,,,,,,,,,,,,,,,,,,,,,,,,
1577422353.326002,67.000000,0.000000,4176.410156,4188.205078,4259.487305,4130.256348,4180.000000,450.000000,4.000000,,,,0.000000,4.000000,4.000000,4.000000,4.000000,4.000000,,,,,,,,,,,,,,,,,,,,,,,,,
1577422353.333818,68.000000,0.000000,4184.615234,4201.538574,4289.743652,4133.846191,4186.666504,16195.000000,4.000000,,,,0.000000,4.000000,4.000000,4.000000,4.000000,4.000000,,,,,,,,,,,,,,,,,,,,,,,,,
1577422353.341636,69.000000,0.000000,4178.461426,4199.487305,4297.948730,4130.769043,4188.717773,450.000000,4.000000,,,,0.000000,4.000000,4.000000,4.000000,4.000000,4.000000,,,,,,,,,,,,,,,,,,,,,,,,,
1577422353.349354,70.000000,0.000000,4170.256348,4184.102539,4291.794922,4124.615234,4180.512695,16159.000000,4.000000,,,,0.000000,4.000000,4.000000,4.000000,4.000000,4.000000,,,,,,,,,,,,,,,,,,,,,,,,,
1577422353.357172,71.000000,0.000000,4207.179688,4204.615234,4324.615234,4154.871582,4215.897461,450.000000,4.000000,,,,0.000000,4.000000,4.000000,4.000000,4.000000,4.000000,,,,,,,,,,,,,,,,,,,,,,,,,
1577422353.364890,72.000000,0.000000,4231.282227,4217.948730,4347.692383,4181.538574,4247.179688,450.000000,4.000000,,,,0.000000,4.000000,4.000000,4.000000,4.000000,4.000000,,,,,,,,,,,,,,,,,,,,,,,,,
1577422353.372708,73.000000,0.000000,4194.358887,4190.256348,4309.230957,4159.487305,4213.333496,16171.000000,4.000000,,,,0.000000,4.000000,4.000000,4.000000,4.000000,4.000000,,,,,,,,,,,,,,,,,,,,,,,,,
1577422353.380426,74.000000,0.000000,4176.410156,4186.153809,4281.025879,4142.051270,4195.384766,450.000000,4.000000,,,,0.000000,4.000000,4.000000,4.000000,4.000000,4.000000,,,,,,,,,,,,,,,,,,,,,,,,,
1577422353.388144,75.000000,0.000000,4196.922852,4192.820313,4282.051270,4153.333496,4211.282227,16210.000000,4.000000,,,,0.000000,4.000000,4.000000,4.000000,4.000000,4.000000,,,,,,,,,,,,,,,,,,,,,,,,,
1577422353.395959,76.000000,0.000000,4186.666504,4181.538574,4251.282227,4141.025879,4195.897461,450.000000,4.000000,,,,0.000000,4.000000,4.000000,4.000000,4.000000,4.000000,,,,,,,,,,,,,,,,,,,,,,,,,
1577422353.403675,77.000000,0.000000,4174.871582,4193.333496,4216.410156,4124.102539,4181.025879,450.000000,4.000000,,,,0.000000,4.000000,4.000000,4.000000,4.000000,4.000000,,,,,,,,,,,,,,,,,,,,,,,,,
1577422353.411490,78.000000,0.000000,4200.000000,4207.179688,4215.384766,4147.179688,4197.948730,450.000000,4.000000,,,,0.000000,4.000000,4.000000,4.000000,4.000000,4.000000,6.800722,2.835790,3.837563,12.119347,36.959484,25.348639,6.477366,4.757845,11.737116,27.420824,37.103191,6.380702,5.043958,6.994720,30.326471,3.109736,2.696342,1.194886,2.250363,48.313072,5.087829,2.324430,2.461431,8.382371,38.427422
1577422353.419307,79.000000,0.000000,4203.077148,4186.666504,4198.461426,4152.307617,4194.358887,16210.000000,4.000000,,,,0.000000,4.000000,4.000000,4.000000,4.000000,4.000000,,,,,,,,,,,,,,,,,,,,,,,,,
1577422353.427024,80.000000,0.000000,4195.897461,4201.025879,4181.538574,4144.102539,4189.230957,450.000000,4.000000,,,,0.000000,4.000000,4.000000,4.000000,4.000000,4.000000,,,,,,,,,,,,,,,,,,,,,,,,,
1577422353.434842,81.000000,0.000000,4204.102539,4236.922852,4175.897461,4152.307617,4200.512695,450.000000,4.000000,,,,0.000000,4.000000,4.000000,4.000000,4.000000,4.000000,,,,,,,,,,,,,,,,,,,,,,,,,
1577422353.442559,82.000000,0.000000,4185.641113,4226.666504,4144.615234,4139.487305,4186.666504,450.000000,4.000000,,,,0.000000,4.000000,4.000000,4.000000,4.000000,4.000000,,,,,,,,,,,,,,,,,,,,,,,,,
1577422353.450276,83.000000,0.000000,4163.589844,4216.410156,4120.000000,4118.461426,4167.179688,16210.000000,4.000000,,,,0.000000,4.000000,4.000000,4.000000,4.000000,4.000000,,,,,,,,,,,,,,,,,,,,,,,,,
1577422353.458091,84.000000,0.000000,4186.153809,4246.666504,4139.487305,4137.948730,4189.743652,450.000000,4.000000,,,,0.000000,4.000000,4.000000,4.000000,4.000000,4.000000,,,,,,,,,,,,,,,,,,,,,,,,,
1577422353.465908,85.000000,0.000000,4203.077148,4263.589844,4151.282227,4162.051270,4213.846191,450.000000,4.000000,,,,0.000000,4.000000,4.000000,4.000000,4.000000,4.000000,,,,,,,,,,,,,,,,,,,,,,,,,
1577422353.473625,86.000000,0.000000,4176.410156,4246.153809,4119.487305,4146.666504,4190.769043,450.000000,4.000000,,,,0.000000,4.000000,4.000000,4.000000,4.000000,4.000000,,,,,,,,,,,,,,,,,,,,,,,,,
1577422353.481442,87.000000,0.000000,4168.205078,4234.358887,4108.717773,4137.948730,4180.000000,16210.000000,4.000000,,,,0.000000,4.000000,4.000000,4.000000,4.000000,4.000000,,,,,,,,,,,,,,,,,,,,,,,,,
1577422353.489159,88.000000,0.000000,4194.358887,4244.102539,4135.384766,4156.410156,4205.641113,450.000000,4.000000,,,,0.000000,4.000000,4.000000,4.000000,4.000000,4.000000,,,,,,,,,,,,,,,,,,,,,,,,,
1577422353.496975,89.000000,0.000000,4211.794922,4253.333496,4148.205078,4163.077148,4221.538574,450.000000,4.000000,,,,0.000000,4.000000,4.000000,4.000000,4.000000,4.000000,,,,,,,,,,,,,,,,,,,,,,,,,
1577422353.504794,90.000000,0.000000,4202.563965,4236.922852,4135.897461,4152.820313,4214.358887,450.000000,4.000000,,,,0.000000,4.000000,4.000000,4.000000,4.000000,4.000000,,,,,,,,,,,,,,,,,,,,,,,,,
1577422353.512513,91.000000,0.000000,4186.666504,4211.282227,4130.256348,4147.692383,4203.589844,16210.000000,4.000000,,,,0.000000,4.000000,4.000000,4.000000,4.000000,4.000000,,,,,,,,,,,,,,,,,,,,,,,,,
1577422353.520332,92.000000,0.000000,4178.461426,4208.717773,4134.358887,4137.948730,4193.333496,450.000000,4.000000,,,,0.000000,4.000000,4.000000,4.000000,4.000000,4.000000,,,,,,,,,,,,,,,,,,,,,,,,,
1577422353.528051,93.000000,0.000000,4180.512695,4221.538574,4155.897461,4137.948730,4192.820313,450.000000,4.000000,,,,0.000000,4.000000,4.000000,4.000000,4.000000,4.000000,,,,,,,,,,,,,,,,,,,,,,,,,
1577422353.535770,94.000000,0.000000,4190.256348,4228.205078,4187.692383,4160.512695,4204.615234,450.000000,4.000000,,,,0.000000,4.000000,4.000000,4.000000,4.000000,4.000000,5.922842,2.265993,3.699430,9.720021,36.423920,28.930637,5.096410,4.898767,9.916208,27.074614,41.149128,7.006087,5.003167,5.747785,30.226097,3.783241,2.816717,1.463377,2.287495,48.573967,5.258262,2.060915,2.445913,6.926285,38.440334
1577422353.543586,95.000000,0.000000,4188.205078,4223.589844,4194.358887,4158.461426,4201.025879,16210.000000,4.000000,,,,0.000000,4.000000,4.000000,4.000000,4.000000,4.000000,,,,,,,,,,,,,,,,,,,,,,,,,
1577422353.551302,96.000000,0.000000,4196.410156,4234.871582,4207.179688,4153.846191,4198.461426,450.000000,4.000000,,,,0.000000,4.000000,4.000000,4.000000,4.000000,4.000000,,,,,,,,,,,,,,,,,,,,,,,,,
1577422353.559118,97.000000,0.000000,4203.589844,4244.615234,4223.589844,4164.615234,4204.615234,450.000000,4.000000,,,,0.000000,4.000000,4.000000,4.000000,4.000000,4.000000,,,,,,,,,,,,,,,,,,,,,,,,,
1577422353.566834,98.000000,0.000000,4168.717773,4222.563965,4202.563965,4142.051270,4179.487305,450.000000,4.000000,,,,0.000000,4.000000,4.000000,4.000000,4.000000,4.000000,,,,,,,,,,,,,,,,,,,,,,,,,
1577422353.574651,99.000000,0.000000,4162.051270,4222.051270,4207.692383,4127.179688,4165.641113,16210.000000,4.000000,,,,0.000000,4.000000,4.000000,4.000000,4.000000,4.000000,,,,,,,,,,,,,,,,,,,,,,,,,
1577422353.582367,100.000000,0.000000,4205.128418,4262.051270,4247.692383,4151.794922,4198.974121,450.000000,4.000000,,,,0.000000,4.000000,4.000000,4.000000,4.000000,4.000000,,,,,,,,,,,,,,,,,,,,,,,,,
1577422353.590183,101.000000,0.000000,4223.589844,4282.563965,4255.897461,4166.153809,4218.461426,450.000000,4.000000,,,,0.000000,4.000000,4.000000,4.000000,4.000000,4.000000,,,,,,,,,,,,,,,,,,,,,,,,,
1577422353.598001,102.000000,0.000000,4216.922852,4268.717773,4248.717773,4160.512695,4209.743652,450.000000,4.000000,,,,0.000000,4.000000,4.000000,4.000000,4.000000,4.000000,,,,,,,,,,,,,,,,,,,,,,,,,
1577422353.605719,103.000000,0.000000,4219.487305,4263.589844,4254.358887,4158.974121,4207.179688,16210.000000,4.000000,,,,0.000000,4.000000,4.000000,4.000000,4.000000,4.000000,,,,,,,,,,,,,,,,,,,,,,,,,
1577422353.613537,104.000000,0.000000,4230.256348,4287.179688,4259.487305,4167.179688,4218.974121,450.000000,4.000000,,,,0.000000,4.000000,4.000000,4.000000,4.000000,4.000000,,,,,,,,,,,,,,,,,,,,,,,,,
1577422353.621255,105.000000,0.000000,4242.051270,4300.512695,4253.333496,4176.410156,4234.358887,450.000000,4.000000,,,,0.000000,4.000000,4.000000,4.000000,4.000000,4.000000,,,,,,,,,,,,,,,,,,,,,,,,,
1577422353.629072,106.000000,0.000000,4241.538574,4290.256348,4237.948730,4177.948730,4232.820313,450.000000,4.000000,,,,0.000000,4.000000,4.000000,4.000000,4.000000,4.000000,,,,,,,,,,,,,,,,,,,,,,,,,
1577422353.636790,107.000000,0.000000,4231.794922,4288.717773,4227.692383,4173.333496,4222.563965,16210.000000,4.000000,,,,0.000000,4.000000,4.000000,4.000000,4.000000,4.000000,,,,,,,,,,,,,,,,,,,,,,,,,
1577422353.644608,108.000000,0.000000,4216.410156,4286.666504,4211.282227,4154.871582,4207.692383,450.000000,4.000000,,,,0.000000,4.000000,4.000000,4.000000,4.000000,4.000000,,,,,,,,,,,,,,,,,,,,,,,,,
1577422353.652325,109.000000,0.000000,4211.282227,4275.384766,4194.358887,4149.230957,4197.948730,450.000000,4.000000,,,,0.000000,4.000000,4.000000,4.000000,4.000000,4.000000,,,,,,,,,,,,,,,,,,,,,,,,,
1577422353.660143,110.000000,0.000000,4228.205078,4283.589844,4196.922852,4166.153809,4209.743652,450.000000,4.000000,,,,0.000000,4.000000,4.000000,4.000000,4.000000,4.000000,5.800831,1.982792,3.375076,7.121025,31.140848,31.994606,3.588736,4.720176,7.612891,23.226963,45.154522,7.831995,4.749192,4.458898,25.999199,4.329999,2.814439,1.674922,2.181518,42.046963,5.778289,2.038586,2.383500,5.239758,33.244202
1577422353.667861,111.000000,0.000000,4244.615234,4309.230957,4199.487305,4177.948730,4221.538574,16210.000000,4.000000,,,,0.000000,4.000000,4.000000,4.000000,4.000000,4.000000,,,,,,,,,,,,,,,,,,,,,,,,,
1577422353.675678,112.000000,0.000000,4233.846191,4315.384766,4182.051270,4166.666504,4212.307617,450.000000,4.000000,,,,0.000000,4.000000,4.000000,4.000000,4.000000,4.000000,,,,,,,,,,,,,,,,,,,,,,,,,
1577422353.683395,113.000000,0.000000,4202.051270,4285.641113,4152.307617,4140.000000,4194.358887,450.000000,4.000000,,,,0.000000,4.000000,4.000000,4.000000,4.000000,4.000000,,,,,,,,,,,,,,,,,,,,,,,,,
1577422353.691212,114.000000,0.000000,4204.615234,4278.974121,4144.615234,4140.000000,4202.563965,450.000000,4.000000,,,,0.000000,4.000000,4.000000,4.000000,4.000000,4.000000,,,,,,,,,,,,,,,,,,,,,,,,,
1577422353.698930,115.000000,0.000000,4252.820313,4314.358887,4163.589844,4170.256348,4243.589844,16210.000000,4.000000,,,,0.000000,4.000000,4.000000,4.000000,4.000000,4.000000,,,,,,,,,,,,,,,,,,,,,,,,,
1577422353.706747,116.000000,0.000000,4269.743652,4318.461426,4163.077148,4184.615234,4258.974121,450.000000,4.000000,,,,0.000000,4.000000,4.000000,4.000000,4.000000,4.000000,,,,,,,,,,,,,,,,,,,,,,,,,
1577422353.714464,117.000000,0.000000,4235.897461,4281.025879,4122.563965,4166.153809,4224.615234,450.000000,4.000000,,,,0.000000,4.000000,4.000000,4.000000,4.000000,4.000000,,,,,,,,,,,,,,,,,,,,,,,,,
1577422353.722281,118.000000,0.000000,4208.717773,4239.487305,4080.000000,4137.436035,4195.897461,450.000000,4.000000,,,,0.000000,4.000000,4.000000,4.000000,4.000000,4.000000,,,,,,,,,,,,,,,,,,,,,,,,,
1577422353.730100,119.000000,0.000000,4220.000000,4228.717773,4084.615479,4137.948730,4211.282227,16210.000000,4.000000,,,,0.000000,4.000000,4.000000,4.000000,4.000000,4.000000,,,,,,,,,,,,,,,,,,,,,,,,,
1577422353.737819,120.000000,0.000000,4250.769043,4250.256348,4115.897461,4165.128418,4238.974121,450.000000,4.000000,,,,0.000000,4.000000,4.000000,4.000000,4.000000,4.000000,,,,,,,,,,,,,,,,,,,,,,,,,
1577422353.745638,121.000000,0.000000,4268.205078,4261.025879,4127.179688,4183.589844,4249.743652,450.000000,4.000000,,,,0.000000,4.000000,4.000000,4.000000,4.000000,4.000000,,,,,,,,,,,,,,,,,,,,,,,,,
1577422353.753357,122.000000,0.000000,4246.666504,4227.179688,4102.051270,4162.051270,4226.153809,450.000000,4.000000,,,,0.000000,4.000000,4.000000,4.000000,4.000000,4.000000,,,,,,,,,,,,,,,,,,,,,,,,,
1577422353.761076,123.000000,0.000000,4197.436035,4188.717773,4057.948730,4110.256348,4173.333496,16210.000000,4.000000,,,,0.000000,4.000000,4.000000,4.000000,4.000000,4.000000,,,,,,,,,,,,,,,,,,,,,,,,,
1577422353.768892,124.000000,0.000000,4178.974121,4195.897461,4045.128174,4091.281982,4150.256348,450.000000,4.000000,,,,0.000000,4.000000,4.000000,4.000000,4.000000,4.000000,,,,,,,,,,,,,,,,,,,,,,,,,
1577422353.776711,125.000000,0.000000,4203.077148,4213.846191,4069.230713,4113.846191,4173.846191,450.000000,4.000000,,,,0.000000,4.000000,4.000000,4.000000,4.000000,4.000000,,,,,,,,,,,,,,,,,,,,,,,,,
1577422353.784430,126.000000,0.000000,4221.538574,4209.743652,4092.307617,4128.205078,4191.794922,450.000000,4.000000,,,,0.000000,4.000000,4.000000,4.000000,4.000000,4.000000,5.539155,1.981850,2.941751,4.805164,22.828024,32.523983,2.337637,4.255281,5.300474,17.159231,51.089676,8.783580,4.341387,3.326361,19.110796,4.605323,2.723684,1.772631,1.976870,31.019285,5.921770,2.268921,2.286959,3.670563,24.600594
1577422353.792249,127.000000,0.000000,4209.743652,4202.563965,4098.974121,4119.487305,4178.974121,234.000000,4.000000,,,,0.000000,4.000000,4.000000,4.000000,4.000000,4.000000,,,,,,,,,,,,,,,,,,,,,,,,,
1577422353.799967,0.000000,0.000000,4198.461426,4215.897461,4099.487305,4118.461426,4172.820313,450.000000,4.000000,,,,0.000000,4.000000,4.000000,4.000000,4.000000,4.000000,,,,,,,,,,,,,,,,,,,,,,,,,
1577422353.807786,1.000000,0.000000,4209.230957,4242.051270,4105.128418,4131.794922,4188.205078,450.000000,4.000000,,,,0.000000,4.000000,4.000000,4.000000,4.000000,4.000000,,,,,,,,,,,,,,,,,,,,,,,,,
1577422353.815504,2.000000,0.000000,4219.487305,4240.000000,4111.282227,4133.333496,4197.948730,16219.000000,4.000000,,,,0.000000,4.000000,4.000000,4.000000,4.000000,4.000000,,,,,,,,,,,,,,,,,,,,,,,,,
1577422353.823323,3.000000,0.000000,4234.871582,4228.717773,4122.051270,4145.128418,4213.333496,450.000000,4.000000,,,,0.000000,4.000000,4.000000,4.000000,4.000000,4.000000,,,,,,,,,,,,,,,,,,,,,,,,,
1577422353.831041,4.000000,0.000000,4235.384766,4229.230957,4118.461426,4154.871582,4218.974121,16189.000000,4.000000,,,,0.000000,4.000000,4.000000,4.000000,4.000000,4.000000,,,,,,,,,,,,,,,,,,,,,,,,,
1577422353.838860,5.000000,0.000000,4203.589844,4225.128418,4091.794922,4128.717773,4195.384766,450.000000,4.000000,,,,0.000000,4.000000,4.000000,4.000000,4.000000,4.000000,,,,,,,,,,,,,,,,,,,,,,,,,
1577422353.846578,6.000000,0.000000,4190.769043,4215.897461,4081.538574,4113.333496,4181.025879,16165.000000,4.000000,,,,0.000000,4.000000,4.000000,4.000000,4.000000,4.000000,,,,,,,,,,,,,,,,,,,,,,,,,
1577422353.854296,7.000000,0.000000,4208.205078,4218.461426,4096.410156,4135.384766,4191.794922,450.000000,4.000000,,,,0.000000,4.000000,4.000000,4.000000,4.000000,4.000000,,,,,,,,,,,,,,,,,,,,,,,,,
1577422353.862112,8.000000,0.000000,4212.820313,4233.846191,4102.051270,4142.051270,4190.769043,450.000000,4.000000,,,,0.000000,4.000000,4.000000,4.000000,4.000000,4.000000,,,,,,,,,,,,,,,,,,,,,,,,,
1577422353.869930,9.000000,0.000000,4200.512695,4232.820313,4088.205078,4126.666504,4172.820313,16170.000000,4.000000,,,,0.000000,4.000000,4.000000,4.000000,4.000000,4.000000,,,,,,,,,,,,,,,,,,,,,,,,,
1577422353.877648,10.000000,0.000000,4204.615234,4214.358887,4077.948730,4127.179688,4174.358887,450.000000,4.000000,,,,0.000000,4.000000,4.000000,4.000000,4.000000,4.000000,,,,,,,,,,,,,,,,,,,,,,,,,
1577422353.885466,11.000000,0.000000,4226.153809,4219.487305,4082.051270,4138.974121,4194.358887,16212.000000,4.000000,,,,0.000000,4.000000,4.000000,4.000000,4.000000,4.000000,,,,,,,,,,,,,,,,,,,,,,,,,
1577422353.893184,12.000000,0.000000,4230.256348,4232.307617,4080.000000,4141.538574,4197.436035,450.000000,4.000000,,,,0.000000,4.000000,4.000000,4.000000,4.000000,4.000000,,,,,,,,,,,,,,,,,,,,,,,,,
1577422353.901002,13.000000,0.000000,4210.256348,4214.358887,4056.410156,4128.717773,4175.897461,450.000000,4.000000,,,,0.000000,4.000000,4.000000,4.000000,4.000000,4.000000,,,,,,,,,,,,,,,,,,,,,,,,,
1577422353.908822,14.000000,0.000000,4207.179688,4201.025879,4037.435791,4121.025879,4166.153809,450.000000,4.000000,,,,0.000000,4.000000,4.000000,4.000000,4.000000,4.000000,5.169806,2.169245,2.518537,3.124462,14.096952,29.619135,1.644809,3.590640,3.379916,10.789033,60.522686,9.484329,3.842354,2.478383,11.803317,4.482625,2.596651,1.743697,1.754323,19.097904,5.659279,2.692355,2.179505,2.487994,15.302114
1577422353.916542,15.000000,0.000000,4232.820313,4214.871582,4036.410156,4126.666504,4184.615234,16212.000000,4.000000,,,,0.000000,4.000000,4.000000,4.000000,4.000000,4.000000,,,,,,,,,,,,,,,,,,,,,,,,,
1577422353.924262,16.000000,0.000000,4247.692383,4225.641113,4030.256348,4122.563965,4195.897461,0.000000,4.000000,,,,0.000000,4.000000,4.000000,4.000000,4.000000,4.000000,,,,,,,,,,,,,,,,,,,,,,,,,
1577422353.932080,17.000000,0.000000,4255.384766,4233.846191,4020.000000,4122.051270,4196.922852,0.000000,4.000000,,,,0.000000,4.000000,4.000000,4.000000,4.000000,4.000000,,,,,,,,,,,,,,,,,,,,,,,,,
1577422353.939797,18.000000,0.000000,4280.000000,4234.871582,4021.538574,4136.410156,4207.179688,0.000000,4.000000,,,,0.000000,4.000000,4.000000,4.000000,4.000000,4.000000,,,,,,,,,,,,,,,,,,,,,,,,,
1577422353.947615,19.000000,0.000000,4301.025879,4221.538574,4023.076904,4141.538574,4216.922852,0.000000,4.000000,,,,0.000000,4.000000,4.000000,4.000000,4.000000,4.000000,,,,,,,,,,,,,,,,,,,,,,,,,
1577422353.955332,20.000000,0.000000,4308.717773,4224.615234,4017.435791,4144.102539,4226.666504,0.000000,4.000000,,,,0.000000,4.000000,4.000000,4.000000,4.000000,4.000000,,,,,,,,,,,,,,,,,,,,,,,,,
1577422353.963150,21.000000,0.000000,4320.512695,4231.282227,4013.333252,4150.256348,4240.512695,0.000000,4.000000,,,,0.000000,4.000000,4.000000,4.000000,4.000000,4.000000,,,,,,,,,,,,,,,,,,,,,,,,,
1577422353.970867,22.000000,0.000000,4340.512695,4223.589844,4014.358887,4140.512695,4249.743652,0.000000,4.000000,,,,0.000000,4.000000,4.000000,4.000000,4.000000,4.000000,,,,,,,,,,,,,,,,,,,,,,,,,
1577422353.978684,23.000000,0.000000,4367.179688,4232.307617,4022.051270,4136.410156,4264.615234,0.000000,4.000000,,,,0.000000,4.000000,4.000000,4.000000,4.000000,4.000000,,,,,,,,,,,,,,,,,,,,,,,,,
1577422353.986401,24.000000,0.000000,4385.641113,4243.589844,4017.948730,4140.000000,4272.307617,0.000000,4.000000,,,,0.000000,4.000000,4.000000,4.000000,4.000000,4.000000,,,,,,,,,,,,,,,,,,,,,,,,,
1577422353.994218,25.000000,0.000000,4411.282227,4240.000000,4008.205078,4133.333496,4281.025879,0.000000,4.000000,,,,0.000000,4.000000,4.000000,4.000000,4.000000,4.000000,,,,,,,,,,,,,,,,,,,,,,,,,
1577422354.001935,26.000000,0.000000,4441.538574,4232.307617,4008.205078,4129.230957,4303.589844,0.000000,4.000000,,,,0.000000,4.000000,4.000000,4.000000,4.000000,4.000000,,,,,,,,,,,,,,,,,,,,,,,,,
1577422354.009752,27.000000,0.000000,4452.307617,4230.769043,4009.230713,4126.153809,4313.333496,0.000000,4.000000,,,,0.000000,4.000000,4.000000,4.000000,4.000000,4.000000,,,,,,,,,,,,,,,,,,,,,,,,,
1577422354.017571,28.000000,0.000000,4468.205078,4243.589844,4017.435791,4125.128418,4321.025879,0.000000,4.000000,,,,0.000000,4.000000,4.000000,4.000000,4.000000,4.000000,,,,,,,,,,,,,,,,,,,,,,,,,
1577422354.025290,29.000000,0.000000,4492.307617,4254.358887,4038.461426,4133.846191,4334.358887,0.000000,4.000000,,,,0.000000,4.000000,4.000000,4.000000,4.000000,4.000000,,,,,,,,,,,,,,,,,,,,,,,,,
1577422354.033009,30.000000,0.000000,4500.512695,4248.717773,4046.153809,4137.436035,4333.333496,0.000000,4.000000,,,,0.000000,4.000000,4.000000,4.000000,4.000000,4.000000,4.551429,2.436827,2.194557,2.212923,7.247017,24.269045,1.609860,2.860149,2.076451,5.790923,73.530891,9.628526,3.303033,1.992810,6.049985,4.022772,2.498285,1.636896,1.608251,9.533228,5.088168,3.264985,2.068182,1.811898,7.869628
1577422354.040826,31.000000,0.000000,4498.974121,4238.461426,4045.128174,4134.871582,4331.282227,0.000000,4.000000,,,,0.000000,4.000000,4.000000,4.000000,4.000000,4.000000,,,,,,,,,,,,,,,,,,,,,,,,,
1577422354.048644,32.000000,0.000000,4508.205078,4248.717773,4069.743652,4151.794922,4352.307617,0.000000,4.000000,,,,0.000000,4.000000,4.000000,4.000000,4.000000,4.000000,,,,,,,,,,,,,,,,,,,,,,,,,
1577422354.056363,33.000000,0.000000,4509.743652,4267.179688,4091.794922,4157.436035,4356.922852,0.000000,4.000000,,,,0.000000,4.000000,4.000000,4.000000,4.000000,4.000000,,,,,,,,,,,,,,,,,,,,,,,,,
1577422354.064182,34.000000,0.000000,4498.974121,4265.641113,4088.205078,4139.487305,4337.436035,0.000000,4.000000,,,,0.000000,4.000000,4.000000,4.000000,4.000000,4.000000,,,,,,,,,,,,,,,,,,,,,,,,,
1577422354.071900,35.000000,0.000000,4498.461426,4248.205078,4086.666748,4138.974121,4334.871582,0.000000,4.000000,,,,0.000000,4.000000,4.000000,4.000000,4.000000,4.000000,,,,,,,,,,,,,,,,,,,,,,,,,
1577422354.079719,36.000000,0.000000,4494.871582,4249.743652,4090.769287,4146.153809,4342.051270,0.000000,4.000000,,,,0.000000,4.000000,4.000000,4.000000,4.000000,4.000000,,,,,,,,,,,,,,,,,,,,,,,,,
1577422354.087437,37.000000,0.000000,4493.333496,4275.384766,4094.871826,4153.333496,4346.153809,0.000000,4.000000,,,,0.000000,4.000000,4.000000,4.000000,4.000000,4.000000,,,,,,,,,,,,,,,,,,,,,,,,,
1577422354.095256,38.000000,0.000000,4492.820313,4278.974121,4088.205078,4154.871582,4345.128418,0.000000,4.000000,,,,0.000000,4.000000,4.000000,4.000000,4.000000,4.000000,,,,,,,,,,,,,,,,,,,,,,,,,
1577422354.102975,39.000000,0.000000,4475.897461,4247.179688,4058.974365,4136.410156,4328.717773,0.000000,4.000000,,,,0.000000,4.000000,4.000000,4.000000,4.000000,4.000000,,,,,,,,,,,,,,,,,,,,,,,,,
1577422354.110793,40.000000,0.000000,4464.615234,4230.769043,4038.461426,4129.230957,4313.846191,0.000000,4.000000,,,,0.000000,4.000000,4.000000,4.000000,4.000000,4.000000,,,,,,,,,,,,,,,,,,,,,,,,,
1577422354.118511,41.000000,0.000000,4456.410156,4242.051270,4033.333252,4128.717773,4309.743652,0.000000,4.000000,,,,0.000000,4.000000,4.000000,4.000000,4.000000,4.000000,,,,,,,,,,,,,,,,,,,,,,,,,
1577422354.126329,42.000000,0.000000,4430.769043,4246.666504,4022.051270,4111.282227,4294.358887,0.000000,4.000000,,,,0.000000,4.000000,4.000000,4.000000,4.000000,4.000000,,,,,,,,,,,,,,,,,,,,,,,,,
1577422354.134047,43.000000,0.000000,4433.846191,4260.512695,4027.692383,4120.512695,4297.948730,0.000000,4.000000,,,,0.000000,4.000000,4.000000,4.000000,4.000000,4.000000,,,,,,,,,,,,,,,,,,,,,,,,,
1577422354.141865,44.000000,0.000000,4480.512695,4294.358887,4056.410156,4169.743652,4348.205078,0.000000,4.000000,,,,0.000000,4.000000,4.000000,4.000000,4.000000,4.000000,,,,,,,,,,,,,,,,,,,,,,,,,
1577422354.149684,45.000000,0.000000,4493.333496,4297.436035,4065.128174,4190.769043,4369.230957,0.000000,4.000000,,,,0.000000,4.000000,4.000000,4.000000,4.000000,4.000000,,,,,,,,,,,,,,,,,,,,,,,,,
1577422354.157404,46.000000,0.000000,4463.589844,4277.948730,4042.564209,4163.589844,4340.512695,0.000000,4.000000,,,,0.000000,4.000000,4.000000,4.000000,4.000000,4.000000,3.677017,2.694422,2.014771,1.980857,3.333145,18.879654,2.111413,2.183778,1.405127,2.924876,90.450790,9.046770,2.770533,1.883125,2.750079,3.366255,2.488282,1.540243,1.609448,3.890806,4.316484,3.947675,1.957344,1.613170,3.519898
1577422354.165224,47.000000,0.000000,4467.692383,4288.717773,4041.538574,4158.461426,4341.025879,0.000000,4.000000,,,,0.000000,4.000000,4.000000,4.000000,4.000000,4.000000,,,,,,,,,,,,,,,,,,,,,,,,,
1577422354.172944,48.000000,0.000000,4488.205078,4300.512695,4065.128174,4176.410156,4359.487305,0.000000,4.000000,,,,0.000000,4.000000,4.000000,4.000000,4.000000,4.000000,,,,,,,,,,,,,,,,,,,,,,,,,
1577422354.180664,49.000000,0.000000,4473.846191,4295.897461,4069.230713,4165.128418,4349.230957,0.000000,4.000000,,,,0.000000,4.000000,4.000000,4.000000,4.000000,4.000000,,,,,,,,,,,,,,,,,,,,,,,,,
1577422354.188482,50.000000,0.000000,4468.717773,4316.922852,4076.410156,4158.974121,4349.230957,0.000000,4.000000,,,,0.000000,4.000000,4.000000,4.000000,4.000000,4.000000,,,,,,,,,,,,,,,,,,,,,,,,,
1577422354.196301,51.000000,0.000000,4473.846191,4316.410156,4085.128174,4160.000000,4356.922852,0.000000,4.000000,,,,0.000000,4.000000,4.000000,4.000000,4.000000,4.000000,,,,,,,,,,,,,,,,,,,,,,,,,
1577422354.204021,52.000000,0.000000,4450.256348,4280.000000,4069.230713,4138.461426,4330.769043,0.000000,4.000000,,,,0.000000,4.000000,4.000000,4.000000,4.000000,4.000000,,,,,,,,,,,,,,,,,,,,,,,,,
1577422354.211840,53.000000,0.000000,4464.615234,4305.641113,4092.820557,4153.846191,4342.563965,0.000000,4.000000,,,,0.000000,4.000000,4.000000,4.000000,4.000000,4.000000,,,,,,,,,,,,,,,,,,,,,,,,,
1577422354.219560,54.000000,0.000000,4508.205078,4342.051270,4144.102539,4196.410156,4387.179688,0.000000,4.000000,,,,0.000000,4.000000,4.000000,4.000000,4.000000,4.000000,,,,,,,,,,,,,,,,,,,,,,,,,
1577422354.227379,55.000000,0.000000,4474.871582,4299.487305,4121.538574,4174.871582,4355.384766,0.000000,4.000000,,,,0.000000,4.000000,4.000000,4.000000,4.000000,4.000000,,,,,,,,,,,,,,,,,,,,,,,,,
1577422354.235099,56.000000,0.000000,4423.077148,4269.230957,4069.743652,4129.743652,4304.615234,0.000000,4.000000,,,,0.000000,4.000000,4.000000,4.000000,4.000000,4.000000,,,,,,,,,,,,,,,,,,,,,,,,,
1577422354.242918,57.000000,0.000000,4442.051270,4291.794922,4083.589844,4137.436035,4324.615234,0.000000,4.000000,,,,0.000000,4.000000,4.000000,4.000000,4.000000,4.000000,,,,,,,,,,,,,,,,,,,,,,,,,
1577422354.250637,58.000000,0.000000,4471.282227,4306.153809,4121.025879,4161.538574,4350.769043,0.000000,4.000000,,,,0.000000,4.000000,4.000000,4.000000,4.000000,4.000000,,,,,,,,,,,,,,,,,,,,,,,,,
1577422354.258456,59.000000,0.000000,4469.743652,4303.589844,4128.717773,4159.487305,4349.230957,0.000000,4.000000,,,,0.000000,4.000000,4.000000,4.000000,4.000000,4.000000,,,,,,,,,,,,,,,,,,,,,,,,,
1577422354.266176,60.000000,0.000000,4454.358887,4294.358887,4120.512695,4146.666504,4334.871582,0.000000,4.000000,,,,0.000000,4.000000,4.000000,4.000000,4.000000,4.000000,,,,,,,,,,,,,,,,,,,,,,,,,
1577422354.273994,61.000000,0.000000,4452.820313,4296.410156,4122.051270,4148.717773,4323.589844,0.000000,4.000000,,,,0.000000,4.000000,4.000000,4.000000,4.000000,4.000000,,,,,,,,,,,,,,,,,,,,,,,,,
1577422354.281714,62.000000,0.000000,4467.692383,4310.769043,4124.102539,4160.512695,4335.384766,0.000000,4.000000,,,,0.000000,4.000000,4.000000,4.000000,4.000000,4.000000,3.356561,2.923901,1.965438,2.174495,1.959336,14.948158,2.915239,1.644267,1.191236,1.902162,106.092880,8.019305,2.318886,2.060321,1.568696,2.761007,2.595759,1.517182,1.750396,1.727416,3.917145,4.702128,1.855192,1.733962,1.901484
1577422354.289532,63.000000,0.000000,4462.051270,4301.025879,4101.025879,4151.794922,4333.333496,0.000000,4.000000,,,,0.000000,4.000000,4.000000,4.000000,4.000000,4.000000,,,,,,,,,,,,,,,,,,,,,,,,,
1577422354.297252,64.000000,0.000000,4441.025879,4283.589844,4080.000000,4136.410156,4310.256348,450.000000,4.000000,,,,0.000000,4.000000,4.000000,4.000000,4.000000,4.000000,,,,,,,,,,,,,,,,,,,,,,,,,
1577422354.305070,65.000000,0.000000,4446.666504,4303.077148,4098.461426,4148.717773,4314.871582,450.000000,4.000000,,,,0.000000,4.000000,4.000000,4.000000,4.000000,4.000000,,,,,,,,,,,,,,,,,,,,,,,,,
1577422354.312789,66.000000,0.000000,4469.230957,4320.000000,4122.563965,4161.538574,4339.487305,16210.000000,4.000000,,,,0.000000,4.000000,4.000000,4.000000,4.000000,4.000000,,,,,,,,,,,,,,,,,,,,,,,,,
1577422354.320608,67.000000,0.000000,4474.871582,4307.692383,4115.384766,4148.717773,4348.717773,450.000000,4.000000,,,,0.000000,4.000000,4.000000,4.000000,4.000000,4.000000,,,,,,,,,,,,,,,,,,,,,,,,,
1577422354.328428,68.000000,0.000000,4466.666504,4303.589844,4101.538574,4137.948730,4342.563965,16188.000000,4.000000,,,,0.000000,4.000000,4.000000,4.000000,4.000000,4.000000,,,,,,,,,,,,,,,,,,,,,,,,,
1577422354.336149,69.000000,0.000000,4470.769043,4324.102539,4107.179688,4146.153809,4343.589844,450.000000,4.000000,,,,0.000000,4.000000,4.000000,4.000000,4.000000,4.000000,,,,,,,,,,,,,,,,,,,,,,,,,
1577422354.343969,70.000000,0.000000,4479.487305,4333.333496,4103.589844,4152.820313,4351.282227,16163.000000,4.000000,,,,0.000000,4.000000,4.000000,4.000000,4.000000,4.000000,,,,,,,,,,,,,,,,,,,,,,,,,
1577422354.351690,71.000000,0.000000,4476.922852,4318.461426,4096.922852,4154.871582,4360.512695,450.000000,4.000000,,,,0.000000,4.000000,4.000000,4.000000,4.000000,4.000000,,,,,,,,,,,,,,,,,,,,,,,,,
1577422354.359510,72.000000,0.000000,4458.461426,4309.743652,4102.051270,4150.769043,4348.717773,450.000000,4.000000,,,,0.000000,4.000000,4.000000,4.000000,4.000000,4.000000,,,,,,,,,,,,,,,,,,,,,,,,,
1577422354.367333,73.000000,0.000000,4428.205078,4300.512695,4092.820557,4140.000000,4315.384766,16168.000000,4.000000,,,,0.000000,4.000000,4.000000,4.000000,4.000000,4.000000,,,,,,,,,,,,,,,,,,,,,,,,,
1577422354.375055,74.000000,0.000000,4416.922852,4281.025879,4079.487061,4135.384766,4309.743652,450.000000,4.000000,,,,0.000000,4.000000,4.000000,4.000000,4.000000,4.000000,,,,,,,,,,,,,,,,,,,,,,,,,
1577422354.382777,75.000000,0.000000,4434.871582,4282.563965,4099.487305,4148.717773,4336.410156,16210.000000,4.000000,,,,0.000000,4.000000,4.000000,4.000000,4.000000,4.000000,,,,,,,,,,,,,,,,,,,,,,,,,
1577422354.390597,76.000000,0.000000,4439.487305,4293.846191,4122.563965,4162.051270,4337.948730,450.000000,4.000000,,,,0.000000,4.000000,4.000000,4.000000,4.000000,4.000000,,,,,,,,,,,,,,,,,,,,,,,,,
1577422354.398420,77.000000,0.000000,4420.000000,4276.410156,4103.077148,4145.128418,4308.205078,450.000000,4.000000,,,,0.000000,4.000000,4.000000,4.000000,4.000000,4.000000,,,,,,,,,,,,,,,,,,,,,,,,,
1577422354.406142,78.000000,0.000000,4436.922852,4266.666504,4093.846191,4141.538574,4315.897461,450.000000,4.000000,,,,0.000000,4.000000,4.000000,4.000000,4.000000,4.000000,4.179330,3.127555,2.006148,2.513435,1.899429,13.346381,3.748305,1.292234,1.218665,1.834184,116.440208,6.954198,2.014541,2.366935,1.470531,2.300859,2.831734,1.591158,1.961070,1.415691,4.078238,5.447636,1.787792,1.987478,1.732408
1577422354.413864,79.000000,0.000000,4465.128418,4283.589844,4103.589844,4161.025879,4350.769043,16210.000000,4.000000,,,,0.000000,4.000000,4.000000,4.000000,4.000000,4.000000,,,,,,,,,,,,,,,,,,,,,,,,,
1577422354.421685,80.000000,0.000000,4452.307617,4286.153809,4085.128174,4156.410156,4348.717773,450.000000,4.000000,,,,0.000000,4.000000,4.000000,4.000000,4.000000,4.000000,,,,,,,,,,,,,,,,,,,,,,,,,
1577422354.429507,81.000000,0.000000,4445.641113,4284.615234,4073.846191,4159.487305,4338.461426,450.000000,4.000000,,,,0.000000,4.000000,4.000000,4.000000,4.000000,4.000000,,,,,,,,,,,,,,,,,,,,,,,,,
1577422354.437229,82.000000,0.000000,4454.871582,4282.051270,4079.487061,4177.948730,4343.077148,450.000000,4.000000,,,,0.000000,4.000000,4.000000,4.000000,4.000000,4.000000,,,,,,,,,,,,,,,,,,,,,,,,,
1577422354.445051,83.000000,0.000000,4438.461426,4265.128418,4066.666748,4163.077148,4331.794922,16210.000000,4.000000,,,,0.000000,4.000000,4.000000,4.000000,4.000000,4.000000,,,,,,,,,,,,,,,,,,,,,,,,,
1577422354.452874,84.000000,0.000000,4431.282227,4275.897461,4061.025635,4146.153809,4327.179688,450.000000,4.000000,,,,0.000000,4.000000,4.000000,4.000000,4.000000,4.000000,,,,,,,,,,,,,,,,,,,,,,,,,
1577422354.460599,85.000000,0.000000,4451.794922,4309.743652,4082.051270,4160.512695,4350.256348,450.000000,4.000000,,,,0.000000,4.000000,4.000000,4.000000,4.000000,4.000000,,,,,,,,,,,,,,,,,,,,,,,,,
1577422354.468323,86.000000,0.000000,4446.153809,4309.230957,4097.948730,4161.538574,4351.282227,450.000000,4.000000,,,,0.000000,4.000000,4.000000,4.000000,4.000000,4.000000,,,,,,,,,,,,,,,,,,,,,,,,,
1577422354.476144,87.000000,0.000000,4422.051270,4293.846191,4106.666504,4141.025879,4331.282227,16210.000000,4.000000,,,,0.000000,4.000000,4.000000,4.000000,4.000000,4.000000,,,,,,,,,,,,,,,,,,,,,,,,,
1577422354.483866,88.000000,0.000000,4414.871582,4312.307617,4128.717773,4134.871582,4323.589844,450.000000,4.000000,,,,0.000000,4.000000,4.000000,4.000000,4.000000,4.000000,,,,,,,,,,,,,,,,,,,,,,,,,
1577422354.491687,89.000000,0.000000,4407.692383,4326.666504,4147.692383,4133.333496,4315.897461,450.000000,4.000000,,,,0.000000,4.000000,4.000000,4.000000,4.000000,4.000000,,,,,,,,,,,,,,,,,,,,,,,,,
1577422354.499409,90.000000,0.000000,4403.589844,4327.179688,4183.077148,4141.538574,4315.897461,450.000000,4.000000,,,,0.000000,4.000000,4.000000,4.000000,4.000000,4.000000,,,,,,,,,,,,,,,,,,,,,,,,,
1577422354.507230,91.000000,0.000000,4406.153809,4346.153809,4244.102539,4164.615234,4324.615234,16210.000000,4.000000,,,,0.000000,4.000000,4.000000,4.000000,4.000000,4.000000,,,,,,,,,,,,,,,,,,,,,,,,,
1577422354.514952,92.000000,0.000000,4389.743652,4357.948730,4271.282227,4148.717773,4306.153809,450.000000,4.000000,,,,0.000000,4.000000,4.000000,4.000000,4.000000,4.000000,,,,,,,,,,,,,,,,,,,,,,,,,
1577422354.522773,93.000000,0.000000,4375.897461,4347.179688,4282.051270,4121.025879,4286.666504,450.000000,4.000000,,,,0.000000,4.000000,4.000000,4.000000,4.000000,4.000000,,,,,,,,,,,,,,,,,,,,,,,,,
1577422354.530495,94.000000,0.000000,4390.769043,4346.666504,4326.666504,4137.436035,4301.025879,450.000000,4.000000,,,,0.000000,4.000000,4.000000,4.000000,4.000000,4.000000,6.813693,3.264632,2.092421,2.825539,2.100140,13.423532,4.389023,1.132978,1.344842,1.962609,116.082962,6.081141,1.871754,2.669135,1.573243,2.032240,3.171719,1.745623,2.168581,1.518917,5.132555,6.027687,1.768080,2.267017,1.875980
1577422354.538316,95.000000,0.000000,4383.589844,4350.769043,4365.128418,4143.589844,4298.974121,16210.000000,4.000000,,,,0.000000,4.000000,4.000000,4.000000,4.000000,4.000000,,,,,,,,,,,,,,,,,,,,,,,,,
1577422354.546037,96.000000,0.000000,4382.051270,4378.461426,4394.358887,4142.563965,4302.051270,450.000000,4.000000,,,,0.000000,4.000000,4.000000,4.000000,4.000000,4.000000,,,,,,,,,,,,,,,,,,,,,,,,,
1577422354.553858,97.000000,0.000000,4404.102539,4405.641113,4418.974121,4157.948730,4327.179688,450.000000,4.000000,,,,0.000000,4.000000,4.000000,4.000000,4.000000,4.000000,,,,,,,,,,,,,,,,,,,,,,,,,
1577422354.561579,98.000000,0.000000,4371.282227,4375.384766,4392.820313,4134.871582,4294.358887,450.000000,4.000000,,,,0.000000,4.000000,4.000000,4.000000,4.000000,4.000000,,,,,,,,,,,,,,,,,,,,,,,,,
1577422354.569400,99.000000,0.000000,4332.820313,4366.153809,4357.948730,4109.743652,4251.794922,16210.000000,4.000000,,,,0.000000,4.000000,4.000000,4.000000,4.000000,4.000000,,,,,,,,,,,,,,,,,,,,,,,,,
1577422354.577121,100.000000,0.000000,4363.589844,4406.666504,4369.230957,4142.563965,4284.102539,450.000000,4.000000,,,,0.000000,4.000000,4.000000,4.000000,4.000000,4.000000,,,,,,,,,,,,,,,,,,,,,,,,,
1577422354.584941,101.000000,0.000000,4377.948730,4408.205078,4367.179688,4159.487305,4304.102539,450.000000,4.000000,,,,0.000000,4.000000,4.000000,4.000000,4.000000,4.000000,,,,,,,,,,,,,,,,,,,,,,,,,
1577422354.592662,102.000000,0.000000,4355.897461,4392.307617,4335.897461,4142.051270,4278.974121,450.000000,4.000000,,,,0.000000,4.000000,4.000000,4.000000,4.000000,4.000000,,,,,,,,,,,,,,,,,,,,,,,,,
1577422354.600483,103.000000,0.000000,4362.051270,4398.974121,4312.307617,4146.153809,4278.974121,16210.000000,4.000000,,,,0.000000,4.000000,4.000000,4.000000,4.000000,4.000000,,,,,,,,,,,,,,,,,,,,,,,,,
1577422354.608305,104.000000,0.000000,4367.179688,4388.205078,4288.205078,4147.692383,4287.179688,450.000000,4.000000,,,,0.000000,4.000000,4.000000,4.000000,4.000000,4.000000,,,,,,,,,,,,,,,,,,,,,,,,,
1577422354.616028,105.000000,0.000000,4363.589844,4395.384766,4280.512695,4149.230957,4294.358887,450.000000,4.000000,,,,0.000000,4.000000,4.000000,4.000000,4.000000,4.000000,,,,,,,,,,,,,,,,,,,,,,,,,
1577422354.623850,106.000000,0.000000,4368.205078,4415.897461,4265.641113,4158.461426,4302.563965,450.000000,4.000000,,,,0.000000,4.000000,4.000000,4.000000,4.000000,4.000000,,,,,,,,,,,,,,,,,,,,,,,,,
1577422354.631573,107.000000,0.000000,4358.461426,4382.563965,4212.820313,4137.436035,4284.615234,16210.000000,4.000000,,,,0.000000,4.000000,4.000000,4.000000,4.000000,4.000000,,,,,,,,,,,,,,,,,,,,,,,,,
1577422354.639395,108.000000,0.000000,4363.077148,4362.563965,4185.128418,4130.256348,4292.820313,450.000000,4.000000,,,,0.000000,4.000000,4.000000,4.000000,4.000000,4.000000,,,,,,,,,,,,,,,,,,,,,,,,,
1577422354.647117,109.000000,0.000000,4392.820313,4388.205078,4190.256348,4157.948730,4329.743652,450.000000,4.000000,,,,0.000000,4.000000,4.000000,4.000000,4.000000,4.000000,,,,,,,,,,,,,,,,,,,,,,,,,
1577422354.654939,110.000000,0.000000,4401.538574,4382.051270,4161.025879,4162.563965,4332.307617,450.000000,4.000000,,,,0.000000,4.000000,4.000000,4.000000,4.000000,4.000000,11.050586,3.287842,2.195639,2.995584,2.249594,13.798794,4.655317,1.126633,1.495498,2.059037,105.542824,5.509038,1.887105,2.888674,1.636691,1.916053,3.558024,1.925359,2.315693,1.612661,6.927119,6.278951,1.791974,2.492180,1.994016
1577422354.662661,111.000000,0.000000,4386.153809,4353.333496,4112.820313,4145.128418,4310.256348,16210.000000,4.000000,,,,0.000000,4.000000,4.000000,4.000000,4.000000,4.000000,,,,,,,,,,,,,,,,,,,,,,,,,
1577422354.670483,112.000000,0.000000,4380.000000,4350.256348,4087.692383,4140.000000,4304.102539,450.000000,4.000000,,,,0.000000,4.000000,4.000000,4.000000,4.000000,4.000000,,,,,,,,,,,,,,,,,,,,,,,,,
1577422354.678206,113.000000,0.000000,4392.820313,4344.615234,4064.615479,4138.461426,4313.333496,450.000000,4.000000,,,,0.000000,4.000000,4.000000,4.000000,4.000000,4.000000,,,,,,,,,,,,,,,,,,,,,,,,,
1577422354.686027,114.000000,0.000000,4411.282227,4320.512695,4047.692383,4146.153809,4326.153809,450.000000,4.000000,,,,0.000000,4.000000,4.000000,4.000000,4.000000,4.000000,,,,,,,,,,,,,,,,,,,,,,,,,
1577422354.693749,115.000000,0.000000,4405.128418,4292.307617,4039.487061,4151.282227,4323.589844,16210.000000,4.000000,,,,0.000000,4.000000,4.000000,4.000000,4.000000,4.000000,,,,,,,,,,,,,,,,,,,,,,,,,
1577422354.701571,116.000000,0.000000,4394.358887,4278.974121,4031.281982,4144.615234,4316.410156,450.000000,4.000000,,,,0.000000,4.000000,4.000000,4.000000,4.000000,4.000000,,,,,,,,,,,,,,,,,,,,,,,,,
1577422354.709293,117.000000,0.000000,4411.794922,4284.102539,4030.769287,4149.743652,4323.077148,450.000000,4.000000,,,,0.000000,4.000000,4.000000,4.000000,4.000000,4.000000,,,,,,,,,,,,,,,,,,,,,,,,,
1577422354.717114,118.000000,0.000000,4411.794922,4277.436035,4021.025635,4145.128418,4317.948730,450.000000,4.000000,,,,0.000000,4.000000,4.000000,4.000000,4.000000,4.000000,,,,,,,,,,,,,,,,,,,,,,,,,
1577422354.724938,119.000000,0.000000,4398.461426,4254.871582,4010.769287,4137.436035,4311.282227,16210.000000,4.000000,,,,0.000000,4.000000,4.000000,4.000000,4.000000,4.000000,,,,,,,,,,,,,,,,,,,,,,,,,
1577422354.732662,120.000000,0.000000,4416.410156,4257.948730,4014.871826,4153.846191,4333.333496,450.000000,4.000000,,,,0.000000,4.000000,4.000000,4.000000,4.000000,4.000000,,,,,,,,,,,,,,,,,,,,,,,,,
1577422354.740387,121.000000,0.000000,4427.179688,4262.563965,4000.000000,4152.307617,4344.102539,450.000000,4.000000,,,,0.000000,4.000000,4.000000,4.000000,4.000000,4.000000,,,,,,,,,,,,,,,,,,,,,,,,,
1577422354.748208,122.000000,0.000000,4410.256348,4240.512695,3963.589844,4126.153809,4325.128418,450.000000,4.000000,,,,0.000000,4.000000,4.000000,4.000000,4.000000,4.000000,,,,,,,,,,,,,,,,,,,,,,,,,
1577422354.756032,123.000000,0.000000,4414.358887,4225.641113,3948.205078,4121.538574,4327.179688,16210.000000,4.000000,,,,0.000000,4.000000,4.000000,4.000000,4.000000,4.000000,,,,,,,,,,,,,,,,,,,,,,,,,
1577422354.763755,124.000000,0.000000,4437.948730,4233.846191,3953.846191,4139.487305,4343.589844,450.000000,4.000000,,,,0.000000,4.000000,4.000000,4.000000,4.000000,4.000000,,,,,,,,,,,,,,,,,,,,,,,,,
1577422354.771579,125.000000,0.000000,4458.974121,4255.384766,3963.076904,4164.615234,4354.358887,450.000000,4.000000,,,,0.000000,4.000000,4.000000,4.000000,4.000000,4.000000,,,,,,,,,,,,,,,,,,,,,,,,,
1577422354.779302,126.000000,0.000000,4456.410156,4255.384766,3955.384521,4171.794922,4355.897461,450.000000,4.000000,,,,0.000000,4.000000,4.000000,4.000000,4.000000,4.000000,16.073643,3.207684,2.312114,2.960893,2.323676,13.220490,4.445828,1.203207,1.633982,2.093611,90.393196,5.343852,1.999799,2.997779,1.665159,1.901905,3.880879,2.064510,2.374378,1.675353,9.076690,6.105294,1.856851,2.599912,2.074589
1577422354.787125,127.000000,0.000000,4416.410156,4213.333496,3917.435791,4140.512695,4317.436035,234.000000,4.000000,,,,0.000000,4.000000,4.000000,4.000000,4.000000,4.000000,,,,,,,,,,,,,,,,,,,,,,,,,
1577422354.794849,0.000000,0.000000,4392.820313,4202.563965,3900.000000,4123.077148,4280.512695,450.000000,4.000000,,,,0.000000,4.000000,4.000000,4.000000,4.000000,4.000000,,,,,,,,,,,,,,,,,,,,,,,,,
1577422354.802572,1.000000,0.000000,4403.077148,4232.307617,3914.358887,4143.077148,4287.692383,450.000000,4.000000,,,,0.000000,4.000000,4.000000,4.000000,4.000000,4.000000,,,,,,,,,,,,,,,,,,,,,,,,,
1577422354.810393,2.000000,0.000000,4395.897461,4229.230957,3916.923096,4150.256348,4296.410156,16212.000000,4.000000,,,,0.000000,4.000000,4.000000,4.000000,4.000000,4.000000,,,,,,,,,,,,,,,,,,,,,,,,,
1577422354.818216,3.000000,0.000000,4362.563965,4201.538574,3895.897461,4128.205078,4275.384766,450.000000,4.000000,,,,0.000000,4.000000,4.000000,4.000000,4.000000,4.000000,,,,,,,,,,,,,,,,,,,,,,,,,
1577422354.825939,4.000000,0.000000,4343.077148,4205.641113,3887.692383,4124.615234,4257.948730,16196.000000,4.000000,,,,0.000000,4.000000,4.000000,4.000000,4.000000,4.000000,,,,,,,,,,,,,,,,,,,,,,,,,
1577422354.833662,5.000000,0.000000,4349.230957,4214.871582,3899.487061,4144.615234,4268.205078,450.000000,4.000000,,,,0.000000,4.000000,4.000000,4.000000,4.000000,4.000000,,,,,,,,,,,,,,,,,,,,,,,,,
1577422354.841483,6.000000,0.000000,4334.871582,4194.358887,3894.358887,4144.615234,4264.615234,16167.000000,4.000000,,,,0.000000,4.000000,4.000000,4.000000,4.000000,4.000000,,,,,,,,,,,,,,,,,,,,,,,,,
1577422354.849204,7.000000,0.000000,4311.794922,4186.153809,3895.897461,4137.436035,4248.205078,450.000000,4.000000,,,,0.000000,4.000000,4.000000,4.000000,4.000000,4.000000,,,,,,,,,,,,,,,,,,,,,,,,,
1577422354.857025,8.000000,0.000000,4302.051270,4198.461426,3920.512939,4147.692383,4243.077148,450.000000,4.000000,,,,0.000000,4.000000,4.000000,4.000000,4.000000,4.000000,,,,,,,,,,,,,,,,,,,,,,,,,
1577422354.864847,9.000000,0.000000,4278.974121,4210.256348,3947.179443,4155.384766,4230.256348,16173.000000,4.000000,,,,0.000000,4.000000,4.000000,4.000000,4.000000,4.000000,,,,,,,,,,,,,,,,,,,,,,,,,
1577422354.872570,10.000000,0.000000,4237.948730,4225.641113,3978.974365,4142.563965,4200.512695,450.000000,4.000000,,,,0.000000,4.000000,4.000000,4.000000,4.000000,4.000000,,,,,,,,,,,,,,,,,,,,,,,,,
1577422354.880393,11.000000,0.000000,4203.077148,4236.410156,4018.461426,4127.179688,4171.282227,16211.000000,4.000000,,,,0.000000,4.000000,4.000000,4.000000,4.000000,4.000000,,,,,,,,,,,,,,,,,,,,,,,,,
1577422354.888217,12.000000,0.000000,4192.820313,4259.487305,4070.256348,4142.563965,4164.615234,450.000000,4.000000,,,,0.000000,4.000000,4.000000,4.000000,4.000000,4.000000,,,,,,,,,,,,,,,,,,,,,,,,,
1577422354.895942,13.000000,0.000000,4183.589844,4289.743652,4117.436035,4152.820313,4161.538574,450.000000,4.000000,,,,0.000000,4.000000,4.000000,4.000000,4.000000,4.000000,,,,,,,,,,,,,,,,,,,,,,,,,
1577422354.903666,14.000000,0.000000,4141.538574,4280.512695,4128.205078,4123.589844,4120.000000,450.000000,4.000000,,,,0.000000,4.000000,4.000000,4.000000,4.000000,4.000000,20.547812,3.111057,2.427774,2.734007,2.328849,11.664894,3.845966,1.287060,1.730581,2.068305,79.567818,5.510967,2.124341,2.994264,1.680800,1.982235,3.992406,2.090060,2.338363,1.709751,11.036696,5.558171,1.927216,2.574160,2.134308
1577422354.911489,15.000000,0.000000,4098.461426,4267.179688,4127.179688,4108.717773,4077.948730,16211.000000,4.000000,,,,0.000000,4.000000,4.000000,4.000000,4.000000,4.000000,,,,,,,,,,,,,,,,,,,,,,,,,
1577422354.919211,16.000000,0.000000,4098.461426,4297.948730,4156.410156,4134.358887,4092.307617,0.000000,4.000000,,,,0.000000,4.000000,4.000000,4.000000,4.000000,4.000000,,,,,,,,,,,,,,,,,,,,,,,,,
1577422354.927033,17.000000,0.000000,4104.615234,4317.436035,4187.179688,4149.743652,4111.794922,0.000000,4.000000,,,,0.000000,4.000000,4.000000,4.000000,4.000000,4.000000,,,,,,,,,,,,,,,,,,,,,,,,,
1577422354.934755,18.000000,0.000000,4083.076904,4308.717773,4189.743652,4140.000000,4094.358887,0.000000,4.000000,,,,0.000000,4.000000,4.000000,4.000000,4.000000,4.000000,,,,,,,,,,,,,,,,,,,,,,,,,
1577422354.942577,19.000000,0.000000,4083.076904,4322.051270,4203.077148,4150.256348,4095.384521,0.000000,4.000000,,,,0.000000,4.000000,4.000000,4.000000,4.000000,4.000000,,,,,,,,,,,,,,,,,,,,,,,,,
1577422354.950299,20.000000,0.000000,4097.948730,4339.487305,4215.897461,4162.051270,4113.333496,0.000000,4.000000,,,,0.000000,4.000000,4.000000,4.000000,4.000000,4.000000,,,,,,,,,,,,,,,,,,,,,,,,,
1577422354.958121,21.000000,0.000000,4088.718018,4337.948730,4201.025879,4148.205078,4108.717773,0.000000,4.000000,,,,0.000000,4.000000,4.000000,4.000000,4.000000,4.000000,,,,,,,,,,,,,,,,,,,,,,,,,
1577422354.965843,22.000000,0.000000,4068.205078,4340.512695,4182.563965,4148.205078,4094.871826,0.000000,4.000000,,,,0.000000,4.000000,4.000000,4.000000,4.000000,4.000000,,,,,,,,,,,,,,,,,,,,,,,,,
1577422354.973665,23.000000,0.000000,4050.256348,4331.794922,4173.846191,4157.436035,4084.102539,0.000000,4.000000,,,,0.000000,4.000000,4.000000,4.000000,4.000000,4.000000,,,,,,,,,,,,,,,,,,,,,,,,,
1577422354.981387,24.000000,0.000000,4028.718018,4313.333496,4162.563965,4152.820313,4066.153809,0.000000,4.000000,,,,0.000000,4.000000,4.000000,4.000000,4.000000,4.000000,,,,,,,,,,,,,,,,,,,,,,,,,
1577422354.989208,25.000000,0.000000,4004.102539,4325.641113,4150.769043,4149.743652,4043.589844,0.000000,4.000000,,,,0.000000,4.000000,4.000000,4.000000,4.000000,4.000000,,,,,,,,,,,,,,,,,,,,,,,,,
1577422354.997032,26.000000,0.000000,4002.564209,4355.897461,4161.025879,4155.897461,4042.564209,0.000000,4.000000,,,,0.000000,4.000000,4.000000,4.000000,4.000000,4.000000,,,,,,,,,,,,,,,,,,,,,,,,,
1577422355.004857,27.000000,0.000000,4008.205078,4361.538574,4175.897461,4152.820313,4054.871826,0.000000,4.000000,,,,0.000000,4.000000,4.000000,4.000000,4.000000,4.000000,,,,,,,,,,,,,,,,,,,,,,,,,
1577422355.012583,28.000000,0.000000,3980.512939,4344.615234,4156.922852,4130.256348,4043.076904,0.000000,4.000000,,,,0.000000,4.000000,4.000000,4.000000,4.000000,4.000000,,,,,,,,,,,,,,,,,,,,,,,,,
1577422355.020309,29.000000,0.000000,3962.051270,4356.410156,4143.589844,4123.589844,4030.256348,0.000000,4.000000,,,,0.000000,4.000000,4.000000,4.000000,4.000000,4.000000,,,,,,,,,,,,,,,,,,,,,,,,,
1577422355.028132,30.000000,0.000000,3993.846191,4393.846191,4175.897461,4152.307617,4055.384521,0.000000,4.000000,,,,0.000000,4.000000,4.000000,4.000000,4.000000,4.000000,23.646530,3.082224,2.503683,2.394163,2.289865,9.875072,3.017100,1.335143,1.761141,2.017047,76.976944,5.852684,2.226020,2.892620,1.704215,2.076105,3.787248,1.969934,2.215394,1.729374,12.280608,4.807894,1.959546,2.443924,2.194834
1577422355.035855,31.000000,0.000000,4007.179443,4393.846191,4187.179688,4161.025879,4063.076904,0.000000,4.000000,,,,0.000000,4.000000,4.000000,4.000000,4.000000,4.000000,,,,,,,,,,,,,,,,,,,,,,,,,
1577422355.043679,32.000000,0.000000,3975.897461,4375.384766,4154.358887,4138.461426,4026.666748,0.000000,4.000000,,,,0.000000,4.000000,4.000000,4.000000,4.000000,4.000000,,,,,,,,,,,,,,,,,,,,,,,,,
1577422355.051402,33.000000,0.000000,3972.820557,4388.205078,4159.487305,4142.563965,4023.589844,0.000000,4.000000,,,,0.000000,4.000000,4.000000,4.000000,4.000000,4.000000,,,,,,,,,,,,,,,,,,,,,,,,,
1577422355.059225,34.000000,0.000000,3986.666748,4404.615234,4184.615234,4158.974121,4043.076904,0.000000,4.000000,,,,0.000000,4.000000,4.000000,4.000000,4.000000,4.000000,,,,,,,,,,,,,,,,,,,,,,,,,
1577422355.066948,35.000000,0.000000,3960.512939,4394.871582,4159.487305,4135.897461,4014.871826,0.000000,4.000000,,,,0.000000,4.000000,4.000000,4.000000,4.000000,4.000000,,,,,,,,,,,,,,,,,,,,,,,,,
1577422355.074771,36.000000,0.000000,3928.205078,4382.563965,4123.589844,4103.589844,3980.512939,0.000000,4.000000,,,,0.000000,4.000000,4.000000,4.000000,4.000000,4.000000,,,,,,,,,,,,,,,,,,,,,,,,,
1577422355.082494,37.000000,0.000000,3940.000000,4400.512695,4137.436035,4117.948730,4002.564209,0.000000,4.000000,,,,0.000000,4.000000,4.000000,4.000000,4.000000,4.000000,,,,,,,,,,,,,,,,,,,,,,,,,
1577422355.090317,38.000000,0.000000,3969.743652,4426.153809,4158.461426,4149.230957,4038.461426,0.000000,4.000000,,,,0.000000,4.000000,4.000000,4.000000,4.000000,4.000000,,,,,,,,,,,,,,,,,,,,,,,,,
1577422355.098040,39.000000,0.000000,3980.000000,4428.205078,4153.846191,4151.282227,4047.179443,0.000000,4.000000,,,,0.000000,4.000000,4.000000,4.000000,4.000000,4.000000,,,,,,,,,,,,,,,,,,,,,,,,,
1577422355.105863,40.000000,0.000000,3980.512939,4415.897461,4151.794922,4147.179688,4048.718018,0.000000,4.000000,,,,0.000000,4.000000,4.000000,4.000000,4.000000,4.000000,,,,,,,,,,,,,,,,,,,,,,,,,
1577422355.113586,41.000000,0.000000,3981.025635,4410.769043,4141.025879,4143.589844,4047.179443,0.000000,4.000000,,,,0.000000,4.000000,4.000000,4.000000,4.000000,4.000000,,,,,,,,,,,,,,,,,,,,,,,,,
1577422355.121409,42.000000,0.000000,3975.897461,4406.666504,4116.410156,4128.717773,4040.000000,0.000000,4.000000,,,,0.000000,4.000000,4.000000,4.000000,4.000000,4.000000,,,,,,,,,,,,,,,,,,,,,,,,,
1577422355.129233,43.000000,0.000000,3977.435791,4395.897461,4112.820313,4126.153809,4040.000000,0.000000,4.000000,,,,0.000000,4.000000,4.000000,4.000000,4.000000,4.000000,,,,,,,,,,,,,,,,,,,,,,,,,
1577422355.137060,44.000000,0.000000,3981.025635,4387.179688,4116.410156,4132.307617,4044.102539,0.000000,4.000000,,,,0.000000,4.000000,4.000000,4.000000,4.000000,4.000000,,,,,,,,,,,,,,,,,,,,,,,,,
1577422355.144786,45.000000,0.000000,3973.333252,4387.179688,4107.692383,4128.717773,4041.538574,0.000000,4.000000,,,,0.000000,4.000000,4.000000,4.000000,4.000000,4.000000,,,,,,,,,,,,,,,,,,,,,,,,,
1577422355.152513,46.000000,0.000000,3976.410156,4395.897461,4117.436035,4135.384766,4047.692383,0.000000,4.000000,,,,0.000000,4.000000,4.000000,4.000000,4.000000,4.000000,24.031961,3.174103,2.492841,2.035174,2.228243,8.534019,2.207539,1.337628,1.705992,1.975489,83.316505,6.300433,2.310107,2.708903,1.736337,2.156976,3.284404,1.733328,2.021982,1.748055,12.214540,4.121252,1.916588,2.251609,2.260387
1577422355.160337,47.000000,0.000000,3977.435791,4392.820313,4131.794922,4140.000000,4051.281982,0.000000,4.000000,,,,0.000000,4.000000,4.000000,4.000000,4.000000,4.000000,,,,,,,,,,,,,,,,,,,,,,,,,
1577422355.168164,48.000000,0.000000,3965.128174,4403.589844,4137.436035,4128.717773,4040.000000,0.000000,4.000000,,,,0.000000,4.000000,4.000000,4.000000,4.000000,4.000000,,,,,,,,,,,,,,,,,,,,,,,,,
1577422355.175890,49.000000,0.000000,3964.102539,4453.333496,4154.358887,4127.692383,4039.487061,0.000000,4.000000,,,,0.000000,4.000000,4.000000,4.000000,4.000000,4.000000,,,,,,,,,,,,,,,,,,,,,,,,,
1577422355.183716,50.000000,0.000000,3962.051270,4479.487305,4167.179688,4125.641113,4038.974365,0.000000,4.000000,,,,0.000000,4.000000,4.000000,4.000000,4.000000,4.000000,,,,,,,,,,,,,,,,,,,,,,,,,
1577422355.191443,51.000000,0.000000,3960.512939,4487.692383,4182.051270,4122.563965,4036.410156,0.000000,4.000000,,,,0.000000,4.000000,4.000000,4.000000,4.000000,4.000000,,,,,,,,,,,,,,,,,,,,,,,,,
1577422355.199269,52.000000,0.000000,3962.564209,4523.589844,4200.512695,4134.871582,4044.102539,0.000000,4.000000,,,,0.000000,4.000000,4.000000,4.000000,4.000000,4.000000,,,,,,,,,,,,,,,,,,,,,,,,,
1577422355.206995,53.000000,0.000000,3948.718018,4538.461426,4194.871582,4128.717773,4033.333252,0.000000,4.000000,,,,0.000000,4.000000,4.000000,4.000000,4.000000,4.000000,,,,,,,,,,,,,,,,,,,,,,,,,
1577422355.214821,54.000000,0.000000,3934.871826,4519.487305,4178.974121,4104.615234,4013.846191,0.000000,4.000000,,,,0.000000,4.000000,4.000000,4.000000,4.000000,4.000000,,,,,,,,,,,,,,,,,,,,,,,,,
1577422355.222547,55.000000,0.000000,3962.564209,4536.922852,4193.846191,4122.051270,4033.846191,0.000000,4.000000,,,,0.000000,4.000000,4.000000,4.000000,4.000000,4.000000,,,,,,,,,,,,,,,,,,,,,,,,,
1577422355.230273,56.000000,0.000000,3991.794922,4563.589844,4203.077148,4146.153809,4058.974365,0.000000,4.000000,,,,0.000000,4.000000,4.000000,4.000000,4.000000,4.000000,,,,,,,,,,,,,,,,,,,,,,,,,
1577422355.238096,57.000000,0.000000,3971.281982,4533.846191,4165.641113,4120.000000,4040.000000,0.000000,4.000000,,,,0.000000,4.000000,4.000000,4.000000,4.000000,4.000000,,,,,,,,,,,,,,,,,,,,,,,,,
1577422355.245922,58.000000,0.000000,3960.000000,4519.487305,4140.512695,4112.820313,4026.153809,0.000000,4.000000,,,,0.000000,4.000000,4.000000,4.000000,4.000000,4.000000,,,,,,,,,,,,,,,,,,,,,,,,,
1577422355.253750,59.000000,0.000000,3972.307617,4537.436035,4134.358887,4133.333496,4038.974365,0.000000,4.000000,,,,0.000000,4.000000,4.000000,4.000000,4.000000,4.000000,,,,,,,,,,,,,,,,,,,,,,,,,
1577422355.261478,60.000000,0.000000,3969.743652,4528.717773,4108.205078,4133.846191,4042.564209,0.000000,4.000000,,,,0.000000,4.000000,4.000000,4.000000,4.000000,4.000000,,,,,,,,,,,,,,,,,,,,,,,,,
1577422355.269206,61.000000,0.000000,3962.051270,4506.153809,4074.871826,4123.077148,4029.743652,0.000000,4.000000,,,,0.000000,4.000000,4.000000,4.000000,4.000000,4.000000,,,,,,,,,,,,,,,,,,,,,,,,,
1577422355.277031,62.000000,0.000000,3948.205078,4477.948730,4044.102539,4110.769043,4013.333252,0.000000,4.000000,,,,0.000000,4.000000,4.000000,4.000000,4.000000,4.000000,21.631535,3.448794,2.388417,1.737563,2.160820,7.878190,1.604985,1.305531,1.580237,1.967816,94.626099,6.743972,2.379170,2.476517,1.767771,2.142398,2.628361,1.442146,1.793122,1.773901,10.845529,3.797533,1.808944,2.042816,2.320008
1577422355.284757,63.000000,0.000000,3945.641113,4463.077148,4028.718018,4117.948730,4020.512939,0.000000,4.000000,,,,0.000000,4.000000,4.000000,4.000000,4.000000,4.000000,,,,,,,,,,,,,,,,,,,,,,,,,
1577422355.292582,64.000000,0.000000,3951.281982,4452.820313,4014.358887,4124.102539,4029.230713,450.000000,4.000000,,,,0.000000,4.000000,4.000000,4.000000,4.000000,4.000000,,,,,,,,,,,,,,,,,,,,,,,,,
1577422355.300410,65.000000,0.000000,3932.307617,4421.538574,3980.000000,4097.436035,4005.128174,450.000000,4.000000,,,,0.000000,4.000000,4.000000,4.000000,4.000000,4.000000,,,,,,,,,,,,,,,,,,,,,,,,,
1577422355.308137,66.000000,0.000000,3912.820557,4402.051270,3953.333252,4080.000000,3983.589844,16231.000000,4.000000,,,,0.000000,4.000000,4.000000,4.000000,4.000000,4.000000,,,,,,,,,,,,,,,,,,,,,,,,,
1577422355.315964,67.000000,0.000000,3910.256348,4393.333496,3941.538574,4087.179443,3989.743652,450.000000,4.000000,,,,0.000000,4.000000,4.000000,4.000000,4.000000,4.000000,,,,,,,,,,,,,,,,,,,,,,,,,
1577422355.323692,68.000000,0.000000,3904.102539,4362.051270,3928.205078,4082.051270,3992.307617,16189.000000,4.000000,,,,0.000000,4.000000,4.000000,4.000000,4.000000,4.000000,,,,,,,,,,,,,,,,,,,,,,,,,
1577422355.331519,69.000000,0.000000,3909.743652,4336.922852,3924.615479,4071.794922,3987.692383,450.000000,4.000000,,,,0.000000,4.000000,4.000000,4.000000,4.000000,4.000000,,,,,,,,,,,,,,,,,,,,,,,,,
1577422355.339246,70.000000,0.000000,3943.076904,4360.000000,3940.000000,4092.307617,4018.461426,16167.000000,4.000000,,,,0.000000,4.000000,4.000000,4.000000,4.000000,4.000000,,,,,,,,,,,,,,,,,,,,,,,,,
1577422355.347073,71.000000,1.000000,3955.726563,4367.578125,3938.176758,4089.629639,4024.729248,450.000000,4.000000,,,,0.000000,4.000000,4.000000,4.000000,4.000000,4.000000,,,,,,,,,,,,,,,,,,,,,,,,,
1577422355.354800,72.000000,1.000000,3968.375977,4375.156738,3936.353271,4086.951660,4030.997070,450.000000,4.000000,,,,0.000000,4.000000,4.000000,4.000000,4.000000,4.000000,,,,,,,,,,,,,,,,,,,,,,,,,
1577422355.362527,73.000000,1.000000,3981.025635,4382.734863,3934.530029,4084.273438,4037.264893,16173.000000,4.000000,,,,0.000000,4.000000,4.000000,4.000000,4.000000,4.000000,,,,,,,,,,,,,,,,,,,,,,,,,
1577422355.370254,74.000000,1.000000,3993.675293,4390.313477,3932.706543,4081.595459,4043.532715,450.000000,4.000000,,,,0.000000,4.000000,4.000000,4.000000,4.000000,4.000000,,,,,,,,,,,,,,,,,,,,,,,,,
1577422355.377981,75.000000,1.000000,4006.324707,4397.891602,3930.883301,4078.917480,4049.800537,16211.000000,4.000000,,,,0.000000,4.000000,4.000000,4.000000,4.000000,4.000000,,,,,,,,,,,,,,,,,,,,,,,,,
1577422355.385709,76.000000,1.000000,4018.974365,4405.470215,3929.059814,4076.239258,4056.068359,450.000000,4.000000,,,,0.000000,4.000000,4.000000,4.000000,4.000000,4.000000,,,,,,,,,,,,,,,,,,,,,,,,,
1577422355.393436,77.000000,1.000000,4031.624023,4413.048340,3927.236572,4073.561279,4062.336182,450.000000,4.000000,,,,0.000000,4.000000,4.000000,4.000000,4.000000,4.000000,,,,,,,,,,,,,,,,,,,,,,,,,
1577422355.401163,78.000000,1.000000,4044.273438,4420.626953,3925.413086,4070.883301,4068.604004,450.000000,4.000000,,,,0.000000,4.000000,4.000000,4.000000,4.000000,4.000000,17.797180,3.903654,2.261240,1.534718,2.089648,7.882742,1.247020,1.282029,1.411620,1.990237,105.806007,6.868178,2.437924,2.228230,1.781780,1.983275,1.991343,1.179972,1.573913,1.800012,8.754290,3.999561,1.742851,1.844679,2.348564
1577422355.408890,79.000000,0.000000,4056.923096,4428.205078,3923.589844,4068.205078,4074.871826,16224.000000,4.000000,,,,0.000000,4.000000,4.000000,4.000000,4.000000,4.000000,,,,,,,,,,,,,,,,,,,,,,,,,
1577422355.416617,80.000000,0.000000,4133.846191,4455.384766,3947.692383,4096.922852,4132.820313,450.000000,4.000000,,,,0.000000,4.000000,4.000000,4.000000,4.000000,4.000000,,,,,,,,,,,,,,,,,,,,,,,,,
1577422355.424428,81.000000,0.000000,4201.538574,4449.230957,3971.794922,4120.000000,4183.589844,450.000000,4.000000,,,,0.000000,4.000000,4.000000,4.000000,4.000000,4.000000,,,,,,,,,,,,,,,,,,,,,,,,,
1577422355.432138,82.000000,0.000000,4261.538574,4426.666504,3977.435791,4118.974121,4206.666504,450.000000,4.000000,,,,0.000000,4.000000,4.000000,4.000000,4.000000,4.000000,,,,,,,,,,,,,,,,,,,,,,,,,
1577422355.439952,83.000000,0.000000,4317.436035,4423.589844,3979.487061,4118.461426,4236.410156,16224.000000,4.000000,,,,0.000000,4.000000,4.000000,4.000000,4.000000,4.000000,,,,,,,,,,,,,,,,,,,,,,,,,
1577422355.447768,84.000000,0.000000,4320.000000,4427.179688,3981.538574,4120.512695,4244.615234,450.000000,4.000000,,,,0.000000,4.000000,4.000000,4.000000,4.000000,4.000000,,,,,,,,,,,,,,,,,,,,,,,,,
1577422355.455586,85.000000,0.000000,4278.974121,4405.641113,3971.794922,4103.077148,4220.000000,450.000000,4.000000,,,,0.000000,4.000000,4.000000,4.000000,4.000000,4.000000,,,,,,,,,,,,,,,,,,,,,,,,,
1577422355.463304,86.000000,0.000000,4274.871582,4393.846191,3978.461426,4113.846191,4230.256348,450.000000,4.000000,,,,0.000000,4.000000,4.000000,4.000000,4.000000,4.000000,,,,,,,,,,,,,,,,,,,,,,,,,
1577422355.471122,87.000000,0.000000,4271.282227,4402.051270,3985.641113,4130.769043,4240.000000,16224.000000,4.000000,,,,0.000000,4.000000,4.000000,4.000000,4.000000,4.000000,,,,,,,,,,,,,,,,,,,,,,,,,
1577422355.478840,88.000000,0.000000,4224.615234,4392.820313,3971.281982,4111.794922,4210.769043,450.000000,4.000000,,,,0.000000,4.000000,4.000000,4.000000,4.000000,4.000000,,,,,,,,,,,,,,,,,,,,,,,,,
1577422355.486658,89.000000,0.000000,4202.051270,4375.384766,3982.564209,4123.077148,4206.666504,450.000000,4.000000,,,,0.000000,4.000000,4.000000,4.000000,4.000000,4.000000,,,,,,,,,,,,,,,,,,,,,,,,,
1577422355.494376,90.000000,0.000000,4198.461426,4359.487305,4007.692383,4150.256348,4213.333496,450.000000,4.000000,,,,0.000000,4.000000,4.000000,4.000000,4.000000,4.000000,,,,,,,,,,,,,,,,,,,,,,,,,
1577422355.502194,91.000000,0.000000,4161.025879,4345.641113,4015.384521,4141.538574,4192.820313,16224.000000,4.000000,,,,0.000000,4.000000,4.000000,4.000000,4.000000,4.000000,,,,,,,,,,,,,,,,,,,,,,,,,
1577422355.509912,92.000000,0.000000,4126.666504,4344.615234,4023.589844,4135.384766,4172.307617,450.000000,4.000000,,,,0.000000,4.000000,4.000000,4.000000,4.000000,4.000000,,,,,,,,,,,,,,,,,,,,,,,,,
1577422355.517729,93.000000,0.000000,4120.000000,4359.487305,4037.948730,4142.563965,4160.512695,450.000000,4.000000,,,,0.000000,4.000000,4.000000,4.000000,4.000000,4.000000,,,,,,,,,,,,,,,,,,,,,,,,,
1577422355.525447,94.000000,0.000000,4106.666504,4376.922852,4053.333252,4142.563965,4143.589844,450.000000,4.000000,,,,0.000000,4.000000,4.000000,4.000000,4.000000,4.000000,13.358556,4.485590,2.238127,1.410302,2.006146,9.196280,1.111538,1.316673,1.229589,2.015711,112.208336,6.563666,2.481424,1.988010,1.764257,1.774281,1.515614,1.028652,1.407734,1.810210,6.740294,4.655619,1.867562,1.667283,2.322263
1577422355.533265,95.000000,0.000000,4076.410156,4369.743652,4058.461426,4132.307617,4122.051270,16224.000000,4.000000,,,,0.000000,4.000000,4.000000,4.000000,4.000000,4.000000,,,,,,,,,,,,,,,,,,,,,,,,,
1577422355.540982,96.000000,0.000000,4064.102539,4357.948730,4058.461426,4133.846191,4113.846191,450.000000,4.000000,,,,0.000000,4.000000,4.000000,4.000000,4.000000,4.000000,,,,,,,,,,,,,,,,,,,,,,,,,
1577422355.548800,97.000000,0.000000,4066.153809,4364.102539,4062.051270,4140.512695,4107.179688,450.000000,4.000000,,,,0.000000,4.000000,4.000000,4.000000,4.000000,4.000000,,,,,,,,,,,,,,,,,,,,,,,,,
1577422355.556517,98.000000,0.000000,4075.897461,4373.846191,4080.512939,4158.461426,4118.461426,450.000000,4.000000,,,,0.000000,4.000000,4.000000,4.000000,4.000000,4.000000,,,,,,,,,,,,,,,,,,,,,,,,,
