title:l4, start timestamp:2019-12-27T07:53:14.763863+03:00, stop timestamp:2019-12-27T07:53:47.118485+03:00, headset type:INSIGHT, headset serial:A2D200FB, headset firmware:930, subject name:Qasim, channels:44, sampling rate:eeg_128;pow_8, samples:4141      , version:2.0
Timestamp,EEG.Counter,EEG.Interpolated,EEG.AF3,EEG.T7,EEG.Pz,EEG.T8,EEG.AF4,EEG.RawCq,EEG.Battery,MarkerIndex,MarkerType,MarkerValueInt,EEG.MarkerHardware,CQ.AF3,CQ.T7,CQ.Pz,CQ.T8,CQ.AF4,POW.AF3.Theta,POW.AF3.Alpha,POW.AF3.BetaL,POW.AF3.BetaH,POW.AF3.Gamma,POW.T7.Theta,POW.T7.Alpha,POW.T7.BetaL,POW.T7.BetaH,POW.T7.Gamma,POW.Pz.Theta,POW.Pz.Alpha,POW.Pz.BetaL,POW.Pz.BetaH,POW.Pz.Gamma,POW.T8.Theta,POW.T8.Alpha,POW.T8.BetaL,POW.T8.BetaH,POW.T8.Gamma,POW.AF4.Theta,POW.AF4.Alpha,POW.AF4.BetaL,POW.AF4.BetaH,POW.AF4.Gamma
1577422394.763863,6.000000,0.000000,4285.641113,4356.922852,3948.718018,4199.487305,4253.846191,16178.000000,4.000000,,,,0.000000,4.000000,4.000000,4.000000,4.000000,4.000000,,,,,,,,,,,,,,,,,,,,,,,,,
1577422394.771725,7.000000,0.000000,4283.077148,4337.436035,3922.564209,4174.871582,4258.461426,450.000000,4.000000,,,,0.000000,4.000000,4.000000,4.000000,4.000000,4.000000,,,,,,,,,,,,,,,,,,,,,,,,,
1577422394.779487,8.000000,0.000000,4277.436035,4312.307617,3924.102539,4139.487305,4258.461426,450.000000,4.000000,,,,0.000000,4.000000,4.000000,4.000000,4.000000,4.000000,,,,,,,,,,,,,,,,,,,,,,,,,
1577422394.787349,9.000000,0.000000,4352.307617,4354.871582,3975.897461,4169.743652,4295.384766,16181.000000,4.000000,,,,0.000000,4.000000,4.000000,4.000000,4.000000,4.000000,,,,,,,,,,,,,,,,,,,,,,,,,
1577422394.795111,10.000000,0.000000,4309.230957,4294.871582,3892.307617,4070.256348,4231.282227,450.000000,4.000000,,,,0.000000,4.000000,4.000000,4.000000,4.000000,4.000000,,,,,,,,,,,,,,,,,,,,,,,,,
1577422394.802972,11.000000,0.000000,4409.743652,4374.358887,4006.666748,4173.846191,4372.307617,16118.000000,4.000000,,,,0.000000,4.000000,4.000000,4.000000,4.000000,4.000000,,,,,,,,,,,,,,,,,,,,,,,,,
1577422394.810734,12.000000,0.000000,4670.256348,4566.666504,4186.153809,4323.589844,4516.922852,450.000000,4.000000,,,,0.000000,4.000000,4.000000,4.000000,4.000000,4.000000,,,,,,,,,,,,,,,,,,,,,,,,,
1577422394.818596,13.000000,0.000000,4153.846191,4097.948730,3770.256348,3847.179443,4006.153809,450.000000,4.000000,,,,0.000000,4.000000,4.000000,4.000000,4.000000,4.000000,,,,,,,,,,,,,,,,,,,,,,,,,
1577422394.826358,14.000000,0.000000,4193.333496,4149.230957,3917.435791,4098.461426,4257.948730,450.000000,4.000000,,,,0.000000,4.000000,4.000000,4.000000,4.000000,4.000000,24.690266,6.693773,3.043692,12.140210,4.765133,137.223160,18.155674,9.628679,7.494166,4.411501,306.123688,16.026651,3.525315,3.086586,2.288334,21.892084,2.967446,1.736904,2.373360,1.811285,14.117075,4.833729,2.776671,7.300322,3.178018
1577422394.834219,15.000000,0.000000,4775.384766,4595.384766,4221.025879,4416.922852,4630.256348,16118.000000,4.000000,,,,0.000000,4.000000,4.000000,4.000000,4.000000,4.000000,,,,,,,,,,,,,,,,,,,,,,,,,
1577422394.841981,16.000000,0.000000,4331.794922,4214.871582,3827.692383,3840.512939,4071.281982,0.000000,4.000000,,,,0.000000,4.000000,4.000000,4.000000,4.000000,4.000000,,,,,,,,,,,,,,,,,,,,,,,,,
1577422394.849843,17.000000,0.000000,4368.205078,4312.307617,4028.205078,4067.692383,4298.974121,0.000000,4.000000,,,,0.000000,4.000000,4.000000,4.000000,4.000000,4.000000,,,,,,,,,,,,,,,,,,,,,,,,,
1577422394.857604,18.000000,0.000000,4676.922852,4557.948730,4201.025879,4280.000000,4544.102539,0.000000,4.000000,,,,0.000000,4.000000,4.000000,4.000000,4.000000,4.000000,,,,,,,,,,,,,,,,,,,,,,,,,
1577422394.865466,19.000000,0.000000,4501.025879,4423.077148,4059.487061,4072.307617,4360.000000,0.000000,4.000000,,,,0.000000,4.000000,4.000000,4.000000,4.000000,4.000000,,,,,,,,,,,,,,,,,,,,,,,,,
1577422394.873228,20.000000,0.000000,4607.179688,4559.487305,4186.153809,4215.897461,4518.461426,0.000000,4.000000,,,,0.000000,4.000000,4.000000,4.000000,4.000000,4.000000,,,,,,,,,,,,,,,,,,,,,,,,,
1577422394.881089,21.000000,0.000000,4598.461426,4556.922852,4135.897461,4172.307617,4497.436035,0.000000,4.000000,,,,0.000000,4.000000,4.000000,4.000000,4.000000,4.000000,,,,,,,,,,,,,,,,,,,,,,,,,
1577422394.888850,22.000000,0.000000,4582.051270,4555.384766,4121.538574,4164.615234,4511.794922,0.000000,4.000000,,,,0.000000,4.000000,4.000000,4.000000,4.000000,4.000000,,,,,,,,,,,,,,,,,,,,,,,,,
1577422394.896712,23.000000,0.000000,4605.128418,4603.077148,4122.563965,4178.974121,4537.948730,0.000000,4.000000,,,,0.000000,4.000000,4.000000,4.000000,4.000000,4.000000,,,,,,,,,,,,,,,,,,,,,,,,,
1577422394.904574,24.000000,0.000000,4588.717773,4603.077148,4111.794922,4178.974121,4534.358887,0.000000,4.000000,,,,0.000000,4.000000,4.000000,4.000000,4.000000,4.000000,,,,,,,,,,,,,,,,,,,,,,,,,
1577422394.912337,25.000000,0.000000,4659.487305,4624.615234,4158.974121,4248.205078,4606.153809,0.000000,4.000000,,,,0.000000,4.000000,4.000000,4.000000,4.000000,4.000000,,,,,,,,,,,,,,,,,,,,,,,,,
1577422394.920199,26.000000,0.000000,4633.846191,4565.128418,4127.179688,4220.000000,4580.000000,0.000000,4.000000,,,,0.000000,4.000000,4.000000,4.000000,4.000000,4.000000,,,,,,,,,,,,,,,,,,,,,,,,,
1577422394.927961,27.000000,0.000000,4627.179688,4550.769043,4122.563965,4232.307617,4596.410156,0.000000,4.000000,,,,0.000000,4.000000,4.000000,4.000000,4.000000,4.000000,,,,,,,,,,,,,,,,,,,,,,,,,
1577422394.935823,28.000000,0.000000,4671.794922,4579.487305,4129.743652,4253.333496,4632.307617,0.000000,4.000000,,,,0.000000,4.000000,4.000000,4.000000,4.000000,4.000000,,,,,,,,,,,,,,,,,,,,,,,,,
1577422394.943585,29.000000,0.000000,4621.025879,4535.384766,4090.256348,4200.512695,4587.179688,0.000000,4.000000,,,,0.000000,4.000000,4.000000,4.000000,4.000000,4.000000,,,,,,,,,,,,,,,,,,,,,,,,,
1577422394.951447,30.000000,0.000000,4625.641113,4537.948730,4115.897461,4223.077148,4607.179688,0.000000,4.000000,,,,0.000000,4.000000,4.000000,4.000000,4.000000,4.000000,19.551035,10.081464,2.816805,11.976941,4.565171,83.363953,15.551134,6.705765,7.696093,4.253016,234.215317,14.624108,2.980767,2.838239,2.149287,14.185004,3.312935,1.574477,2.116218,1.687189,10.925400,6.619536,2.478903,7.051320,3.042336
1577422394.959310,31.000000,0.000000,4667.179688,4562.051270,4144.102539,4252.820313,4635.384766,0.000000,4.000000,,,,0.000000,4.000000,4.000000,4.000000,4.000000,4.000000,,,,,,,,,,,,,,,,,,,,,,,,,
1577422394.967073,32.000000,0.000000,4653.846191,4557.948730,4128.717773,4245.641113,4627.179688,0.000000,4.000000,,,,0.000000,4.000000,4.000000,4.000000,4.000000,4.000000,,,,,,,,,,,,,,,,,,,,,,,,,
1577422394.974836,33.000000,0.000000,4653.846191,4551.794922,4113.333496,4256.922852,4629.743652,0.000000,4.000000,,,,0.000000,4.000000,4.000000,4.000000,4.000000,4.000000,,,,,,,,,,,,,,,,,,,,,,,,,
1577422394.982698,34.000000,0.000000,4647.692383,4523.589844,4092.820557,4260.000000,4623.077148,0.000000,4.000000,,,,0.000000,4.000000,4.000000,4.000000,4.000000,4.000000,,,,,,,,,,,,,,,,,,,,,,,,,
1577422394.990460,35.000000,0.000000,4638.461426,4523.589844,4088.718018,4266.666504,4625.641113,0.000000,4.000000,,,,0.000000,4.000000,4.000000,4.000000,4.000000,4.000000,,,,,,,,,,,,,,,,,,,,,,,,,
1577422394.998322,36.000000,0.000000,4617.948730,4519.487305,4070.256348,4251.794922,4605.128418,0.000000,4.000000,,,,0.000000,4.000000,4.000000,4.000000,4.000000,4.000000,,,,,,,,,,,,,,,,,,,,,,,,,
1577422395.006184,37.000000,0.000000,4623.589844,4503.077148,4061.025635,4254.358887,4602.563965,0.000000,4.000000,,,,0.000000,4.000000,4.000000,4.000000,4.000000,4.000000,,,,,,,,,,,,,,,,,,,,,,,,,
1577422395.013947,38.000000,0.000000,4655.897461,4503.589844,4069.230713,4282.563965,4633.333496,0.000000,4.000000,,,,0.000000,4.000000,4.000000,4.000000,4.000000,4.000000,,,,,,,,,,,,,,,,,,,,,,,,,
1577422395.021809,39.000000,0.000000,4645.128418,4497.948730,4044.615479,4278.461426,4636.922852,0.000000,4.000000,,,,0.000000,4.000000,4.000000,4.000000,4.000000,4.000000,,,,,,,,,,,,,,,,,,,,,,,,,
1577422395.029572,40.000000,0.000000,4632.307617,4501.538574,4007.179443,4271.282227,4637.948730,0.000000,4.000000,,,,0.000000,4.000000,4.000000,4.000000,4.000000,4.000000,,,,,,,,,,,,,,,,,,,,,,,,,
1577422395.037435,41.000000,0.000000,4640.000000,4508.717773,3977.948730,4271.794922,4646.153809,0.000000,4.000000,,,,0.000000,4.000000,4.000000,4.000000,4.000000,4.000000,,,,,,,,,,,,,,,,,,,,,,,,,
1577422395.045197,42.000000,0.000000,4652.820313,4498.461426,3951.794922,4269.743652,4657.948730,0.000000,4.000000,,,,0.000000,4.000000,4.000000,4.000000,4.000000,4.000000,,,,,,,,,,,,,,,,,,,,,,,,,
1577422395.053060,43.000000,0.000000,4656.410156,4483.589844,3922.564209,4266.153809,4663.589844,0.000000,4.000000,,,,0.000000,4.000000,4.000000,4.000000,4.000000,4.000000,,,,,,,,,,,,,,,,,,,,,,,,,
1577422395.060823,44.000000,0.000000,4648.717773,4493.846191,3904.102539,4277.436035,4663.589844,0.000000,4.000000,,,,0.000000,4.000000,4.000000,4.000000,4.000000,4.000000,,,,,,,,,,,,,,,,,,,,,,,,,
1577422395.068685,45.000000,0.000000,4646.666504,4508.205078,3889.230713,4293.846191,4665.641113,0.000000,4.000000,,,,0.000000,4.000000,4.000000,4.000000,4.000000,4.000000,,,,,,,,,,,,,,,,,,,,,,,,,
1577422395.076447,46.000000,0.000000,4620.512695,4468.717773,3838.461426,4271.282227,4631.282227,0.000000,4.000000,,,,0.000000,4.000000,4.000000,4.000000,4.000000,4.000000,16.991821,13.525715,2.736698,12.181492,5.415237,54.205860,14.982503,5.136598,8.065159,4.669879,186.351028,13.787082,2.670121,2.909003,2.552234,9.384291,3.712676,1.326928,2.052800,2.412787,8.796938,8.535918,2.222424,7.125668,3.786122
1577422395.084310,47.000000,0.000000,4598.461426,4434.871582,3802.564209,4255.384766,4605.128418,0.000000,4.000000,,,,0.000000,4.000000,4.000000,4.000000,4.000000,4.000000,,,,,,,,,,,,,,,,,,,,,,,,,
1577422395.092072,48.000000,0.000000,4611.282227,4451.282227,3815.384521,4272.820313,4617.948730,0.000000,4.000000,,,,0.000000,4.000000,4.000000,4.000000,4.000000,4.000000,,,,,,,,,,,,,,,,,,,,,,,,,
1577422395.099934,49.000000,0.000000,4601.538574,4444.102539,3810.769287,4272.820313,4615.897461,0.000000,4.000000,,,,0.000000,4.000000,4.000000,4.000000,4.000000,4.000000,,,,,,,,,,,,,,,,,,,,,,,,,
1577422395.107697,50.000000,0.000000,4563.589844,4390.256348,3791.281982,4255.384766,4590.769043,0.000000,4.000000,,,,0.000000,4.000000,4.000000,4.000000,4.000000,4.000000,,,,,,,,,,,,,,,,,,,,,,,,,
1577422395.115559,51.000000,0.000000,4533.846191,4340.512695,3786.153809,4242.563965,4564.615234,0.000000,4.000000,,,,0.000000,4.000000,4.000000,4.000000,4.000000,4.000000,,,,,,,,,,,,,,,,,,,,,,,,,
1577422395.123322,52.000000,0.000000,4523.589844,4330.256348,3775.384521,4235.384766,4552.820313,0.000000,4.000000,,,,0.000000,4.000000,4.000000,4.000000,4.000000,4.000000,,,,,,,,,,,,,,,,,,,,,,,,,
1577422395.131184,53.000000,0.000000,4535.384766,4339.487305,3781.025635,4247.692383,4557.948730,0.000000,4.000000,,,,0.000000,4.000000,4.000000,4.000000,4.000000,4.000000,,,,,,,,,,,,,,,,,,,,,,,,,
1577422395.138946,54.000000,0.000000,4538.974121,4324.615234,3805.128174,4263.589844,4555.384766,0.000000,4.000000,,,,0.000000,4.000000,4.000000,4.000000,4.000000,4.000000,,,,,,,,,,,,,,,,,,,,,,,,,
1577422395.146808,55.000000,0.000000,4511.282227,4286.666504,3799.487061,4246.153809,4530.769043,0.000000,4.000000,,,,0.000000,4.000000,4.000000,4.000000,4.000000,4.000000,,,,,,,,,,,,,,,,,,,,,,,,,
1577422395.154671,56.000000,0.000000,4482.563965,4248.717773,3779.487061,4217.436035,4495.384766,0.000000,4.000000,,,,0.000000,4.000000,4.000000,4.000000,4.000000,4.000000,,,,,,,,,,,,,,,,,,,,,,,,,
1577422395.162435,57.000000,0.000000,4470.256348,4215.384766,3783.076904,4216.922852,4477.436035,0.000000,4.000000,,,,0.000000,4.000000,4.000000,4.000000,4.000000,4.000000,,,,,,,,,,,,,,,,,,,,,,,,,
1577422395.170298,58.000000,0.000000,4458.974121,4200.000000,3785.641113,4224.615234,4470.256348,0.000000,4.000000,,,,0.000000,4.000000,4.000000,4.000000,4.000000,4.000000,,,,,,,,,,,,,,,,,,,,,,,,,
1577422395.178061,59.000000,0.000000,4441.538574,4202.051270,3771.794922,4210.769043,4454.871582,0.000000,4.000000,,,,0.000000,4.000000,4.000000,4.000000,4.000000,4.000000,,,,,,,,,,,,,,,,,,,,,,,,,
1577422395.185924,60.000000,0.000000,4422.563965,4200.000000,3750.256348,4185.128418,4444.615234,0.000000,4.000000,,,,0.000000,4.000000,4.000000,4.000000,4.000000,4.000000,,,,,,,,,,,,,,,,,,,,,,,,,
1577422395.193687,61.000000,0.000000,4422.563965,4200.000000,3743.076904,4185.641113,4462.051270,0.000000,4.000000,,,,0.000000,4.000000,4.000000,4.000000,4.000000,4.000000,,,,,,,,,,,,,,,,,,,,,,,,,
1577422395.201549,62.000000,0.000000,4447.179688,4223.589844,3772.307617,4222.563965,4500.000000,0.000000,4.000000,,,,0.000000,4.000000,4.000000,4.000000,4.000000,4.000000,16.403015,16.198740,2.941516,12.809122,8.992583,48.917854,15.974836,4.610196,8.651118,6.857644,165.159378,13.398860,2.608639,3.270496,4.397713,8.044719,4.111043,1.086894,2.259110,5.436070,8.329520,10.427483,2.204907,7.530019,7.033288
1577422395.209312,63.000000,0.000000,4462.051270,4262.563965,3789.743652,4250.769043,4515.897461,0.000000,4.000000,,,,0.000000,4.000000,4.000000,4.000000,4.000000,4.000000,,,,,,,,,,,,,,,,,,,,,,,,,
1577422395.217175,64.000000,0.000000,4451.794922,4283.589844,3755.897461,4243.077148,4500.000000,450.000000,4.000000,,,,0.000000,4.000000,4.000000,4.000000,4.000000,4.000000,,,,,,,,,,,,,,,,,,,,,,,,,
1577422395.224938,65.000000,0.000000,4434.871582,4272.820313,3724.615479,4228.717773,4481.538574,450.000000,4.000000,,,,0.000000,4.000000,4.000000,4.000000,4.000000,4.000000,,,,,,,,,,,,,,,,,,,,,,,,,
1577422395.232801,66.000000,0.000000,4423.077148,4266.666504,3735.897461,4232.307617,4474.871582,16168.000000,4.000000,,,,0.000000,4.000000,4.000000,4.000000,4.000000,4.000000,,,,,,,,,,,,,,,,,,,,,,,,,
1577422395.240564,67.000000,0.000000,4443.589844,4282.563965,3754.871826,4249.230957,4490.256348,450.000000,4.000000,,,,0.000000,4.000000,4.000000,4.000000,4.000000,4.000000,,,,,,,,,,,,,,,,,,,,,,,,,
1577422395.248426,68.000000,0.000000,4468.205078,4268.205078,3748.718018,4255.384766,4510.769043,16149.000000,4.000000,,,,0.000000,4.000000,4.000000,4.000000,4.000000,4.000000,,,,,,,,,,,,,,,,,,,,,,,,,
1577422395.256189,69.000000,0.000000,4438.974121,4214.871582,3724.102539,4229.743652,4491.282227,450.000000,4.000000,,,,0.000000,4.000000,4.000000,4.000000,4.000000,4.000000,,,,,,,,,,,,,,,,,,,,,,,,,
1577422395.264051,70.000000,0.000000,4396.922852,4186.666504,3705.128174,4195.384766,4450.256348,16145.000000,4.000000,,,,0.000000,4.000000,4.000000,4.000000,4.000000,4.000000,,,,,,,,,,,,,,,,,,,,,,,,,
1577422395.271814,71.000000,0.000000,4395.897461,4191.282227,3709.230713,4188.717773,4442.051270,450.000000,4.000000,,,,0.000000,4.000000,4.000000,4.000000,4.000000,4.000000,,,,,,,,,,,,,,,,,,,,,,,,,
1577422395.279677,72.000000,0.000000,4409.230957,4194.358887,3726.666748,4196.410156,4457.948730,450.000000,4.000000,,,,0.000000,4.000000,4.000000,4.000000,4.000000,4.000000,,,,,,,,,,,,,,,,,,,,,,,,,
1577422395.287540,73.000000,0.000000,4407.179688,4195.384766,3742.564209,4201.538574,4468.717773,16151.000000,4.000000,,,,0.000000,4.000000,4.000000,4.000000,4.000000,4.000000,,,,,,,,,,,,,,,,,,,,,,,,,
1577422395.295303,74.000000,0.000000,4410.769043,4212.820313,3763.076904,4220.512695,4478.461426,450.000000,4.000000,,,,0.000000,4.000000,4.000000,4.000000,4.000000,4.000000,,,,,,,,,,,,,,,,,,,,,,,,,
1577422395.303167,75.000000,0.000000,4427.179688,4228.205078,3778.461426,4237.436035,4486.666504,16172.000000,4.000000,,,,0.000000,4.000000,4.000000,4.000000,4.000000,4.000000,,,,,,,,,,,,,,,,,,,,,,,,,
1577422395.310930,76.000000,0.000000,4420.512695,4221.025879,3767.179443,4227.179688,4478.461426,450.000000,4.000000,,,,0.000000,4.000000,4.000000,4.000000,4.000000,4.000000,,,,,,,,,,,,,,,,,,,,,,,,,
1577422395.318693,77.000000,0.000000,4387.179688,4213.846191,3744.615479,4208.205078,4455.384766,450.000000,4.000000,,,,0.000000,4.000000,4.000000,4.000000,4.000000,4.000000,,,,,,,,,,,,,,,,,,,,,,,,,
1577422395.326556,78.000000,0.000000,4376.410156,4229.743652,3738.974365,4207.179688,4448.717773,450.000000,4.000000,,,,0.000000,4.000000,4.000000,4.000000,4.000000,4.000000,16.918831,17.449293,3.433043,13.728625,16.489355,55.636280,17.904804,4.751243,9.336976,11.692364,158.287369,13.047860,2.789818,3.816642,8.318425,8.949514,4.425089,0.922019,2.728138,11.815988,9.103965,12.169316,2.530419,8.113831,13.988566
1577422395.334419,79.000000,0.000000,4402.563965,4266.666504,3754.358887,4220.512695,4473.333496,16172.000000,4.000000,,,,0.000000,4.000000,4.000000,4.000000,4.000000,4.000000,,,,,,,,,,,,,,,,,,,,,,,,,
1577422395.342182,80.000000,0.000000,4416.922852,4294.358887,3768.718018,4223.077148,4486.153809,450.000000,4.000000,,,,0.000000,4.000000,4.000000,4.000000,4.000000,4.000000,,,,,,,,,,,,,,,,,,,,,,,,,
1577422395.350045,81.000000,0.000000,4386.666504,4277.436035,3764.102539,4203.589844,4459.487305,450.000000,4.000000,,,,0.000000,4.000000,4.000000,4.000000,4.000000,4.000000,,,,,,,,,,,,,,,,,,,,,,,,,
1577422395.357808,82.000000,0.000000,4362.563965,4256.410156,3770.256348,4197.948730,4436.410156,450.000000,4.000000,,,,0.000000,4.000000,4.000000,4.000000,4.000000,4.000000,,,,,,,,,,,,,,,,,,,,,,,,,
1577422395.365671,83.000000,0.000000,4377.436035,4267.179688,3812.307617,4217.948730,4452.820313,16172.000000,4.000000,,,,0.000000,4.000000,4.000000,4.000000,4.000000,4.000000,,,,,,,,,,,,,,,,,,,,,,,,,
1577422395.373434,84.000000,0.000000,4381.538574,4272.820313,3848.205078,4222.051270,4470.256348,450.000000,4.000000,,,,0.000000,4.000000,4.000000,4.000000,4.000000,4.000000,,,,,,,,,,,,,,,,,,,,,,,,,
1577422395.381297,85.000000,0.000000,4360.000000,4261.538574,3849.230713,4198.461426,4448.205078,450.000000,4.000000,,,,0.000000,4.000000,4.000000,4.000000,4.000000,4.000000,,,,,,,,,,,,,,,,,,,,,,,,,
1577422395.389061,86.000000,0.000000,4350.769043,4252.307617,3856.410156,4188.717773,4425.641113,450.000000,4.000000,,,,0.000000,4.000000,4.000000,4.000000,4.000000,4.000000,,,,,,,,,,,,,,,,,,,,,,,,,
1577422395.396923,87.000000,0.000000,4364.102539,4255.384766,3887.692383,4206.666504,4430.769043,16172.000000,4.000000,,,,0.000000,4.000000,4.000000,4.000000,4.000000,4.000000,,,,,,,,,,,,,,,,,,,,,,,,,
1577422395.404686,88.000000,0.000000,4381.025879,4275.897461,3906.666748,4218.974121,4438.974121,450.000000,4.000000,,,,0.000000,4.000000,4.000000,4.000000,4.000000,4.000000,,,,,,,,,,,,,,,,,,,,,,,,,
1577422395.412549,89.000000,0.000000,4383.077148,4296.922852,3903.076904,4215.897461,4439.487305,450.000000,4.000000,,,,0.000000,4.000000,4.000000,4.000000,4.000000,4.000000,,,,,,,,,,,,,,,,,,,,,,,,,
1577422395.420312,90.000000,0.000000,4366.153809,4304.615234,3894.871826,4208.717773,4428.717773,450.000000,4.000000,,,,0.000000,4.000000,4.000000,4.000000,4.000000,4.000000,,,,,,,,,,,,,,,,,,,,,,,,,
1577422395.428175,91.000000,0.000000,4355.897461,4311.794922,3887.692383,4205.641113,4415.897461,16172.000000,4.000000,,,,0.000000,4.000000,4.000000,4.000000,4.000000,4.000000,,,,,,,,,,,,,,,,,,,,,,,,,
1577422395.435938,92.000000,0.000000,4364.615234,4310.256348,3883.589844,4206.153809,4420.000000,450.000000,4.000000,,,,0.000000,4.000000,4.000000,4.000000,4.000000,4.000000,,,,,,,,,,,,,,,,,,,,,,,,,
1577422395.443800,93.000000,0.000000,4366.666504,4299.487305,3887.179443,4204.102539,4423.077148,450.000000,4.000000,,,,0.000000,4.000000,4.000000,4.000000,4.000000,4.000000,,,,,,,,,,,,,,,,,,,,,,,,,
1577422395.451664,94.000000,0.000000,4363.589844,4300.512695,3886.153809,4203.589844,4416.410156,450.000000,4.000000,,,,0.000000,4.000000,4.000000,4.000000,4.000000,4.000000,17.202986,17.093456,4.054860,14.577936,27.387089,66.537918,20.440563,5.252603,9.864284,18.879374,146.673538,12.464471,3.155072,4.410673,14.040399,11.191110,4.612542,0.851787,3.348551,21.183231,11.616491,13.645263,3.162154,8.601563,24.256027
1577422395.459427,95.000000,0.000000,4374.358887,4297.948730,3878.461426,4209.743652,4420.000000,16172.000000,4.000000,,,,0.000000,4.000000,4.000000,4.000000,4.000000,4.000000,,,,,,,,,,,,,,,,,,,,,,,,,
1577422395.467191,96.000000,0.000000,4373.846191,4285.128418,3863.076904,4207.692383,4421.538574,450.000000,4.000000,,,,0.000000,4.000000,4.000000,4.000000,4.000000,4.000000,,,,,,,,,,,,,,,,,,,,,,,,,
1577422395.475054,97.000000,0.000000,4358.461426,4283.589844,3844.102539,4200.512695,4407.179688,450.000000,4.000000,,,,0.000000,4.000000,4.000000,4.000000,4.000000,4.000000,,,,,,,,,,,,,,,,,,,,,,,,,
1577422395.482917,98.000000,0.000000,4356.410156,4279.487305,3833.846191,4204.615234,4400.000000,450.000000,4.000000,,,,0.000000,4.000000,4.000000,4.000000,4.000000,4.000000,,,,,,,,,,,,,,,,,,,,,,,,,
1577422395.490681,99.000000,0.000000,4353.846191,4263.077148,3824.615479,4203.589844,4397.436035,16172.000000,4.000000,,,,0.000000,4.000000,4.000000,4.000000,4.000000,4.000000,,,,,,,,,,,,,,,,,,,,,,,,,
1577422395.498444,100.000000,0.000000,4336.922852,4258.461426,3814.358887,4194.871582,4385.128418,450.000000,4.000000,,,,0.000000,4.000000,4.000000,4.000000,4.000000,4.000000,,,,,,,,,,,,,,,,,,,,,,,,,
1577422395.506307,101.000000,0.000000,4331.282227,4264.615234,3813.846191,4194.871582,4377.948730,450.000000,4.000000,,,,0.000000,4.000000,4.000000,4.000000,4.000000,4.000000,,,,,,,,,,,,,,,,,,,,,,,,,
1577422395.514070,102.000000,0.000000,4343.077148,4249.743652,3813.846191,4204.102539,4390.769043,450.000000,4.000000,,,,0.000000,4.000000,4.000000,4.000000,4.000000,4.000000,,,,,,,,,,,,,,,,,,,,,,,,,
1577422395.521932,103.000000,0.000000,4344.102539,4221.025879,3797.435791,4206.153809,4398.461426,16172.000000,4.000000,,,,0.000000,4.000000,4.000000,4.000000,4.000000,4.000000,,,,,,,,,,,,,,,,,,,,,,,,,
1577422395.529695,104.000000,0.000000,4330.256348,4214.358887,3772.307617,4197.948730,4387.692383,450.000000,4.000000,,,,0.000000,4.000000,4.000000,4.000000,4.000000,4.000000,,,,,,,,,,,,,,,,,,,,,,,,,
1577422395.537557,105.000000,0.000000,4326.666504,4223.589844,3757.435791,4194.871582,4382.051270,450.000000,4.000000,,,,0.000000,4.000000,4.000000,4.000000,4.000000,4.000000,,,,,,,,,,,,,,,,,,,,,,,,,
1577422395.545320,106.000000,0.000000,4327.692383,4215.897461,3746.666748,4194.358887,4383.077148,450.000000,4.000000,,,,0.000000,4.000000,4.000000,4.000000,4.000000,4.000000,,,,,,,,,,,,,,,,,,,,,,,,,
1577422395.553182,107.000000,0.000000,4329.743652,4209.230957,3739.487061,4195.384766,4386.153809,16172.000000,4.000000,,,,0.000000,4.000000,4.000000,4.000000,4.000000,4.000000,,,,,,,,,,,,,,,,,,,,,,,,,
1577422395.560944,108.000000,0.000000,4333.846191,4236.922852,3742.564209,4204.102539,4387.692383,450.000000,4.000000,,,,0.000000,4.000000,4.000000,4.000000,4.000000,4.000000,,,,,,,,,,,,,,,,,,,,,,,,,
1577422395.568807,109.000000,0.000000,4327.692383,4262.563965,3748.205078,4204.102539,4378.461426,450.000000,4.000000,,,,0.000000,4.000000,4.000000,4.000000,4.000000,4.000000,,,,,,,,,,,,,,,,,,,,,,,,,
1577422395.576569,110.000000,0.000000,4315.897461,4261.025879,3755.384521,4195.384766,4363.077148,450.000000,4.000000,,,,0.000000,4.000000,4.000000,4.000000,4.000000,4.000000,17.808176,15.455610,4.551959,14.930575,39.165691,78.251457,23.193865,5.782517,9.954793,26.740662,129.313446,11.481715,3.638081,4.927865,20.239624,13.431467,4.726653,0.887107,3.937872,31.445814,15.429659,14.702314,3.909712,8.723668,35.502701
1577422395.584433,111.000000,0.000000,4309.743652,4258.974121,3771.794922,4198.974121,4353.846191,16172.000000,4.000000,,,,0.000000,4.000000,4.000000,4.000000,4.000000,4.000000,,,,,,,,,,,,,,,,,,,,,,,,,
1577422395.592298,112.000000,0.000000,4310.256348,4271.794922,3783.589844,4207.692383,4350.256348,450.000000,4.000000,,,,0.000000,4.000000,4.000000,4.000000,4.000000,4.000000,,,,,,,,,,,,,,,,,,,,,,,,,
1577422395.600063,113.000000,0.000000,4302.051270,4284.102539,3786.666748,4205.128418,4336.410156,450.000000,4.000000,,,,0.000000,4.000000,4.000000,4.000000,4.000000,4.000000,,,,,,,,,,,,,,,,,,,,,,,,,
1577422395.607827,114.000000,0.000000,4278.461426,4275.897461,3786.666748,4196.922852,4317.948730,450.000000,4.000000,,,,0.000000,4.000000,4.000000,4.000000,4.000000,4.000000,,,,,,,,,,,,,,,,,,,,,,,,,
1577422395.615592,115.000000,0.000000,4266.666504,4272.307617,3786.666748,4198.461426,4313.846191,16172.000000,4.000000,,,,0.000000,4.000000,4.000000,4.000000,4.000000,4.000000,,,,,,,,,,,,,,,,,,,,,,,,,
1577422395.623455,116.000000,0.000000,4282.051270,4295.384766,3790.769287,4212.307617,4327.179688,450.000000,4.000000,,,,0.000000,4.000000,4.000000,4.000000,4.000000,4.000000,,,,,,,,,,,,,,,,,,,,,,,,,
1577422395.631218,117.000000,0.000000,4292.820313,4298.974121,3790.256348,4210.256348,4330.769043,450.000000,4.000000,,,,0.000000,4.000000,4.000000,4.000000,4.000000,4.000000,,,,,,,,,,,,,,,,,,,,,,,,,
1577422395.639081,118.000000,0.000000,4299.487305,4280.000000,3800.000000,4204.102539,4331.794922,450.000000,4.000000,,,,0.000000,4.000000,4.000000,4.000000,4.000000,4.000000,,,,,,,,,,,,,,,,,,,,,,,,,
1577422395.646844,119.000000,0.000000,4333.846191,4296.922852,3833.846191,4233.333496,4363.077148,16172.000000,4.000000,,,,0.000000,4.000000,4.000000,4.000000,4.000000,4.000000,,,,,,,,,,,,,,,,,,,,,,,,,
1577422395.654707,120.000000,0.000000,4341.538574,4312.307617,3848.205078,4250.769043,4376.410156,450.000000,4.000000,,,,0.000000,4.000000,4.000000,4.000000,4.000000,4.000000,,,,,,,,,,,,,,,,,,,,,,,,,
1577422395.662469,121.000000,0.000000,4292.307617,4286.153809,3829.230713,4217.948730,4338.461426,450.000000,4.000000,,,,0.000000,4.000000,4.000000,4.000000,4.000000,4.000000,,,,,,,,,,,,,,,,,,,,,,,,,
1577422395.670332,122.000000,0.000000,4260.000000,4261.025879,3814.871826,4194.871582,4311.794922,450.000000,4.000000,,,,0.000000,4.000000,4.000000,4.000000,4.000000,4.000000,,,,,,,,,,,,,,,,,,,,,,,,,
1577422395.678095,123.000000,0.000000,4259.487305,4254.358887,3813.333252,4198.461426,4303.589844,16172.000000,4.000000,,,,0.000000,4.000000,4.000000,4.000000,4.000000,4.000000,,,,,,,,,,,,,,,,,,,,,,,,,
1577422395.685958,124.000000,0.000000,4248.205078,4262.563965,3804.615479,4190.769043,4286.666504,450.000000,4.000000,,,,0.000000,4.000000,4.000000,4.000000,4.000000,4.000000,,,,,,,,,,,,,,,,,,,,,,,,,
1577422395.693720,125.000000,0.000000,4236.922852,4280.000000,3803.076904,4182.563965,4280.512695,450.000000,4.000000,,,,0.000000,4.000000,4.000000,4.000000,4.000000,4.000000,,,,,,,,,,,,,,,,,,,,,,,,,
1577422395.701583,126.000000,0.000000,4227.179688,4291.794922,3812.820557,4179.487305,4273.846191,450.000000,4.000000,,,,0.000000,4.000000,4.000000,4.000000,4.000000,4.000000,17.738766,13.096150,4.720790,14.439137,48.152180,88.377304,25.926527,6.135808,9.435004,32.786835,107.912163,10.053775,4.151024,5.245680,24.999887,15.187488,4.836968,1.025801,4.304471,39.489635,19.871695,15.161648,4.532506,8.324482,44.254158
1577422395.709346,127.000000,0.000000,4212.307617,4303.077148,3809.743652,4166.153809,4257.948730,234.000000,4.000000,,,,0.000000,4.000000,4.000000,4.000000,4.000000,4.000000,,,,,,,,,,,,,,,,,,,,,,,,,
1577422395.717208,0.000000,0.000000,4214.871582,4332.307617,3810.769287,4167.692383,4262.563965,450.000000,4.000000,,,,0.000000,4.000000,4.000000,4.000000,4.000000,4.000000,,,,,,,,,,,,,,,,,,,,,,,,,
1577422395.724971,1.000000,0.000000,4223.077148,4347.179688,3826.153809,4179.487305,4274.871582,450.000000,4.000000,,,,0.000000,4.000000,4.000000,4.000000,4.000000,4.000000,,,,,,,,,,,,,,,,,,,,,,,,,
1577422395.732833,2.000000,0.000000,4230.769043,4347.692383,3854.871826,4186.153809,4285.128418,16211.000000,4.000000,,,,0.000000,4.000000,4.000000,4.000000,4.000000,4.000000,,,,,,,,,,,,,,,,,,,,,,,,,
1577422395.740696,3.000000,0.000000,4250.769043,4387.692383,3890.256348,4205.641113,4304.615234,450.000000,4.000000,,,,0.000000,4.000000,4.000000,4.000000,4.000000,4.000000,,,,,,,,,,,,,,,,,,,,,,,,,
1577422395.748460,4.000000,0.000000,4269.230957,4443.589844,3913.333252,4227.179688,4316.410156,16176.000000,4.000000,,,,0.000000,4.000000,4.000000,4.000000,4.000000,4.000000,,,,,,,,,,,,,,,,,,,,,,,,,
1577422395.756323,5.000000,0.000000,4275.384766,4463.077148,3935.897461,4230.256348,4314.871582,450.000000,4.000000,,,,0.000000,4.000000,4.000000,4.000000,4.000000,4.000000,,,,,,,,,,,,,,,,,,,,,,,,,
1577422395.764087,6.000000,0.000000,4275.897461,4455.384766,3971.281982,4225.641113,4317.948730,16167.000000,4.000000,,,,0.000000,4.000000,4.000000,4.000000,4.000000,4.000000,,,,,,,,,,,,,,,,,,,,,,,,,
1577422395.771950,7.000000,0.000000,4260.000000,4476.922852,3999.487061,4217.436035,4309.743652,450.000000,4.000000,,,,0.000000,4.000000,4.000000,4.000000,4.000000,4.000000,,,,,,,,,,,,,,,,,,,,,,,,,
1577422395.779713,8.000000,0.000000,4243.077148,4526.666504,4009.230713,4205.641113,4288.717773,450.000000,4.000000,,,,0.000000,4.000000,4.000000,4.000000,4.000000,4.000000,,,,,,,,,,,,,,,,,,,,,,,,,
1577422395.787576,9.000000,0.000000,4239.487305,4547.692383,4009.743652,4190.769043,4278.974121,16173.000000,4.000000,,,,0.000000,4.000000,4.000000,4.000000,4.000000,4.000000,,,,,,,,,,,,,,,,,,,,,,,,,
1577422395.795339,10.000000,0.000000,4227.179688,4537.436035,4002.051270,4174.358887,4271.282227,450.000000,4.000000,,,,0.000000,4.000000,4.000000,4.000000,4.000000,4.000000,,,,,,,,,,,,,,,,,,,,,,,,,
1577422395.803202,11.000000,0.000000,4218.974121,4533.333496,4004.102539,4164.615234,4260.000000,16210.000000,4.000000,,,,0.000000,4.000000,4.000000,4.000000,4.000000,4.000000,,,,,,,,,,,,,,,,,,,,,,,,,
1577422395.810965,12.000000,0.000000,4223.589844,4541.538574,4026.153809,4163.589844,4253.846191,450.000000,4.000000,,,,0.000000,4.000000,4.000000,4.000000,4.000000,4.000000,,,,,,,,,,,,,,,,,,,,,,,,,
1577422395.818728,13.000000,0.000000,4225.128418,4534.358887,4047.692383,4168.717773,4261.025879,450.000000,4.000000,,,,0.000000,4.000000,4.000000,4.000000,4.000000,4.000000,,,,,,,,,,,,,,,,,,,,,,,,,
1577422395.826590,14.000000,0.000000,4234.871582,4522.051270,4067.692383,4180.000000,4283.077148,450.000000,4.000000,,,,0.000000,4.000000,4.000000,4.000000,4.000000,4.000000,17.976191,10.672292,4.464551,12.984371,51.154781,92.545563,28.258522,6.202532,8.331281,34.843037,89.815521,8.871998,4.535424,5.253389,26.652679,15.186841,4.976662,1.246176,4.311314,42.541519,23.485348,14.875769,4.788960,7.417780,47.438339
1577422395.834453,15.000000,0.000000,4244.615234,4526.153809,4085.128174,4176.410156,4297.948730,16210.000000,4.000000,,,,0.000000,4.000000,4.000000,4.000000,4.000000,4.000000,,,,,,,,,,,,,,,,,,,,,,,,,
1577422395.842216,16.000000,0.000000,4230.256348,4536.922852,4081.025635,4149.743652,4289.743652,0.000000,4.000000,,,,0.000000,4.000000,4.000000,4.000000,4.000000,4.000000,,,,,,,,,,,,,,,,,,,,,,,,,
1577422395.850079,17.000000,0.000000,4211.282227,4546.666504,4065.641113,4132.820313,4275.897461,0.000000,4.000000,,,,0.000000,4.000000,4.000000,4.000000,4.000000,4.000000,,,,,,,,,,,,,,,,,,,,,,,,,
1577422395.857943,18.000000,0.000000,4228.205078,4563.589844,4070.769287,4154.871582,4291.282227,0.000000,4.000000,,,,0.000000,4.000000,4.000000,4.000000,4.000000,4.000000,,,,,,,,,,,,,,,,,,,,,,,,,
1577422395.865706,19.000000,0.000000,4238.461426,4564.615234,4069.743652,4168.717773,4298.461426,0.000000,4.000000,,,,0.000000,4.000000,4.000000,4.000000,4.000000,4.000000,,,,,,,,,,,,,,,,,,,,,,,,,
1577422395.873470,20.000000,0.000000,4216.410156,4543.589844,4053.846191,4158.461426,4279.487305,0.000000,4.000000,,,,0.000000,4.000000,4.000000,4.000000,4.000000,4.000000,,,,,,,,,,,,,,,,,,,,,,,,,
1577422395.881333,21.000000,0.000000,4202.563965,4537.436035,4043.076904,4149.743652,4268.205078,0.000000,4.000000,,,,0.000000,4.000000,4.000000,4.000000,4.000000,4.000000,,,,,,,,,,,,,,,,,,,,,,,,,
1577422395.889096,22.000000,0.000000,4195.384766,4527.179688,4022.051270,4136.410156,4260.000000,0.000000,4.000000,,,,0.000000,4.000000,4.000000,4.000000,4.000000,4.000000,,,,,,,,,,,,,,,,,,,,,,,,,
1577422395.896959,23.000000,0.000000,4212.307617,4517.948730,4023.589844,4152.307617,4273.333496,0.000000,4.000000,,,,0.000000,4.000000,4.000000,4.000000,4.000000,4.000000,,,,,,,,,,,,,,,,,,,,,,,,,
1577422395.904822,24.000000,0.000000,4254.871582,4533.333496,4053.846191,4191.794922,4308.717773,0.000000,4.000000,,,,0.000000,4.000000,4.000000,4.000000,4.000000,4.000000,,,,,,,,,,,,,,,,,,,,,,,,,
1577422395.912586,25.000000,0.000000,4254.358887,4528.205078,4043.076904,4186.666504,4311.282227,0.000000,4.000000,,,,0.000000,4.000000,4.000000,4.000000,4.000000,4.000000,,,,,,,,,,,,,,,,,,,,,,,,,
1577422395.920449,26.000000,0.000000,4229.230957,4478.461426,4010.256348,4166.666504,4292.820313,0.000000,4.000000,,,,0.000000,4.000000,4.000000,4.000000,4.000000,4.000000,,,,,,,,,,,,,,,,,,,,,,,,,
1577422395.928213,27.000000,0.000000,4231.794922,4428.717773,4012.307617,4175.897461,4294.871582,0.000000,4.000000,,,,0.000000,4.000000,4.000000,4.000000,4.000000,4.000000,,,,,,,,,,,,,,,,,,,,,,,,,
1577422395.935977,28.000000,0.000000,4242.051270,4421.538574,4031.281982,4182.563965,4302.563965,0.000000,4.000000,,,,0.000000,4.000000,4.000000,4.000000,4.000000,4.000000,,,,,,,,,,,,,,,,,,,,,,,,,
1577422395.943839,29.000000,0.000000,4254.871582,4426.666504,4044.615479,4176.410156,4304.102539,0.000000,4.000000,,,,0.000000,4.000000,4.000000,4.000000,4.000000,4.000000,,,,,,,,,,,,,,,,,,,,,,,,,
1577422395.951602,30.000000,0.000000,4258.974121,4393.846191,4049.230713,4170.769043,4302.051270,0.000000,4.000000,,,,0.000000,4.000000,4.000000,4.000000,4.000000,4.000000,17.863724,8.786690,3.820165,10.758804,46.995663,89.454147,29.548672,5.974551,6.823180,32.086887,74.418251,8.178903,4.630827,4.911485,24.572216,13.649315,5.156153,1.491160,3.945303,39.486752,25.048035,13.935980,4.553230,6.185230,43.852196
1577422395.959464,31.000000,0.000000,4244.615234,4378.974121,4057.948730,4167.692383,4293.846191,0.000000,4.000000,,,,0.000000,4.000000,4.000000,4.000000,4.000000,4.000000,,,,,,,,,,,,,,,,,,,,,,,,,
1577422395.967328,32.000000,0.000000,4244.102539,4414.358887,4074.871826,4168.205078,4292.820313,0.000000,4.000000,,,,0.000000,4.000000,4.000000,4.000000,4.000000,4.000000,,,,,,,,,,,,,,,,,,,,,,,,,
1577422395.975091,33.000000,0.000000,4247.692383,4416.410156,4081.538574,4167.179688,4289.230957,0.000000,4.000000,,,,0.000000,4.000000,4.000000,4.000000,4.000000,4.000000,,,,,,,,,,,,,,,,,,,,,,,,,
1577422395.982954,34.000000,0.000000,4225.641113,4386.666504,4073.846191,4151.794922,4267.179688,0.000000,4.000000,,,,0.000000,4.000000,4.000000,4.000000,4.000000,4.000000,,,,,,,,,,,,,,,,,,,,,,,,,
1577422395.990718,35.000000,0.000000,4198.974121,4387.179688,4074.871826,4130.256348,4244.102539,0.000000,4.000000,,,,0.000000,4.000000,4.000000,4.000000,4.000000,4.000000,,,,,,,,,,,,,,,,,,,,,,,,,
1577422395.998581,36.000000,0.000000,4194.871582,4410.256348,4090.769287,4126.666504,4236.410156,0.000000,4.000000,,,,0.000000,4.000000,4.000000,4.000000,4.000000,4.000000,,,,,,,,,,,,,,,,,,,,,,,,,
1577422396.006445,37.000000,0.000000,4190.256348,4417.436035,4092.307617,4126.153809,4232.307617,0.000000,4.000000,,,,0.000000,4.000000,4.000000,4.000000,4.000000,4.000000,,,,,,,,,,,,,,,,,,,,,,,,,
1577422396.014209,38.000000,0.000000,4190.256348,4417.436035,4086.153809,4126.153809,4236.410156,0.000000,4.000000,,,,0.000000,4.000000,4.000000,4.000000,4.000000,4.000000,,,,,,,,,,,,,,,,,,,,,,,,,
1577422396.021973,39.000000,0.000000,4212.307617,4425.641113,4101.025879,4137.948730,4253.333496,0.000000,4.000000,,,,0.000000,4.000000,4.000000,4.000000,4.000000,4.000000,,,,,,,,,,,,,,,,,,,,,,,,,
1577422396.029836,40.000000,0.000000,4221.538574,4436.922852,4115.384766,4141.538574,4257.948730,0.000000,4.000000,,,,0.000000,4.000000,4.000000,4.000000,4.000000,4.000000,,,,,,,,,,,,,,,,,,,,,,,,,
1577422396.037700,41.000000,0.000000,4228.205078,4447.179688,4116.922852,4148.205078,4262.563965,0.000000,4.000000,,,,0.000000,4.000000,4.000000,4.000000,4.000000,4.000000,,,,,,,,,,,,,,,,,,,,,,,,,
1577422396.045464,42.000000,0.000000,4239.487305,4448.205078,4111.282227,4155.897461,4270.769043,0.000000,4.000000,,,,0.000000,4.000000,4.000000,4.000000,4.000000,4.000000,,,,,,,,,,,,,,,,,,,,,,,,,
1577422396.053228,43.000000,0.000000,4225.128418,4457.436035,4105.128418,4138.461426,4264.102539,0.000000,4.000000,,,,0.000000,4.000000,4.000000,4.000000,4.000000,4.000000,,,,,,,,,,,,,,,,,,,,,,,,,
1577422396.061091,44.000000,0.000000,4218.461426,4487.692383,4112.820313,4123.589844,4261.025879,0.000000,4.000000,,,,0.000000,4.000000,4.000000,4.000000,4.000000,4.000000,,,,,,,,,,,,,,,,,,,,,,,,,
1577422396.068854,45.000000,0.000000,4223.589844,4493.846191,4115.897461,4120.512695,4255.897461,0.000000,4.000000,,,,0.000000,4.000000,4.000000,4.000000,4.000000,4.000000,,,,,,,,,,,,,,,,,,,,,,,,,
1577422396.076717,46.000000,0.000000,4206.666504,4480.512695,4103.077148,4110.769043,4236.922852,0.000000,4.000000,,,,0.000000,4.000000,4.000000,4.000000,4.000000,4.000000,16.993099,7.875588,2.971818,8.208533,37.071625,80.600311,29.095978,5.604473,5.192967,25.445019,65.748428,8.066827,4.412437,4.278743,19.472408,11.045969,5.400960,1.683984,3.326442,31.409302,23.865135,12.809958,3.879180,4.884615,34.742306
1577422396.084480,47.000000,0.000000,4187.692383,4489.743652,4094.871826,4098.974121,4226.666504,0.000000,4.000000,,,,0.000000,4.000000,4.000000,4.000000,4.000000,4.000000,,,,,,,,,,,,,,,,,,,,,,,,,
1577422396.092342,48.000000,0.000000,4176.410156,4497.436035,4094.358887,4094.871826,4226.153809,0.000000,4.000000,,,,0.000000,4.000000,4.000000,4.000000,4.000000,4.000000,,,,,,,,,,,,,,,,,,,,,,,,,
1577422396.100105,49.000000,0.000000,4160.512695,4474.871582,4097.436035,4086.666748,4209.230957,0.000000,4.000000,,,,0.000000,4.000000,4.000000,4.000000,4.000000,4.000000,,,,,,,,,,,,,,,,,,,,,,,,,
1577422396.107968,50.000000,0.000000,4148.205078,4456.410156,4103.589844,4059.487061,4185.128418,0.000000,4.000000,,,,0.000000,4.000000,4.000000,4.000000,4.000000,4.000000,,,,,,,,,,,,,,,,,,,,,,,,,
1577422396.115731,51.000000,0.000000,4142.563965,4466.153809,4116.410156,4031.794922,4179.487305,0.000000,4.000000,,,,0.000000,4.000000,4.000000,4.000000,4.000000,4.000000,,,,,,,,,,,,,,,,,,,,,,,,,
1577422396.123594,52.000000,0.000000,4147.692383,4482.563965,4142.563965,4031.794922,4191.794922,0.000000,4.000000,,,,0.000000,4.000000,4.000000,4.000000,4.000000,4.000000,,,,,,,,,,,,,,,,,,,,,,,,,
1577422396.131356,53.000000,0.000000,4152.307617,4476.410156,4163.589844,4033.846191,4202.051270,0.000000,4.000000,,,,0.000000,4.000000,4.000000,4.000000,4.000000,4.000000,,,,,,,,,,,,,,,,,,,,,,,,,
1577422396.139219,54.000000,0.000000,4135.897461,4479.487305,4170.256348,4008.205078,4186.153809,0.000000,4.000000,,,,0.000000,4.000000,4.000000,4.000000,4.000000,4.000000,,,,,,,,,,,,,,,,,,,,,,,,,
1577422396.147082,55.000000,0.000000,4117.436035,4527.179688,4186.153809,3978.974365,4164.102539,0.000000,4.000000,,,,0.000000,4.000000,4.000000,4.000000,4.000000,4.000000,,,,,,,,,,,,,,,,,,,,,,,,,
1577422396.154846,56.000000,0.000000,4132.307617,4574.358887,4216.922852,3981.538574,4176.410156,0.000000,4.000000,,,,0.000000,4.000000,4.000000,4.000000,4.000000,4.000000,,,,,,,,,,,,,,,,,,,,,,,,,
1577422396.162610,57.000000,0.000000,4144.615234,4576.922852,4228.717773,3988.718018,4189.743652,0.000000,4.000000,,,,0.000000,4.000000,4.000000,4.000000,4.000000,4.000000,,,,,,,,,,,,,,,,,,,,,,,,,
1577422396.170472,58.000000,0.000000,4122.051270,4553.333496,4185.128418,3960.512939,4174.871582,0.000000,4.000000,,,,0.000000,4.000000,4.000000,4.000000,4.000000,4.000000,,,,,,,,,,,,,,,,,,,,,,,,,
1577422396.178335,59.000000,0.000000,4102.563965,4537.436035,4102.563965,3925.128174,4166.153809,0.000000,4.000000,,,,0.000000,4.000000,4.000000,4.000000,4.000000,4.000000,,,,,,,,,,,,,,,,,,,,,,,,,
1577422396.186099,60.000000,0.000000,4097.436035,4541.025879,4024.102539,3911.281982,4167.692383,0.000000,4.000000,,,,0.000000,4.000000,4.000000,4.000000,4.000000,4.000000,,,,,,,,,,,,,,,,,,,,,,,,,
1577422396.193964,61.000000,0.000000,4097.948730,4556.922852,3975.897461,3903.589844,4167.692383,0.000000,4.000000,,,,0.000000,4.000000,4.000000,4.000000,4.000000,4.000000,,,,,,,,,,,,,,,,,,,,,,,,,
1577422396.201829,62.000000,0.000000,4113.846191,4566.153809,3977.948730,3903.589844,4178.974121,0.000000,4.000000,,,,0.000000,4.000000,4.000000,4.000000,4.000000,4.000000,15.132798,8.011179,2.234022,5.875255,24.694307,69.932632,26.465958,5.207151,3.751493,17.145544,61.183727,8.371609,4.025954,3.521347,13.065613,8.553567,5.707098,1.781604,2.647574,21.073946,20.341831,12.105141,3.040550,3.742559,23.199966
1577422396.209595,63.000000,0.000000,4122.563965,4558.461426,4002.051270,3900.512939,4187.179688,0.000000,4.000000,,,,0.000000,4.000000,4.000000,4.000000,4.000000,4.000000,,,,,,,,,,,,,,,,,,,,,,,,,
1577422396.217361,64.000000,0.000000,4115.897461,4547.692383,4020.512939,3882.051270,4188.717773,450.000000,4.000000,,,,0.000000,4.000000,4.000000,4.000000,4.000000,4.000000,,,,,,,,,,,,,,,,,,,,,,,,,
1577422396.225127,65.000000,0.000000,4126.666504,4531.282227,4040.512939,3877.435791,4206.666504,450.000000,4.000000,,,,0.000000,4.000000,4.000000,4.000000,4.000000,4.000000,,,,,,,,,,,,,,,,,,,,,,,,,
1577422396.232991,66.000000,0.000000,4147.179688,4510.256348,4060.000000,3882.564209,4218.461426,16226.000000,4.000000,,,,0.000000,4.000000,4.000000,4.000000,4.000000,4.000000,,,,,,,,,,,,,,,,,,,,,,,,,
1577422396.240755,67.000000,0.000000,4142.051270,4508.205078,4071.794922,3859.487061,4204.615234,450.000000,4.000000,,,,0.000000,4.000000,4.000000,4.000000,4.000000,4.000000,,,,,,,,,,,,,,,,,,,,,,,,,
1577422396.248620,68.000000,0.000000,4131.794922,4516.922852,4074.871826,3827.179443,4198.461426,16185.000000,4.000000,,,,0.000000,4.000000,4.000000,4.000000,4.000000,4.000000,,,,,,,,,,,,,,,,,,,,,,,,,
1577422396.256487,69.000000,0.000000,4136.922852,4503.077148,4076.923096,3824.615479,4209.230957,450.000000,4.000000,,,,0.000000,4.000000,4.000000,4.000000,4.000000,4.000000,,,,,,,,,,,,,,,,,,,,,,,,,
1577422396.264253,70.000000,0.000000,4128.717773,4486.666504,4068.718018,3823.589844,4201.538574,16172.000000,4.000000,,,,0.000000,4.000000,4.000000,4.000000,4.000000,4.000000,,,,,,,,,,,,,,,,,,,,,,,,,
1577422396.272020,71.000000,0.000000,4100.512695,4500.512695,4031.794922,3798.974365,4174.358887,450.000000,4.000000,,,,0.000000,4.000000,4.000000,4.000000,4.000000,4.000000,,,,,,,,,,,,,,,,,,,,,,,,,
1577422396.279786,72.000000,0.000000,4078.461426,4499.487305,3991.281982,3784.615479,4155.384766,450.000000,4.000000,,,,0.000000,4.000000,4.000000,4.000000,4.000000,4.000000,,,,,,,,,,,,,,,,,,,,,,,,,
1577422396.287651,73.000000,0.000000,4069.230713,4463.077148,3967.179443,3790.256348,4154.871582,16173.000000,4.000000,,,,0.000000,4.000000,4.000000,4.000000,4.000000,4.000000,,,,,,,,,,,,,,,,,,,,,,,,,
1577422396.295416,74.000000,0.000000,4062.564209,4448.717773,3938.974365,3791.281982,4155.897461,450.000000,4.000000,,,,0.000000,4.000000,4.000000,4.000000,4.000000,4.000000,,,,,,,,,,,,,,,,,,,,,,,,,
1577422396.303280,75.000000,0.000000,4056.410156,4461.025879,3902.564209,3791.794922,4146.666504,16216.000000,4.000000,,,,0.000000,4.000000,4.000000,4.000000,4.000000,4.000000,,,,,,,,,,,,,,,,,,,,,,,,,
1577422396.311146,76.000000,0.000000,4063.076904,4452.820313,3889.743652,3805.641113,4146.666504,450.000000,4.000000,,,,0.000000,4.000000,4.000000,4.000000,4.000000,4.000000,,,,,,,,,,,,,,,,,,,,,,,,,
1577422396.318911,77.000000,0.000000,4070.256348,4441.538574,3890.256348,3814.871826,4147.179688,450.000000,4.000000,,,,0.000000,4.000000,4.000000,4.000000,4.000000,4.000000,,,,,,,,,,,,,,,,,,,,,,,,,
1577422396.326776,78.000000,0.000000,4058.461426,4429.230957,3867.692383,3806.153809,4126.666504,450.000000,4.000000,,,,0.000000,4.000000,4.000000,4.000000,4.000000,4.000000,12.746739,8.985690,1.872406,4.137506,13.515524,61.420082,21.863304,4.839859,2.729508,9.654938,59.748451,9.153877,3.805880,2.823235,7.246397,7.164769,6.022720,1.796106,2.076194,11.603955,15.656330,12.194018,2.315763,2.876178,12.685244
1577422396.334542,79.000000,0.000000,4039.487061,4381.025879,3837.435791,3794.871826,4101.538574,16216.000000,4.000000,,,,0.000000,4.000000,4.000000,4.000000,4.000000,4.000000,,,,,,,,,,,,,,,,,,,,,,,,,
1577422396.342407,80.000000,0.000000,4028.205078,4357.948730,3833.333252,3799.487061,4090.769287,450.000000,4.000000,,,,0.000000,4.000000,4.000000,4.000000,4.000000,4.000000,,,,,,,,,,,,,,,,,,,,,,,,,
1577422396.350172,81.000000,0.000000,4009.743652,4382.563965,3836.410156,3799.487061,4078.461426,450.000000,4.000000,,,,0.000000,4.000000,4.000000,4.000000,4.000000,4.000000,,,,,,,,,,,,,,,,,,,,,,,,,
1577422396.358037,82.000000,0.000000,3982.051270,4373.846191,3827.179443,3785.128174,4051.281982,450.000000,4.000000,,,,0.000000,4.000000,4.000000,4.000000,4.000000,4.000000,,,,,,,,,,,,,,,,,,,,,,,,,
1577422396.365803,83.000000,0.000000,3965.641113,4343.077148,3825.128174,3787.179443,4040.000000,16216.000000,4.000000,,,,0.000000,4.000000,4.000000,4.000000,4.000000,4.000000,,,,,,,,,,,,,,,,,,,,,,,,,
1577422396.373668,84.000000,0.000000,3952.820557,4349.743652,3829.743652,3795.897461,4035.384521,450.000000,4.000000,,,,0.000000,4.000000,4.000000,4.000000,4.000000,4.000000,,,,,,,,,,,,,,,,,,,,,,,,,
1577422396.381433,85.000000,0.000000,3931.281982,4345.128418,3821.025635,3782.051270,4009.743652,450.000000,4.000000,,,,0.000000,4.000000,4.000000,4.000000,4.000000,4.000000,,,,,,,,,,,,,,,,,,,,,,,,,
1577422396.389298,86.000000,0.000000,3910.769287,4294.358887,3807.179443,3758.461426,3987.692383,450.000000,4.000000,,,,0.000000,4.000000,4.000000,4.000000,4.000000,4.000000,,,,,,,,,,,,,,,,,,,,,,,,,
1577422396.397063,87.000000,0.000000,3885.128174,4261.538574,3792.307617,3738.974365,3972.820557,16216.000000,4.000000,,,,0.000000,4.000000,4.000000,4.000000,4.000000,4.000000,,,,,,,,,,,,,,,,,,,,,,,,,
1577422396.404928,88.000000,0.000000,3856.923096,4276.922852,3785.128174,3726.666748,3949.230713,450.000000,4.000000,,,,0.000000,4.000000,4.000000,4.000000,4.000000,4.000000,,,,,,,,,,,,,,,,,,,,,,,,,
1577422396.412693,89.000000,0.000000,3848.205078,4296.922852,3802.564209,3732.820557,3938.974365,450.000000,4.000000,,,,0.000000,4.000000,4.000000,4.000000,4.000000,4.000000,,,,,,,,,,,,,,,,,,,,,,,,,
1577422396.420558,90.000000,0.000000,3855.897461,4303.077148,3840.512939,3757.435791,3954.358887,450.000000,4.000000,,,,0.000000,4.000000,4.000000,4.000000,4.000000,4.000000,,,,,,,,,,,,,,,,,,,,,,,,,
1577422396.428323,91.000000,0.000000,3851.281982,4310.769043,3870.256348,3773.846191,3961.538574,16216.000000,4.000000,,,,0.000000,4.000000,4.000000,4.000000,4.000000,4.000000,,,,,,,,,,,,,,,,,,,,,,,,,
1577422396.436188,92.000000,0.000000,3836.410156,4318.974121,3888.718018,3776.410156,3951.794922,450.000000,4.000000,,,,0.000000,4.000000,4.000000,4.000000,4.000000,4.000000,,,,,,,,,,,,,,,,,,,,,,,,,
1577422396.443953,93.000000,0.000000,3814.358887,4317.948730,3895.897461,3769.743652,3935.384521,450.000000,4.000000,,,,0.000000,4.000000,4.000000,4.000000,4.000000,4.000000,,,,,,,,,,,,,,,,,,,,,,,,,
1577422396.451818,94.000000,0.000000,3786.666748,4309.230957,3891.281982,3760.512939,3913.333252,450.000000,4.000000,,,,0.000000,4.000000,4.000000,4.000000,4.000000,4.000000,10.721169,10.500892,1.920894,3.074259,5.917079,56.938431,16.322224,4.492640,2.206975,4.591783,59.130653,11.078238,4.093501,2.347622,3.259171,6.877602,6.231414,1.782803,1.691609,5.095428,11.326174,13.039598,1.880703,2.266854,5.492208
1577422396.459683,95.000000,0.000000,3768.205078,4290.256348,3890.769287,3759.487061,3896.410156,16216.000000,4.000000,,,,0.000000,4.000000,4.000000,4.000000,4.000000,4.000000,,,,,,,,,,,,,,,,,,,,,,,,,
1577422396.467449,96.000000,0.000000,3742.564209,4259.487305,3884.102539,3749.743652,3871.281982,450.000000,4.000000,,,,0.000000,4.000000,4.000000,4.000000,4.000000,4.000000,,,,,,,,,,,,,,,,,,,,,,,,,
1577422396.475215,97.000000,0.000000,3707.179443,4237.948730,3879.487061,3736.410156,3844.102539,450.000000,4.000000,,,,0.000000,4.000000,4.000000,4.000000,4.000000,4.000000,,,,,,,,,,,,,,,,,,,,,,,,,
1577422396.483080,98.000000,0.000000,3704.102539,4236.410156,3900.512939,3745.128174,3843.589844,450.000000,4.000000,,,,0.000000,4.000000,4.000000,4.000000,4.000000,4.000000,,,,,,,,,,,,,,,,,,,,,,,,,
1577422396.490845,99.000000,0.000000,3714.871826,4232.307617,3917.435791,3752.307617,3846.153809,16216.000000,4.000000,,,,0.000000,4.000000,4.000000,4.000000,4.000000,4.000000,,,,,,,,,,,,,,,,,,,,,,,,,
1577422396.498709,100.000000,0.000000,3702.051270,4236.922852,3925.641113,3749.230713,3833.846191,450.000000,4.000000,,,,0.000000,4.000000,4.000000,4.000000,4.000000,4.000000,,,,,,,,,,,,,,,,,,,,,,,,,
1577422396.506474,101.000000,0.000000,3688.718018,4241.538574,3951.281982,3748.718018,3826.153809,450.000000,4.000000,,,,0.000000,4.000000,4.000000,4.000000,4.000000,4.000000,,,,,,,,,,,,,,,,,,,,,,,,,
1577422396.514339,102.000000,0.000000,3692.820557,4234.358887,3987.179443,3749.230713,3828.718018,450.000000,4.000000,,,,0.000000,4.000000,4.000000,4.000000,4.000000,4.000000,,,,,,,,,,,,,,,,,,,,,,,,,
1577422396.522103,103.000000,0.000000,3711.281982,4272.820313,4023.589844,3764.102539,3843.589844,16216.000000,4.000000,,,,0.000000,4.000000,4.000000,4.000000,4.000000,4.000000,,,,,,,,,,,,,,,,,,,,,,,,,
1577422396.529968,104.000000,0.000000,3720.512939,4329.743652,4053.846191,3777.948730,3858.461426,450.000000,4.000000,,,,0.000000,4.000000,4.000000,4.000000,4.000000,4.000000,,,,,,,,,,,,,,,,,,,,,,,,,
1577422396.537732,105.000000,0.000000,3697.435791,4330.769043,4063.589844,3766.153809,3845.128174,450.000000,4.000000,,,,0.000000,4.000000,4.000000,4.000000,4.000000,4.000000,,,,,,,,,,,,,,,,,,,,,,,,,
1577422396.545597,106.000000,0.000000,3681.538574,4326.666504,4072.307617,3752.820557,3829.230713,450.000000,4.000000,,,,0.000000,4.000000,4.000000,4.000000,4.000000,4.000000,,,,,,,,,,,,,,,,,,,,,,,,,
1577422396.553462,107.000000,0.000000,3710.256348,4362.563965,4109.230957,3775.897461,3858.974365,16216.000000,4.000000,,,,0.000000,4.000000,4.000000,4.000000,4.000000,4.000000,,,,,,,,,,,,,,,,,,,,,,,,,
1577422396.561227,108.000000,0.000000,3761.025635,4394.871582,4158.974121,3820.000000,3911.281982,450.000000,4.000000,,,,0.000000,4.000000,4.000000,4.000000,4.000000,4.000000,,,,,,,,,,,,,,,,,,,,,,,,,
1577422396.569092,109.000000,0.000000,3767.692383,4392.307617,4167.692383,3820.512939,3911.794922,450.000000,4.000000,,,,0.000000,4.000000,4.000000,4.000000,4.000000,4.000000,,,,,,,,,,,,,,,,,,,,,,,,,
1577422396.576858,110.000000,0.000000,3743.076904,4367.692383,4151.794922,3795.897461,3878.974365,450.000000,4.000000,,,,0.000000,4.000000,4.000000,4.000000,4.000000,4.000000,9.892500,12.129734,2.212815,2.502870,2.227006,55.671890,11.257277,4.079212,2.099600,2.190474,58.436405,15.326832,5.046442,2.167640,1.292750,7.813523,6.218512,1.762451,1.470995,1.911410,8.723810,14.135945,1.733760,1.811632,1.982414
1577422396.584723,111.000000,0.000000,3751.281982,4341.025879,4156.410156,3809.230713,3883.589844,16216.000000,4.000000,,,,0.000000,4.000000,4.000000,4.000000,4.000000,4.000000,,,,,,,,,,,,,,,,,,,,,,,,,
1577422396.592589,112.000000,0.000000,3767.692383,4328.717773,4161.025879,3833.333252,3902.564209,450.000000,4.000000,,,,0.000000,4.000000,4.000000,4.000000,4.000000,4.000000,,,,,,,,,,,,,,,,,,,,,,,,,
1577422396.600355,113.000000,0.000000,3757.948730,4317.436035,4141.538574,3830.256348,3894.358887,450.000000,4.000000,,,,0.000000,4.000000,4.000000,4.000000,4.000000,4.000000,,,,,,,,,,,,,,,,,,,,,,,,,
1577422396.608221,114.000000,0.000000,3755.384521,4300.000000,4111.794922,3825.128174,3886.666748,450.000000,4.000000,,,,0.000000,4.000000,4.000000,4.000000,4.000000,4.000000,,,,,,,,,,,,,,,,,,,,,,,,,
1577422396.616087,115.000000,0.000000,3764.615479,4282.563965,4088.718018,3836.410156,3895.384521,16216.000000,4.000000,,,,0.000000,4.000000,4.000000,4.000000,4.000000,4.000000,,,,,,,,,,,,,,,,,,,,,,,,,
1577422396.623854,116.000000,0.000000,3765.641113,4263.589844,4062.564209,3844.102539,3896.410156,450.000000,4.000000,,,,0.000000,4.000000,4.000000,4.000000,4.000000,4.000000,,,,,,,,,,,,,,,,,,,,,,,,,
1577422396.631621,117.000000,0.000000,3761.538574,4255.384766,4022.051270,3840.512939,3889.230713,450.000000,4.000000,,,,0.000000,4.000000,4.000000,4.000000,4.000000,4.000000,,,,,,,,,,,,,,,,,,,,,,,,,
1577422396.639486,118.000000,0.000000,3760.000000,4251.282227,3977.948730,3838.461426,3883.076904,450.000000,4.000000,,,,0.000000,4.000000,4.000000,4.000000,4.000000,4.000000,,,,,,,,,,,,,,,,,,,,,,,,,
1577422396.647252,119.000000,0.000000,3749.743652,4227.692383,3943.589844,3835.384521,3867.692383,16216.000000,4.000000,,,,0.000000,4.000000,4.000000,4.000000,4.000000,4.000000,,,,,,,,,,,,,,,,,,,,,,,,,
1577422396.655118,120.000000,0.000000,3738.461426,4211.282227,3922.051270,3829.743652,3860.000000,450.000000,4.000000,,,,0.000000,4.000000,4.000000,4.000000,4.000000,4.000000,,,,,,,,,,,,,,,,,,,,,,,,,
1577422396.662884,121.000000,0.000000,3743.076904,4215.384766,3921.538574,3832.307617,3868.205078,450.000000,4.000000,,,,0.000000,4.000000,4.000000,4.000000,4.000000,4.000000,,,,,,,,,,,,,,,,,,,,,,,,,
1577422396.670749,122.000000,0.000000,3753.333252,4208.205078,3923.589844,3838.974365,3867.179443,450.000000,4.000000,,,,0.000000,4.000000,4.000000,4.000000,4.000000,4.000000,,,,,,,,,,,,,,,,,,,,,,,,,
1577422396.678515,123.000000,0.000000,3760.000000,4203.589844,3912.307617,3847.692383,3866.666748,16216.000000,4.000000,,,,0.000000,4.000000,4.000000,4.000000,4.000000,4.000000,,,,,,,,,,,,,,,,,,,,,,,,,
1577422396.686381,124.000000,0.000000,3772.307617,4213.846191,3911.794922,3861.538574,3877.948730,450.000000,4.000000,,,,0.000000,4.000000,4.000000,4.000000,4.000000,4.000000,,,,,,,,,,,,,,,,,,,,,,,,,
1577422396.694247,125.000000,0.000000,3773.333252,4213.846191,3918.974365,3866.666748,3875.897461,450.000000,4.000000,,,,0.000000,4.000000,4.000000,4.000000,4.000000,4.000000,,,,,,,,,,,,,,,,,,,,,,,,,
1577422396.702014,126.000000,0.000000,3767.692383,4216.410156,3923.076904,3868.718018,3867.692383,450.000000,4.000000,,,,0.000000,4.000000,4.000000,4.000000,4.000000,4.000000,10.238015,13.367382,2.483102,2.169391,1.133580,55.366329,7.569005,3.654088,2.254020,1.571286,57.945099,22.593229,6.542422,2.251266,0.690438,8.990261,5.945505,1.774444,1.343003,0.989675,8.087853,14.747285,1.752157,1.438166,0.951360
1577422396.709880,127.000000,0.000000,3774.358887,4228.717773,3929.230713,3876.410156,3872.820557,234.000000,4.000000,,,,0.000000,4.000000,4.000000,4.000000,4.000000,4.000000,,,,,,,,,,,,,,,,,,,,,,,,,
1577422396.717747,0.000000,0.000000,3777.948730,4231.282227,3931.794922,3873.846191,3864.102539,450.000000,4.000000,,,,0.000000,4.000000,4.000000,4.000000,4.000000,4.000000,,,,,,,,,,,,,,,,,,,,,,,,,
1577422396.725514,1.000000,0.000000,3764.102539,4219.487305,3933.846191,3858.461426,3838.461426,450.000000,4.000000,,,,0.000000,4.000000,4.000000,4.000000,4.000000,4.000000,,,,,,,,,,,,,,,,,,,,,,,,,
1577422396.733381,2.000000,0.000000,3767.692383,4215.384766,3955.384521,3868.718018,3846.666748,16213.000000,4.000000,,,,0.000000,4.000000,4.000000,4.000000,4.000000,4.000000,,,,,,,,,,,,,,,,,,,,,,,,,
1577422396.741149,3.000000,0.000000,3802.564209,4233.846191,3992.307617,3908.205078,3881.538574,450.000000,4.000000,,,,0.000000,4.000000,4.000000,4.000000,4.000000,4.000000,,,,,,,,,,,,,,,,,,,,,,,,,
1577422396.749016,4.000000,0.000000,3825.128174,4247.692383,4008.205078,3925.128174,3897.435791,16172.000000,4.000000,,,,0.000000,4.000000,4.000000,4.000000,4.000000,4.000000,,,,,,,,,,,,,,,,,,,,,,,,,
1577422396.756783,5.000000,0.000000,3820.000000,4240.512695,3998.461426,3914.358887,3895.897461,450.000000,4.000000,,,,0.000000,4.000000,4.000000,4.000000,4.000000,4.000000,,,,,,,,,,,,,,,,,,,,,,,,,
1577422396.764650,6.000000,0.000000,3814.358887,4235.384766,3991.281982,3908.205078,3890.256348,16171.000000,4.000000,,,,0.000000,4.000000,4.000000,4.000000,4.000000,4.000000,,,,,,,,,,,,,,,,,,,,,,,,,
1577422396.772417,7.000000,0.000000,3817.948730,4243.077148,3992.307617,3905.641113,3892.307617,450.000000,4.000000,,,,0.000000,4.000000,4.000000,4.000000,4.000000,4.000000,,,,,,,,,,,,,,,,,,,,,,,,,
1577422396.780283,8.000000,0.000000,3823.589844,4248.205078,3996.410156,3903.589844,3901.538574,450.000000,4.000000,,,,0.000000,4.000000,4.000000,4.000000,4.000000,4.000000,,,,,,,,,,,,,,,,,,,,,,,,,
1577422396.788050,9.000000,0.000000,3830.769287,4246.666504,4004.102539,3913.846191,3904.102539,16174.000000,4.000000,,,,0.000000,4.000000,4.000000,4.000000,4.000000,4.000000,,,,,,,,,,,,,,,,,,,,,,,,,
1577422396.795917,10.000000,0.000000,3835.384521,4241.025879,4004.615479,3918.974365,3900.512939,450.000000,4.000000,,,,0.000000,4.000000,4.000000,4.000000,4.000000,4.000000,,,,,,,,,,,,,,,,,,,,,,,,,
1577422396.803684,11.000000,0.000000,3837.948730,4237.436035,4005.641113,3911.794922,3896.923096,16213.000000,4.000000,,,,0.000000,4.000000,4.000000,4.000000,4.000000,4.000000,,,,,,,,,,,,,,,,,,,,,,,,,
1577422396.811551,12.000000,0.000000,3845.128174,4245.641113,4016.410156,3913.333252,3901.025635,450.000000,4.000000,,,,0.000000,4.000000,4.000000,4.000000,4.000000,4.000000,,,,,,,,,,,,,,,,,,,,,,,,,
1577422396.819419,13.000000,0.000000,3851.794922,4258.461426,4022.051270,3919.487061,3903.589844,450.000000,4.000000,,,,0.000000,4.000000,4.000000,4.000000,4.000000,4.000000,,,,,,,,,,,,,,,,,,,,,,,,,
1577422396.827186,14.000000,0.000000,3854.871826,4262.563965,4017.948730,3914.871826,3898.461426,450.000000,4.000000,,,,0.000000,4.000000,4.000000,4.000000,4.000000,4.000000,11.175694,13.875188,2.540628,1.908922,0.955899,54.404194,5.907715,3.294049,2.513953,1.582659,58.621395,32.175968,8.200166,2.488481,0.593355,9.879265,5.506496,1.861897,1.247547,0.897107,8.919538,14.386302,1.810096,1.144631,0.813471
1577422396.835054,15.000000,0.000000,3856.410156,4247.179688,4008.205078,3907.179443,3895.384521,16213.000000,4.000000,,,,0.000000,4.000000,4.000000,4.000000,4.000000,4.000000,,,,,,,,,,,,,,,,,,,,,,,,,
1577422396.842822,16.000000,0.000000,3859.487061,4242.563965,4003.076904,3911.794922,3894.871826,0.000000,4.000000,,,,0.000000,4.000000,4.000000,4.000000,4.000000,4.000000,,,,,,,,,,,,,,,,,,,,,,,,,
1577422396.850689,17.000000,0.000000,3854.871826,4254.358887,3991.281982,3912.820557,3883.589844,0.000000,4.000000,,,,0.000000,4.000000,4.000000,4.000000,4.000000,4.000000,,,,,,,,,,,,,,,,,,,,,,,,,
1577422396.858456,18.000000,0.000000,3847.692383,4246.153809,3975.384521,3907.179443,3870.256348,0.000000,4.000000,,,,0.000000,4.000000,4.000000,4.000000,4.000000,4.000000,,,,,,,,,,,,,,,,,,,,,,,,,
1577422396.866324,19.000000,0.000000,3854.871826,4226.153809,3971.794922,3914.871826,3876.923096,0.000000,4.000000,,,,0.000000,4.000000,4.000000,4.000000,4.000000,4.000000,,,,,,,,,,,,,,,,,,,,,,,,,
1577422396.874091,20.000000,0.000000,3866.153809,4231.282227,3975.897461,3925.641113,3894.358887,0.000000,4.000000,,,,0.000000,4.000000,4.000000,4.000000,4.000000,4.000000,,,,,,,,,,,,,,,,,,,,,,,,,
1577422396.881959,21.000000,0.000000,3868.718018,4250.769043,3980.512939,3933.333252,3898.461426,0.000000,4.000000,,,,0.000000,4.000000,4.000000,4.000000,4.000000,4.000000,,,,,,,,,,,,,,,,,,,,,,,,,
1577422396.889726,22.000000,0.000000,3857.435791,4238.974121,3968.718018,3928.718018,3881.025635,0.000000,4.000000,,,,0.000000,4.000000,4.000000,4.000000,4.000000,4.000000,,,,,,,,,,,,,,,,,,,,,,,,,
1577422396.897493,23.000000,0.000000,3850.769287,4219.487305,3960.000000,3924.615479,3875.897461,0.000000,4.000000,,,,0.000000,4.000000,4.000000,4.000000,4.000000,4.000000,,,,,,,,,,,,,,,,,,,,,,,,,
1577422396.905360,24.000000,0.000000,3862.051270,4227.692383,3967.692383,3934.358887,3895.897461,0.000000,4.000000,,,,0.000000,4.000000,4.000000,4.000000,4.000000,4.000000,,,,,,,,,,,,,,,,,,,,,,,,,
1577422396.913126,25.000000,0.000000,3876.923096,4243.589844,3970.256348,3940.000000,3903.076904,0.000000,4.000000,,,,0.000000,4.000000,4.000000,4.000000,4.000000,4.000000,,,,,,,,,,,,,,,,,,,,,,,,,
1577422396.920993,26.000000,0.000000,3895.897461,4254.871582,3983.076904,3952.820557,3910.256348,0.000000,4.000000,,,,0.000000,4.000000,4.000000,4.000000,4.000000,4.000000,,,,,,,,,,,,,,,,,,,,,,,,,
1577422396.928860,27.000000,0.000000,3917.435791,4253.846191,4012.820557,3971.794922,3932.820557,0.000000,4.000000,,,,0.000000,4.000000,4.000000,4.000000,4.000000,4.000000,,,,,,,,,,,,,,,,,,,,,,,,,
1577422396.936627,28.000000,0.000000,3923.589844,4244.615234,4026.666748,3971.281982,3939.487061,0.000000,4.000000,,,,0.000000,4.000000,4.000000,4.000000,4.000000,4.000000,,,,,,,,,,,,,,,,,,,,,,,,,
1577422396.944494,29.000000,0.000000,3917.948730,4257.436035,4020.512939,3960.000000,3926.666748,0.000000,4.000000,,,,0.000000,4.000000,4.000000,4.000000,4.000000,4.000000,,,,,,,,,,,,,,,,,,,,,,,,,
1577422396.952261,30.000000,0.000000,3910.769287,4271.794922,4012.820557,3947.692383,3918.974365,0.000000,4.000000,,,,0.000000,4.000000,4.000000,4.000000,4.000000,4.000000,11.903064,13.599785,2.401539,1.685125,0.897411,52.589306,6.454676,3.100389,2.764171,1.652447,63.173973,42.108356,9.597820,2.757844,0.581106,10.277463,5.040760,2.050678,1.167222,0.908098,10.154365,13.122486,1.868171,0.967400,0.797937
1577422396.960128,31.000000,0.000000,3912.307617,4258.461426,4011.281982,3942.564209,3924.615479,0.000000,4.000000,,,,0.000000,4.000000,4.000000,4.000000,4.000000,4.000000,,,,,,,,,,,,,,,,,,,,,,,,,
1577422396.967896,32.000000,0.000000,3908.205078,4257.436035,4001.538574,3935.897461,3919.487061,0.000000,4.000000,,,,0.000000,4.000000,4.000000,4.000000,4.000000,4.000000,,,,,,,,,,,,,,,,,,,,,,,,,
1577422396.975762,33.000000,0.000000,3898.461426,4284.102539,3988.205078,3922.564209,3902.051270,0.000000,4.000000,,,,0.000000,4.000000,4.000000,4.000000,4.000000,4.000000,,,,,,,,,,,,,,,,,,,,,,,,,
1577422396.983529,34.000000,0.000000,3943.589844,4308.717773,4013.333252,3946.153809,3934.358887,0.000000,4.000000,,,,0.000000,4.000000,4.000000,4.000000,4.000000,4.000000,,,,,,,,,,,,,,,,,,,,,,,,,
1577422396.991396,35.000000,0.000000,4033.846191,4330.256348,4063.589844,4000.000000,4013.846191,0.000000,4.000000,,,,0.000000,4.000000,4.000000,4.000000,4.000000,4.000000,,,,,,,,,,,,,,,,,,,,,,,,,
1577422396.999264,36.000000,0.000000,4076.923096,4347.692383,4067.692383,4006.666748,4041.025635,0.000000,4.000000,,,,0.000000,4.000000,4.000000,4.000000,4.000000,4.000000,,,,,,,,,,,,,,,,,,,,,,,,,
1577422397.007031,37.000000,0.000000,4080.000000,4350.769043,4040.512939,3978.461426,4024.102539,0.000000,4.000000,,,,0.000000,4.000000,4.000000,4.000000,4.000000,4.000000,,,,,,,,,,,,,,,,,,,,,,,,,
1577422397.014799,38.000000,0.000000,4104.615234,4333.333496,4035.384521,3973.333252,4035.384521,0.000000,4.000000,,,,0.000000,4.000000,4.000000,4.000000,4.000000,4.000000,,,,,,,,,,,,,,,,,,,,,,,,,
1577422397.022666,39.000000,0.000000,4128.205078,4308.205078,4041.538574,3979.487061,4050.256348,0.000000,4.000000,,,,0.000000,4.000000,4.000000,4.000000,4.000000,4.000000,,,,,,,,,,,,,,,,,,,,,,,,,
1577422397.030433,40.000000,0.000000,4124.102539,4300.512695,4036.410156,3975.384521,4040.000000,0.000000,4.000000,,,,0.000000,4.000000,4.000000,4.000000,4.000000,4.000000,,,,,,,,,,,,,,,,,,,,,,,,,
1577422397.038300,41.000000,0.000000,4117.948730,4321.538574,4034.871826,3974.358887,4028.205078,0.000000,4.000000,,,,0.000000,4.000000,4.000000,4.000000,4.000000,4.000000,,,,,,,,,,,,,,,,,,,,,,,,,
1577422397.046067,42.000000,0.000000,4115.384766,4344.615234,4038.461426,3978.461426,4025.641113,0.000000,4.000000,,,,0.000000,4.000000,4.000000,4.000000,4.000000,4.000000,,,,,,,,,,,,,,,,,,,,,,,,,
1577422397.053933,43.000000,0.000000,4103.589844,4344.615234,4045.128174,3980.000000,4030.256348,0.000000,4.000000,,,,0.000000,4.000000,4.000000,4.000000,4.000000,4.000000,,,,,,,,,,,,,,,,,,,,,,,,,
1577422397.061700,44.000000,0.000000,4089.743652,4328.717773,4053.846191,3980.000000,4028.718018,0.000000,4.000000,,,,0.000000,4.000000,4.000000,4.000000,4.000000,4.000000,,,,,,,,,,,,,,,,,,,,,,,,,
1577422397.069567,45.000000,0.000000,4082.051270,4318.974121,4063.076904,3984.615479,4019.487061,0.000000,4.000000,,,,0.000000,4.000000,4.000000,4.000000,4.000000,4.000000,,,,,,,,,,,,,,,,,,,,,,,,,
1577422397.077333,46.000000,0.000000,4084.615479,4331.794922,4078.974365,3998.461426,4021.025635,0.000000,4.000000,,,,0.000000,4.000000,4.000000,4.000000,4.000000,4.000000,12.888153,12.704360,2.202876,1.532784,0.888048,51.200642,8.569503,3.067807,2.902662,1.696923,74.214249,49.285969,10.409635,2.952605,0.597686,10.092665,4.631799,2.304168,1.124719,0.933046,11.895873,11.360199,1.956296,0.927214,0.830447
1577422397.085200,47.000000,0.000000,4082.051270,4333.333496,4094.871826,4008.205078,4025.641113,0.000000,4.000000,,,,0.000000,4.000000,4.000000,4.000000,4.000000,4.000000,,,,,,,,,,,,,,,,,,,,,,,,,
1577422397.092967,48.000000,0.000000,4054.871826,4306.153809,4096.410156,4003.076904,4004.102539,0.000000,4.000000,,,,0.000000,4.000000,4.000000,4.000000,4.000000,4.000000,,,,,,,,,,,,,,,,,,,,,,,,,
1577422397.100833,49.000000,0.000000,4022.564209,4301.025879,4092.307617,3994.871826,3976.410156,0.000000,4.000000,,,,0.000000,4.000000,4.000000,4.000000,4.000000,4.000000,,,,,,,,,,,,,,,,,,,,,,,,,
1577422397.108701,50.000000,0.000000,4010.256348,4308.205078,4085.128174,3995.897461,3973.846191,0.000000,4.000000,,,,0.000000,4.000000,4.000000,4.000000,4.000000,4.000000,,,,,,,,,,,,,,,,,,,,,,,,,
1577422397.116468,51.000000,0.000000,4006.666748,4285.128418,4071.281982,4002.051270,3981.538574,0.000000,4.000000,,,,0.000000,4.000000,4.000000,4.000000,4.000000,4.000000,,,,,,,,,,,,,,,,,,,,,,,,,
1577422397.124336,52.000000,0.000000,3996.410156,4258.974121,4056.410156,4004.615479,3980.512939,0.000000,4.000000,,,,0.000000,4.000000,4.000000,4.000000,4.000000,4.000000,,,,,,,,,,,,,,,,,,,,,,,,,
1577422397.132205,53.000000,1.000000,3987.578369,4248.774902,4047.179443,4002.564209,3974.416016,0.000000,4.000000,,,,0.000000,4.000000,4.000000,4.000000,4.000000,4.000000,,,,,,,,,,,,,,,,,,,,,,,,,
1577422397.139975,54.000000,1.000000,3978.746338,4238.575684,4037.948730,4000.512939,3968.319092,0.000000,4.000000,,,,0.000000,4.000000,4.000000,4.000000,4.000000,4.000000,,,,,,,,,,,,,,,,,,,,,,,,,
1577422397.147745,55.000000,1.000000,3969.914551,4228.375977,4028.718018,3998.461426,3962.222168,0.000000,4.000000,,,,0.000000,4.000000,4.000000,4.000000,4.000000,4.000000,,,,,,,,,,,,,,,,,,,,,,,,,
1577422397.155515,56.000000,1.000000,3961.082520,4218.176758,4019.487061,3996.410156,3956.125244,0.000000,4.000000,,,,0.000000,4.000000,4.000000,4.000000,4.000000,4.000000,,,,,,,,,,,,,,,,,,,,,,,,,
1577422397.163285,57.000000,1.000000,3952.250732,4207.977051,4010.256348,3994.358887,3950.028564,0.000000,4.000000,,,,0.000000,4.000000,4.000000,4.000000,4.000000,4.000000,,,,,,,,,,,,,,,,,,,,,,,,,
1577422397.171054,58.000000,1.000000,3943.418701,4197.777832,4001.025635,3992.307617,3943.931641,0.000000,4.000000,,,,0.000000,4.000000,4.000000,4.000000,4.000000,4.000000,,,,,,,,,,,,,,,,,,,,,,,,,
1577422397.178824,59.000000,1.000000,3934.586914,4187.578125,3991.794922,3990.256348,3937.834717,0.000000,4.000000,,,,0.000000,4.000000,4.000000,4.000000,4.000000,4.000000,,,,,,,,,,,,,,,,,,,,,,,,,
1577422397.186594,60.000000,1.000000,3925.754883,4177.378906,3982.564209,3988.205078,3931.737793,0.000000,4.000000,,,,0.000000,4.000000,4.000000,4.000000,4.000000,4.000000,,,,,,,,,,,,,,,,,,,,,,,,,
1577422397.194364,61.000000,0.000000,3916.923096,4167.179688,3973.333252,3986.153809,3925.641113,0.000000,4.000000,,,,0.000000,4.000000,4.000000,4.000000,4.000000,4.000000,,,,,,,,,,,,,,,,,,,,,,,,,
1577422397.202228,62.000000,0.000000,3900.000000,4172.820313,3978.461426,3972.307617,3913.333252,0.000000,4.000000,,,,0.000000,4.000000,4.000000,4.000000,4.000000,4.000000,15.337231,11.446273,2.167829,1.487306,0.913047,52.810795,11.109143,3.091779,2.852538,1.691731,92.595261,51.117950,10.459036,2.990790,0.620059,9.797920,4.277375,2.589009,1.148757,0.949812,14.154720,9.555478,2.183249,1.013243,0.895580
1577422397.209992,63.000000,0.000000,3921.025635,4187.179688,4017.435791,4000.000000,3933.846191,0.000000,4.000000,,,,0.000000,4.000000,4.000000,4.000000,4.000000,4.000000,,,,,,,,,,,,,,,,,,,,,,,,,
1577422397.217755,64.000000,0.000000,3929.230713,4177.948730,4053.333252,4020.512939,3938.974365,450.000000,4.000000,,,,0.000000,4.000000,4.000000,4.000000,4.000000,4.000000,,,,,,,,,,,,,,,,,,,,,,,,,
1577422397.225519,65.000000,0.000000,3906.666748,4168.717773,4058.974365,3996.923096,3913.333252,450.000000,4.000000,,,,0.000000,4.000000,4.000000,4.000000,4.000000,4.000000,,,,,,,,,,,,,,,,,,,,,,,,,
1577422397.233381,66.000000,0.000000,3908.718018,4161.538574,4067.692383,3986.153809,3916.410156,16225.000000,4.000000,,,,0.000000,4.000000,4.000000,4.000000,4.000000,4.000000,,,,,,,,,,,,,,,,,,,,,,,,,
1577422397.241143,67.000000,0.000000,3931.281982,4130.256348,4085.128174,4003.076904,3934.871826,450.000000,4.000000,,,,0.000000,4.000000,4.000000,4.000000,4.000000,4.000000,,,,,,,,,,,,,,,,,,,,,,,,,
1577422397.249005,68.000000,0.000000,3925.128174,4094.871826,4085.128174,3996.923096,3919.487061,16171.000000,4.000000,,,,0.000000,4.000000,4.000000,4.000000,4.000000,4.000000,,,,,,,,,,,,,,,,,,,,,,,,,
1577422397.256767,69.000000,0.000000,3909.230713,4078.461426,4076.923096,3982.564209,3906.153809,450.000000,4.000000,,,,0.000000,4.000000,4.000000,4.000000,4.000000,4.000000,,,,,,,,,,,,,,,,,,,,,,,,,
1577422397.264629,70.000000,0.000000,3915.897461,4060.000000,4075.384521,3990.769287,3910.256348,16167.000000,4.000000,,,,0.000000,4.000000,4.000000,4.000000,4.000000,4.000000,,,,,,,,,,,,,,,,,,,,,,,,,
1577422397.272491,71.000000,0.000000,3921.025635,4042.051270,4070.769287,3994.871826,3898.974365,450.000000,4.000000,,,,0.000000,4.000000,4.000000,4.000000,4.000000,4.000000,,,,,,,,,,,,,,,,,,,,,,,,,
1577422397.280254,72.000000,0.000000,3917.948730,4048.718018,4068.718018,3996.410156,3896.923096,450.000000,4.000000,,,,0.000000,4.000000,4.000000,4.000000,4.000000,4.000000,,,,,,,,,,,,,,,,,,,,,,,,,
1577422397.288017,73.000000,0.000000,3923.589844,4061.538574,4071.281982,4006.666748,3920.512939,16171.000000,4.000000,,,,0.000000,4.000000,4.000000,4.000000,4.000000,4.000000,,,,,,,,,,,,,,,,,,,,,,,,,
1577422397.295878,74.000000,0.000000,3922.051270,4042.564209,4053.333252,4001.538574,3924.615479,450.000000,4.000000,,,,0.000000,4.000000,4.000000,4.000000,4.000000,4.000000,,,,,,,,,,,,,,,,,,,,,,,,,
1577422397.303741,75.000000,0.000000,3906.153809,4026.666748,4024.102539,3983.589844,3906.666748,16212.000000,4.000000,,,,0.000000,4.000000,4.000000,4.000000,4.000000,4.000000,,,,,,,,,,,,,,,,,,,,,,,,,
1577422397.311503,76.000000,0.000000,3896.410156,4043.076904,4013.333252,3975.897461,3902.564209,450.000000,4.000000,,,,0.000000,4.000000,4.000000,4.000000,4.000000,4.000000,,,,,,,,,,,,,,,,,,,,,,,,,
1577422397.319365,77.000000,0.000000,3897.948730,4066.153809,4012.307617,3978.974365,3903.589844,450.000000,4.000000,,,,0.000000,4.000000,4.000000,4.000000,4.000000,4.000000,,,,,,,,,,,,,,,,,,,,,,,,,
1577422397.327128,78.000000,0.000000,3896.923096,4087.692383,4000.000000,3977.948730,3892.307617,450.000000,4.000000,,,,0.000000,4.000000,4.000000,4.000000,4.000000,4.000000,20.012360,10.241563,2.529516,1.566289,0.955201,56.909859,12.999513,3.081843,2.625160,1.633652,114.287971,46.696102,9.829676,2.875996,0.637765,9.175653,3.937458,2.893891,1.265784,0.948896,17.095989,8.128905,2.660437,1.210723,0.977451
1577422397.334990,79.000000,0.000000,3887.179443,4100.000000,3984.102539,3963.076904,3878.974365,16212.000000,4.000000,,,,0.000000,4.000000,4.000000,4.000000,4.000000,4.000000,,,,,,,,,,,,,,,,,,,,,,,,,
1577422397.342853,80.000000,0.000000,3911.794922,4120.000000,4017.435791,3983.589844,3908.205078,450.000000,4.000000,,,,0.000000,4.000000,4.000000,4.000000,4.000000,4.000000,,,,,,,,,,,,,,,,,,,,,,,,,
1577422397.350616,81.000000,0.000000,3974.358887,4161.538574,4086.666748,4045.128174,3973.846191,450.000000,4.000000,,,,0.000000,4.000000,4.000000,4.000000,4.000000,4.000000,,,,,,,,,,,,,,,,,,,,,,,,,
1577422397.358379,82.000000,0.000000,4008.718018,4186.153809,4123.589844,4077.435791,4011.281982,450.000000,4.000000,,,,0.000000,4.000000,4.000000,4.000000,4.000000,4.000000,,,,,,,,,,,,,,,,,,,,,,,,,
1577422397.366242,83.000000,0.000000,4012.820557,4189.230957,4123.589844,4071.281982,4012.307617,16212.000000,4.000000,,,,0.000000,4.000000,4.000000,4.000000,4.000000,4.000000,,,,,,,,,,,,,,,,,,,,,,,,,
1577422397.374004,84.000000,0.000000,4016.410156,4193.846191,4120.512695,4067.179443,4014.871826,450.000000,4.000000,,,,0.000000,4.000000,4.000000,4.000000,4.000000,4.000000,,,,,,,,,,,,,,,,,,,,,,,,,
1577422397.381866,85.000000,0.000000,4023.076904,4198.461426,4125.641113,4075.384521,4021.538574,450.000000,4.000000,,,,0.000000,4.000000,4.000000,4.000000,4.000000,4.000000,,,,,,,,,,,,,,,,,,,,,,,,,
1577422397.389628,86.000000,0.000000,4024.615479,4191.282227,4133.846191,4075.897461,4017.435791,450.000000,4.000000,,,,0.000000,4.000000,4.000000,4.000000,4.000000,4.000000,,,,,,,,,,,,,,,,,,,,,,,,,
1577422397.397490,87.000000,0.000000,4020.000000,4181.025879,4140.512695,4069.230713,4011.794922,16212.000000,4.000000,,,,0.000000,4.000000,4.000000,4.000000,4.000000,4.000000,,,,,,,,,,,,,,,,,,,,,,,,,
1577422397.405252,88.000000,0.000000,4010.769287,4174.358887,4141.025879,4063.076904,4004.102539,450.000000,4.000000,,,,0.000000,4.000000,4.000000,4.000000,4.000000,4.000000,,,,,,,,,,,,,,,,,,,,,,,,,
1577422397.413114,89.000000,0.000000,4002.051270,4172.820313,4135.897461,4054.871826,3991.281982,450.000000,4.000000,,,,0.000000,4.000000,4.000000,4.000000,4.000000,4.000000,,,,,,,,,,,,,,,,,,,,,,,,,
1577422397.420877,90.000000,0.000000,3998.461426,4174.358887,4135.897461,4053.333252,3982.564209,450.000000,4.000000,,,,0.000000,4.000000,4.000000,4.000000,4.000000,4.000000,,,,,,,,,,,,,,,,,,,,,,,,,
1577422397.428738,91.000000,0.000000,4000.512939,4169.743652,4140.512695,4060.000000,3984.615479,16212.000000,4.000000,,,,0.000000,4.000000,4.000000,4.000000,4.000000,4.000000,,,,,,,,,,,,,,,,,,,,,,,,,
1577422397.436500,92.000000,0.000000,4002.051270,4170.769043,4137.948730,4061.025635,3991.794922,450.000000,4.000000,,,,0.000000,4.000000,4.000000,4.000000,4.000000,4.000000,,,,,,,,,,,,,,,,,,,,,,,,,
1577422397.444362,93.000000,0.000000,3997.948730,4182.051270,4134.871582,4056.410156,3985.641113,450.000000,4.000000,,,,0.000000,4.000000,4.000000,4.000000,4.000000,4.000000,,,,,,,,,,,,,,,,,,,,,,,,,
1577422397.452124,94.000000,0.000000,4008.205078,4196.410156,4149.230957,4066.666748,3989.743652,450.000000,4.000000,,,,0.000000,4.000000,4.000000,4.000000,4.000000,4.000000,27.924612,9.454247,3.413365,1.745168,0.998319,61.064476,13.608770,2.995937,2.309825,1.530167,133.251419,37.400410,8.819440,2.668664,0.649657,8.567423,3.564444,3.209093,1.470040,0.930460,20.455929,7.223755,3.420310,1.491994,1.060768
1577422397.459986,95.000000,0.000000,4015.384521,4211.282227,4157.436035,4067.692383,3996.923096,16212.000000,4.000000,,,,0.000000,4.000000,4.000000,4.000000,4.000000,4.000000,,,,,,,,,,,,,,,,,,,,,,,,,
1577422397.467849,96.000000,0.000000,4001.538574,4231.282227,4148.717773,4054.871826,3988.718018,450.000000,4.000000,,,,0.000000,4.000000,4.000000,4.000000,4.000000,4.000000,,,,,,,,,,,,,,,,,,,,,,,,,
1577422397.475612,97.000000,0.000000,3998.461426,4244.615234,4140.512695,4056.410156,3987.692383,450.000000,4.000000,,,,0.000000,4.000000,4.000000,4.000000,4.000000,4.000000,,,,,,,,,,,,,,,,,,,,,,,,,
1577422397.483474,98.000000,0.000000,4011.794922,4225.128418,4130.769043,4067.692383,3994.871826,450.000000,4.000000,,,,0.000000,4.000000,4.000000,4.000000,4.000000,4.000000,,,,,,,,,,,,,,,,,,,,,,,,,
1577422397.491237,99.000000,0.000000,4014.358887,4202.051270,4109.230957,4065.641113,3995.384521,16212.000000,4.000000,,,,0.000000,4.000000,4.000000,4.000000,4.000000,4.000000,,,,,,,,,,,,,,,,,,,,,,,,,
1577422397.499000,100.000000,0.000000,4000.512939,4203.589844,4077.435791,4049.230713,3983.076904,450.000000,4.000000,,,,0.000000,4.000000,4.000000,4.000000,4.000000,4.000000,,,,,,,,,,,,,,,,,,,,,,,,,
1577422397.506861,101.000000,0.000000,3996.410156,4207.692383,4058.974365,4051.794922,3978.461426,450.000000,4.000000,,,,0.000000,4.000000,4.000000,4.000000,4.000000,4.000000,,,,,,,,,,,,,,,,,,,,,,,,,
1577422397.514724,102.000000,0.000000,4030.256348,4205.128418,4081.025635,4088.205078,4013.333252,450.000000,4.000000,,,,0.000000,4.000000,4.000000,4.000000,4.000000,4.000000,,,,,,,,,,,,,,,,,,,,,,,,,
1577422397.522486,103.000000,0.000000,4069.743652,4208.717773,4080.512939,4117.948730,4049.230713,16212.000000,4.000000,,,,0.000000,4.000000,4.000000,4.000000,4.000000,4.000000,,,,,,,,,,,,,,,,,,,,,,,,,
1577422397.530249,104.000000,0.000000,4065.641113,4197.948730,4001.538574,4106.153809,4036.410156,450.000000,4.000000,,,,0.000000,4.000000,4.000000,4.000000,4.000000,4.000000,,,,,,,,,,,,,,,,,,,,,,,,,
1577422397.538111,105.000000,0.000000,4047.692383,4171.794922,3932.820557,4083.076904,4014.358887,450.000000,4.000000,,,,0.000000,4.000000,4.000000,4.000000,4.000000,4.000000,,,,,,,,,,,,,,,,,,,,,,,,,
1577422397.545872,106.000000,0.000000,4055.897461,4174.358887,3942.051270,4086.666748,4021.025635,450.000000,4.000000,,,,0.000000,4.000000,4.000000,4.000000,4.000000,4.000000,,,,,,,,,,,,,,,,,,,,,,,,,
1577422397.553734,107.000000,0.000000,4067.179443,4189.743652,3951.281982,4094.358887,4029.230713,16212.000000,4.000000,,,,0.000000,4.000000,4.000000,4.000000,4.000000,4.000000,,,,,,,,,,,,,,,,,,,,,,,,,
1577422397.561496,108.000000,0.000000,4066.153809,4183.077148,3932.820557,4093.846191,4030.256348,450.000000,4.000000,,,,0.000000,4.000000,4.000000,4.000000,4.000000,4.000000,,,,,,,,,,,,,,,,,,,,,,,,,
1577422397.569357,109.000000,0.000000,4062.051270,4174.358887,3927.692383,4098.461426,4025.128174,450.000000,4.000000,,,,0.000000,4.000000,4.000000,4.000000,4.000000,4.000000,,,,,,,,,,,,,,,,,,,,,,,,,
1577422397.577119,110.000000,0.000000,4054.358887,4181.025879,3920.000000,4093.333252,4004.102539,450.000000,4.000000,,,,0.000000,4.000000,4.000000,4.000000,4.000000,4.000000,37.424004,9.396736,4.658851,1.962835,1.029147,61.921860,12.701375,2.861578,2.020293,1.393840,143.480148,26.143902,7.756673,2.451800,0.658959,7.630308,3.181552,3.498862,1.715921,0.901536,23.060163,6.791295,4.339835,1.809051,1.132663
1577422397.584980,111.000000,0.000000,4037.948730,4197.436035,3901.538574,4076.923096,3977.948730,16212.000000,4.000000,,,,0.000000,4.000000,4.000000,4.000000,4.000000,4.000000,,,,,,,,,,,,,,,,,,,,,,,,,
1577422397.592842,112.000000,0.000000,4029.230713,4202.051270,3904.102539,4071.281982,3969.743652,450.000000,4.000000,,,,0.000000,4.000000,4.000000,4.000000,4.000000,4.000000,,,,,,,,,,,,,,,,,,,,,,,,,
1577422397.600705,113.000000,0.000000,4033.846191,4185.641113,3927.692383,4070.256348,3971.794922,450.000000,4.000000,,,,0.000000,4.000000,4.000000,4.000000,4.000000,4.000000,,,,,,,,,,,,,,,,,,,,,,,,,
1577422397.608468,114.000000,0.000000,4030.256348,4185.641113,3939.487061,4050.769287,3958.974365,450.000000,4.000000,,,,0.000000,4.000000,4.000000,4.000000,4.000000,4.000000,,,,,,,,,,,,,,,,,,,,,,,,,
1577422397.616231,115.000000,0.000000,4022.051270,4225.128418,3943.589844,4039.487061,3951.281982,16212.000000,4.000000,,,,0.000000,4.000000,4.000000,4.000000,4.000000,4.000000,,,,,,,,,,,,,,,,,,,,,,,,,
1577422397.624094,116.000000,0.000000,4042.051270,4262.563965,3974.871826,4067.179443,3974.358887,450.000000,4.000000,,,,0.000000,4.000000,4.000000,4.000000,4.000000,4.000000,,,,,,,,,,,,,,,,,,,,,,,,,
1577422397.631856,117.000000,0.000000,4076.410156,4290.769043,4016.923096,4093.846191,4002.051270,450.000000,4.000000,,,,0.000000,4.000000,4.000000,4.000000,4.000000,4.000000,,,,,,,,,,,,,,,,,,,,,,,,,
1577422397.639718,118.000000,0.000000,4093.333252,4333.846191,4040.000000,4100.512695,4014.871826,450.000000,4.000000,,,,0.000000,4.000000,4.000000,4.000000,4.000000,4.000000,,,,,,,,,,,,,,,,,,,,,,,,,
1577422397.647480,119.000000,0.000000,4089.230713,4347.179688,4039.487061,4100.000000,4015.384521,16212.000000,4.000000,,,,0.000000,4.000000,4.000000,4.000000,4.000000,4.000000,,,,,,,,,,,,,,,,,,,,,,,,,
1577422397.655342,120.000000,0.000000,4075.897461,4321.538574,4031.281982,4091.794922,4001.538574,450.000000,4.000000,,,,0.000000,4.000000,4.000000,4.000000,4.000000,4.000000,,,,,,,,,,,,,,,,,,,,,,,,,
1577422397.663104,121.000000,0.000000,4084.615479,4329.230957,4050.256348,4097.436035,4005.641113,450.000000,4.000000,,,,0.000000,4.000000,4.000000,4.000000,4.000000,4.000000,,,,,,,,,,,,,,,,,,,,,,,,,
1577422397.670966,122.000000,0.000000,4106.666504,4346.666504,4078.974365,4118.461426,4034.358887,450.000000,4.000000,,,,0.000000,4.000000,4.000000,4.000000,4.000000,4.000000,,,,,,,,,,,,,,,,,,,,,,,,,
1577422397.678828,123.000000,0.000000,4120.512695,4329.743652,4085.128174,4135.897461,4056.410156,16212.000000,4.000000,,,,0.000000,4.000000,4.000000,4.000000,4.000000,4.000000,,,,,,,,,,,,,,,,,,,,,,,,,
1577422397.686591,124.000000,0.000000,4133.333496,4325.641113,4083.589844,4140.000000,4057.948730,450.000000,4.000000,,,,0.000000,4.000000,4.000000,4.000000,4.000000,4.000000,,,,,,,,,,,,,,,,,,,,,,,,,
1577422397.694454,125.000000,0.000000,4126.153809,4344.102539,4080.000000,4130.769043,4043.076904,450.000000,4.000000,,,,0.000000,4.000000,4.000000,4.000000,4.000000,4.000000,,,,,,,,,,,,,,,,,,,,,,,,,
1577422397.702216,126.000000,0.000000,4123.077148,4339.487305,4076.410156,4141.025879,4053.333252,450.000000,4.000000,,,,0.000000,4.000000,4.000000,4.000000,4.000000,4.000000,47.161770,10.273363,5.971870,2.138452,1.037461,58.687027,10.727942,2.739714,1.833096,1.239460,140.945847,16.327778,6.915191,2.306490,0.673221,6.844995,2.937741,3.757905,1.927550,0.872882,24.915644,6.823692,5.270077,2.099198,1.181567
1577422397.709979,127.000000,0.000000,4147.179688,4320.000000,4068.205078,4157.436035,4088.205078,234.000000,4.000000,,,,0.000000,4.000000,4.000000,4.000000,4.000000,4.000000,,,,,,,,,,,,,,,,,,,,,,,,,
1577422397.717841,0.000000,0.000000,4161.538574,4326.666504,4051.794922,4151.282227,4097.948730,450.000000,4.000000,,,,0.000000,4.000000,4.000000,4.000000,4.000000,4.000000,,,,,,,,,,,,,,,,,,,,,,,,,
1577422397.725703,1.000000,0.000000,4167.692383,4338.461426,4046.153809,4151.794922,4101.025879,450.000000,4.000000,,,,0.000000,4.000000,4.000000,4.000000,4.000000,4.000000,,,,,,,,,,,,,,,,,,,,,,,,,
1577422397.733466,2.000000,0.000000,4195.384766,4333.846191,4056.923096,4170.256348,4134.358887,16214.000000,4.000000,,,,0.000000,4.000000,4.000000,4.000000,4.000000,4.000000,,,,,,,,,,,,,,,,,,,,,,,,,
1577422397.741229,3.000000,0.000000,4211.794922,4330.256348,4052.307617,4168.205078,4149.230957,450.000000,4.000000,,,,0.000000,4.000000,4.000000,4.000000,4.000000,4.000000,,,,,,,,,,,,,,,,,,,,,,,,,
1577422397.749090,4.000000,0.000000,4202.563965,4328.717773,4036.923096,4149.743652,4128.205078,16172.000000,4.000000,,,,0.000000,4.000000,4.000000,4.000000,4.000000,4.000000,,,,,,,,,,,,,,,,,,,,,,,,,
1577422397.756953,5.000000,0.000000,4197.948730,4334.358887,4041.025635,4146.666504,4118.974121,450.000000,4.000000,,,,0.000000,4.000000,4.000000,4.000000,4.000000,4.000000,,,,,,,,,,,,,,,,,,,,,,,,,
1577422397.764715,6.000000,0.000000,4191.794922,4348.717773,4050.769287,4149.230957,4122.563965,16166.000000,4.000000,,,,0.000000,4.000000,4.000000,4.000000,4.000000,4.000000,,,,,,,,,,,,,,,,,,,,,,,,,
1577422397.772577,7.000000,0.000000,4183.589844,4345.128418,4048.205078,4149.743652,4122.563965,450.000000,4.000000,,,,0.000000,4.000000,4.000000,4.000000,4.000000,4.000000,,,,,,,,,,,,,,,,,,,,,,,,,
1577422397.780340,8.000000,0.000000,4171.282227,4313.333496,4029.743652,4142.051270,4105.641113,450.000000,4.000000,,,,0.000000,4.000000,4.000000,4.000000,4.000000,4.000000,,,,,,,,,,,,,,,,,,,,,,,,,
1577422397.788202,9.000000,0.000000,4157.948730,4306.153809,4015.384521,4138.974121,4091.281982,16168.000000,4.000000,,,,0.000000,4.000000,4.000000,4.000000,4.000000,4.000000,,,,,,,,,,,,,,,,,,,,,,,,,
1577422397.795965,10.000000,0.000000,4170.769043,4321.538574,4029.230713,4156.922852,4105.128418,450.000000,4.000000,,,,0.000000,4.000000,4.000000,4.000000,4.000000,4.000000,,,,,,,,,,,,,,,,,,,,,,,,,
1577422397.803827,11.000000,0.000000,4200.512695,4309.743652,4060.512939,4186.153809,4132.307617,16213.000000,4.000000,,,,0.000000,4.000000,4.000000,4.000000,4.000000,4.000000,,,,,,,,,,,,,,,,,,,,,,,,,
1577422397.811589,12.000000,0.000000,4220.000000,4282.051270,4076.410156,4205.641113,4154.871582,450.000000,4.000000,,,,0.000000,4.000000,4.000000,4.000000,4.000000,4.000000,,,,,,,,,,,,,,,,,,,,,,,,,
1577422397.819451,13.000000,0.000000,4218.461426,4252.820313,4065.641113,4195.897461,4152.820313,450.000000,4.000000,,,,0.000000,4.000000,4.000000,4.000000,4.000000,4.000000,,,,,,,,,,,,,,,,,,,,,,,,,
1577422397.827214,14.000000,0.000000,4212.307617,4222.563965,4054.358887,4181.025879,4143.077148,450.000000,4.000000,,,,0.000000,4.000000,4.000000,4.000000,4.000000,4.000000,53.952320,11.955121,6.967744,2.223524,1.026877,52.264980,8.553567,2.686355,1.774019,1.087321,127.681168,10.192165,6.423065,2.307770,0.711937,6.357498,3.013317,3.993294,2.052108,0.860131,25.232370,7.334038,6.029646,2.322973,1.206087
1577422397.835076,15.000000,0.000000,4210.256348,4215.897461,4057.948730,4182.051270,4150.256348,16213.000000,4.000000,,,,0.000000,4.000000,4.000000,4.000000,4.000000,4.000000,,,,,,,,,,,,,,,,,,,,,,,,,
1577422397.842939,16.000000,0.000000,4209.230957,4249.743652,4064.102539,4186.153809,4154.871582,0.000000,4.000000,,,,0.000000,4.000000,4.000000,4.000000,4.000000,4.000000,,,,,,,,,,,,,,,,,,,,,,,,,
1577422397.850702,17.000000,0.000000,4202.051270,4283.589844,4063.589844,4173.333496,4143.589844,0.000000,4.000000,,,,0.000000,4.000000,4.000000,4.000000,4.000000,4.000000,,,,,,,,,,,,,,,,,,,,,,,,,
1577422397.858565,18.000000,0.000000,4186.153809,4289.230957,4062.564209,4155.897461,4131.794922,0.000000,4.000000,,,,0.000000,4.000000,4.000000,4.000000,4.000000,4.000000,,,,,,,,,,,,,,,,,,,,,,,,,
1577422397.866328,19.000000,0.000000,4178.461426,4309.743652,4066.666748,4153.846191,4129.743652,0.000000,4.000000,,,,0.000000,4.000000,4.000000,4.000000,4.000000,4.000000,,,,,,,,,,,,,,,,,,,,,,,,,
1577422397.874190,20.000000,0.000000,4185.641113,4356.922852,4074.358887,4162.563965,4133.846191,0.000000,4.000000,,,,0.000000,4.000000,4.000000,4.000000,4.000000,4.000000,,,,,,,,,,,,,,,,,,,,,,,,,
1577422397.881953,21.000000,0.000000,4196.922852,4386.666504,4086.666748,4174.871582,4142.563965,0.000000,4.000000,,,,0.000000,4.000000,4.000000,4.000000,4.000000,4.000000,,,,,,,,,,,,,,,,,,,,,,,,,
1577422397.889816,22.000000,0.000000,4188.717773,4360.000000,4085.128174,4169.230957,4134.871582,0.000000,4.000000,,,,0.000000,4.000000,4.000000,4.000000,4.000000,4.000000,,,,,,,,,,,,,,,,,,,,,,,,,
1577422397.897680,23.000000,0.000000,4170.256348,4320.000000,4071.794922,4157.436035,4115.384766,0.000000,4.000000,,,,0.000000,4.000000,4.000000,4.000000,4.000000,4.000000,,,,,,,,,,,,,,,,,,,,,,,,,
1577422397.905544,24.000000,0.000000,4163.077148,4325.641113,4059.487061,4153.846191,4107.692383,0.000000,4.000000,,,,0.000000,4.000000,4.000000,4.000000,4.000000,4.000000,,,,,,,,,,,,,,,,,,,,,,,,,
1577422397.913409,25.000000,0.000000,4134.358887,4335.384766,4023.589844,4128.717773,4081.025635,0.000000,4.000000,,,,0.000000,4.000000,4.000000,4.000000,4.000000,4.000000,,,,,,,,,,,,,,,,,,,,,,,,,
1577422397.921174,26.000000,0.000000,4112.820313,4319.487305,3998.461426,4115.897461,4061.025635,0.000000,4.000000,,,,0.000000,4.000000,4.000000,4.000000,4.000000,4.000000,,,,,,,,,,,,,,,,,,,,,,,,,
1577422397.929039,27.000000,0.000000,4164.615234,4333.333496,4042.564209,4167.692383,4114.358887,0.000000,4.000000,,,,0.000000,4.000000,4.000000,4.000000,4.000000,4.000000,,,,,,,,,,,,,,,,,,,,,,,,,
1577422397.936905,28.000000,0.000000,4231.282227,4375.897461,4093.333252,4222.563965,4183.589844,0.000000,4.000000,,,,0.000000,4.000000,4.000000,4.000000,4.000000,4.000000,,,,,,,,,,,,,,,,,,,,,,,,,
1577422397.944671,29.000000,0.000000,4235.897461,4385.128418,4083.076904,4215.897461,4186.666504,0.000000,4.000000,,,,0.000000,4.000000,4.000000,4.000000,4.000000,4.000000,,,,,,,,,,,,,,,,,,,,,,,,,
1577422397.952537,30.000000,0.000000,4216.922852,4355.384766,4056.923096,4189.743652,4165.641113,0.000000,4.000000,,,,0.000000,4.000000,4.000000,4.000000,4.000000,4.000000,56.636791,13.858796,7.315331,2.207311,1.010142,45.571602,7.068940,2.723298,1.828708,0.961559,109.328903,8.130606,6.162047,2.482822,0.797354,6.754181,3.427923,4.164559,2.080635,0.874105,25.117292,8.196123,6.441736,2.463043,1.213009
1577422397.960403,31.000000,0.000000,4207.179688,4343.589844,4048.205078,4180.000000,4158.461426,0.000000,4.000000,,,,0.000000,4.000000,4.000000,4.000000,4.000000,4.000000,,,,,,,,,,,,,,,,,,,,,,,,,
1577422397.968170,32.000000,0.000000,4204.615234,4370.256348,4045.128174,4175.384766,4149.230957,0.000000,4.000000,,,,0.000000,4.000000,4.000000,4.000000,4.000000,4.000000,,,,,,,,,,,,,,,,,,,,,,,,,
1577422397.976037,33.000000,0.000000,4208.717773,4395.384766,4047.692383,4173.333496,4141.538574,0.000000,4.000000,,,,0.000000,4.000000,4.000000,4.000000,4.000000,4.000000,,,,,,,,,,,,,,,,,,,,,,,,,
1577422397.983904,34.000000,0.000000,4197.436035,4393.846191,4052.307617,4170.256348,4125.128418,0.000000,4.000000,,,,0.000000,4.000000,4.000000,4.000000,4.000000,4.000000,,,,,,,,,,,,,,,,,,,,,,,,,
1577422397.991671,35.000000,0.000000,4178.461426,4407.692383,4056.923096,4166.666504,4107.179688,0.000000,4.000000,,,,0.000000,4.000000,4.000000,4.000000,4.000000,4.000000,,,,,,,,,,,,,,,,,,,,,,,,,
1577422397.999538,36.000000,0.000000,4182.051270,4429.230957,4073.333252,4165.128418,4115.384766,0.000000,4.000000,,,,0.000000,4.000000,4.000000,4.000000,4.000000,4.000000,,,,,,,,,,,,,,,,,,,,,,,,,
1577422398.007306,37.000000,0.000000,4186.153809,4424.102539,4100.000000,4154.871582,4121.025879,0.000000,4.000000,,,,0.000000,4.000000,4.000000,4.000000,4.000000,4.000000,,,,,,,,,,,,,,,,,,,,,,,,,
1577422398.015173,38.000000,0.000000,4166.666504,4409.743652,4120.512695,4136.410156,4100.000000,0.000000,4.000000,,,,0.000000,4.000000,4.000000,4.000000,4.000000,4.000000,,,,,,,,,,,,,,,,,,,,,,,,,
1577422398.022940,39.000000,0.000000,4147.179688,4395.384766,4141.538574,4125.641113,4076.923096,0.000000,4.000000,,,,0.000000,4.000000,4.000000,4.000000,4.000000,4.000000,,,,,,,,,,,,,,,,,,,,,,,,,
1577422398.030809,40.000000,1.000000,4153.219238,4401.481445,4140.740723,4127.806152,4082.849121,0.000000,4.000000,,,,0.000000,4.000000,4.000000,4.000000,4.000000,4.000000,,,,,,,,,,,,,,,,,,,,,,,,,
1577422398.038578,41.000000,1.000000,4159.259277,4407.578125,4139.942871,4129.971680,4088.774902,0.000000,4.000000,,,,0.000000,4.000000,4.000000,4.000000,4.000000,4.000000,,,,,,,,,,,,,,,,,,,,,,,,,
1577422398.046347,42.000000,1.000000,4165.299316,4413.675293,4139.145508,4132.136719,4094.700928,0.000000,4.000000,,,,0.000000,4.000000,4.000000,4.000000,4.000000,4.000000,,,,,,,,,,,,,,,,,,,,,,,,,
1577422398.054116,43.000000,1.000000,4171.338867,4419.771973,4138.347656,4134.301758,4100.626953,0.000000,4.000000,,,,0.000000,4.000000,4.000000,4.000000,4.000000,4.000000,,,,,,,,,,,,,,,,,,,,,,,,,
1577422398.061885,44.000000,1.000000,4177.378906,4425.869141,4137.549805,4136.467285,4106.552734,0.000000,4.000000,,,,0.000000,4.000000,4.000000,4.000000,4.000000,4.000000,,,,,,,,,,,,,,,,,,,,,,,,,
1577422398.069654,45.000000,1.000000,4183.418945,4431.965820,4136.751953,4138.632324,4112.478516,0.000000,4.000000,,,,0.000000,4.000000,4.000000,4.000000,4.000000,4.000000,,,,,,,,,,,,,,,,,,,,,,,,,
1577422398.077422,46.000000,1.000000,4189.458496,4438.062500,4135.954590,4140.797852,4118.404785,0.000000,4.000000,,,,0.000000,4.000000,4.000000,4.000000,4.000000,4.000000,54.520187,15.201051,6.975901,2.141810,0.996464,41.190956,6.781394,2.884877,1.965080,0.881908,95.171555,8.697474,5.944618,2.802614,0.932287,8.112440,4.004719,4.250909,2.061812,0.911538,24.791571,9.129235,6.485671,2.545427,1.209868
1577422398.085191,47.000000,1.000000,4195.498535,4444.159668,4135.156738,4142.962891,4124.330566,0.000000,4.000000,,,,0.000000,4.000000,4.000000,4.000000,4.000000,4.000000,,,,,,,,,,,,,,,,,,,,,,,,,
1577422398.092960,48.000000,0.000000,4201.538574,4450.256348,4134.358887,4145.128418,4130.256348,0.000000,4.000000,,,,0.000000,4.000000,4.000000,4.000000,4.000000,4.000000,,,,,,,,,,,,,,,,,,,,,,,,,
1577422398.100823,49.000000,0.000000,4209.230957,4437.436035,4116.410156,4147.692383,4138.461426,0.000000,4.000000,,,,0.000000,4.000000,4.000000,4.000000,4.000000,4.000000,,,,,,,,,,,,,,,,,,,,,,,,,
1577422398.108586,50.000000,0.000000,4203.589844,4410.256348,4107.692383,4156.922852,4145.128418,0.000000,4.000000,,,,0.000000,4.000000,4.000000,4.000000,4.000000,4.000000,,,,,,,,,,,,,,,,,,,,,,,,,
1577422398.116349,51.000000,0.000000,4192.307617,4394.871582,4086.666748,4153.846191,4142.563965,0.000000,4.000000,,,,0.000000,4.000000,4.000000,4.000000,4.000000,4.000000,,,,,,,,,,,,,,,,,,,,,,,,,
1577422398.124211,52.000000,0.000000,4194.358887,4392.820313,4055.384521,4132.820313,4132.307617,0.000000,4.000000,,,,0.000000,4.000000,4.000000,4.000000,4.000000,4.000000,,,,,,,,,,,,,,,,,,,,,,,,,
1577422398.131973,53.000000,0.000000,4213.333496,4394.358887,4049.743652,4131.794922,4133.846191,0.000000,4.000000,,,,0.000000,4.000000,4.000000,4.000000,4.000000,4.000000,,,,,,,,,,,,,,,,,,,,,,,,,
1577422398.139735,54.000000,0.000000,4212.307617,4388.717773,4045.128174,4134.871582,4124.102539,0.000000,4.000000,,,,0.000000,4.000000,4.000000,4.000000,4.000000,4.000000,,,,,,,,,,,,,,,,,,,,,,,,,
1577422398.147595,55.000000,0.000000,4185.641113,4370.769043,4016.410156,4112.307617,4088.205078,0.000000,4.000000,,,,0.000000,4.000000,4.000000,4.000000,4.000000,4.000000,,,,,,,,,,,,,,,,,,,,,,,,,
1577422398.155356,56.000000,0.000000,4191.794922,4368.205078,4012.820557,4107.692383,4085.641113,0.000000,4.000000,,,,0.000000,4.000000,4.000000,4.000000,4.000000,4.000000,,,,,,,,,,,,,,,,,,,,,,,,,
1577422398.163217,57.000000,0.000000,4230.769043,4393.333496,4047.179443,4143.077148,4119.487305,0.000000,4.000000,,,,0.000000,4.000000,4.000000,4.000000,4.000000,4.000000,,,,,,,,,,,,,,,,,,,,,,,,,
1577422398.170978,58.000000,0.000000,4235.384766,4395.384766,4058.461426,4152.307617,4125.128418,0.000000,4.000000,,,,0.000000,4.000000,4.000000,4.000000,4.000000,4.000000,,,,,,,,,,,,,,,,,,,,,,,,,
1577422398.178841,59.000000,0.000000,4212.307617,4362.051270,4042.564209,4126.666504,4108.717773,0.000000,4.000000,,,,0.000000,4.000000,4.000000,4.000000,4.000000,4.000000,,,,,,,,,,,,,,,,,,,,,,,,,
1577422398.186704,60.000000,0.000000,4206.666504,4350.256348,4040.512939,4119.487305,4105.641113,0.000000,4.000000,,,,0.000000,4.000000,4.000000,4.000000,4.000000,4.000000,,,,,,,,,,,,,,,,,,,,,,,,,
1577422398.194468,61.000000,0.000000,4202.563965,4363.589844,4041.538574,4122.563965,4103.077148,0.000000,4.000000,,,,0.000000,4.000000,4.000000,4.000000,4.000000,4.000000,,,,,,,,,,,,,,,,,,,,,,,,,
1577422398.202231,62.000000,0.000000,4193.846191,4361.538574,4036.410156,4116.922852,4093.333252,0.000000,4.000000,,,,0.000000,4.000000,4.000000,4.000000,4.000000,4.000000,48.563210,15.520000,6.218656,2.111864,0.988767,41.711189,7.915139,3.205760,2.144302,0.864716,90.795952,9.846734,5.668254,3.202074,1.093665,10.134995,4.499921,4.247474,2.080161,0.959094,24.926470,9.935490,6.294553,2.618294,1.206222
1577422398.210093,63.000000,0.000000,4195.897461,4347.179688,4040.512939,4117.436035,4092.307617,0.000000,4.000000,,,,0.000000,4.000000,4.000000,4.000000,4.000000,4.000000,,,,,,,,,,,,,,,,,,,,,,,,,
1577422398.217856,64.000000,0.000000,4196.922852,4343.077148,4053.846191,4123.589844,4095.897461,450.000000,4.000000,,,,0.000000,4.000000,4.000000,4.000000,4.000000,4.000000,,,,,,,,,,,,,,,,,,,,,,,,,
1577422398.225718,65.000000,0.000000,4203.589844,4352.307617,4069.743652,4137.948730,4108.717773,450.000000,4.000000,,,,0.000000,4.000000,4.000000,4.000000,4.000000,4.000000,,,,,,,,,,,,,,,,,,,,,,,,,
1577422398.233481,66.000000,0.000000,4209.230957,4361.538574,4073.333252,4140.512695,4117.948730,16220.000000,4.000000,,,,0.000000,4.000000,4.000000,4.000000,4.000000,4.000000,,,,,,,,,,,,,,,,,,,,,,,,,
1577422398.241343,67.000000,0.000000,4197.948730,4355.897461,4069.743652,4124.615234,4105.128418,450.000000,4.000000,,,,0.000000,4.000000,4.000000,4.000000,4.000000,4.000000,,,,,,,,,,,,,,,,,,,,,,,,,
1577422398.249105,68.000000,0.000000,4191.794922,4348.717773,4072.820557,4122.563965,4094.871826,16174.000000,4.000000,,,,0.000000,4.000000,4.000000,4.000000,4.000000,4.000000,,,,,,,,,,,,,,,,,,,,,,,,,
1577422398.256968,69.000000,0.000000,4204.102539,4364.102539,4073.846191,4136.922852,4102.563965,450.000000,4.000000,,,,0.000000,4.000000,4.000000,4.000000,4.000000,4.000000,,,,,,,,,,,,,,,,,,,,,,,,,
1577422398.264730,70.000000,0.000000,4216.922852,4382.051270,4073.846191,4147.692383,4114.871582,16172.000000,4.000000,,,,0.000000,4.000000,4.000000,4.000000,4.000000,4.000000,,,,,,,,,,,,,,,,,,,,,,,,,
1577422398.272592,71.000000,0.000000,4224.102539,4382.563965,4081.025635,4151.794922,4118.461426,450.000000,4.000000,,,,0.000000,4.000000,4.000000,4.000000,4.000000,4.000000,,,,,,,,,,,,,,,,,,,,,,,,,
1577422398.280455,72.000000,0.000000,4228.717773,4389.743652,4089.230713,4154.871582,4117.436035,450.000000,4.000000,,,,0.000000,4.000000,4.000000,4.000000,4.000000,4.000000,,,,,,,,,,,,,,,,,,,,,,,,,
1577422398.288218,73.000000,0.000000,4226.153809,4403.077148,4084.102539,4147.692383,4112.820313,16170.000000,4.000000,,,,0.000000,4.000000,4.000000,4.000000,4.000000,4.000000,,,,,,,,,,,,,,,,,,,,,,,,,
1577422398.296081,74.000000,0.000000,4218.461426,4409.743652,4067.179443,4135.897461,4109.743652,450.000000,4.000000,,,,0.000000,4.000000,4.000000,4.000000,4.000000,4.000000,,,,,,,,,,,,,,,,,,,,,,,,,
1577422398.303844,75.000000,0.000000,4214.358887,4414.871582,4055.897461,4132.820313,4109.230957,16214.000000,4.000000,,,,0.000000,4.000000,4.000000,4.000000,4.000000,4.000000,,,,,,,,,,,,,,,,,,,,,,,,,
1577422398.311707,76.000000,0.000000,4207.692383,4399.487305,4051.794922,4126.666504,4104.615234,450.000000,4.000000,,,,0.000000,4.000000,4.000000,4.000000,4.000000,4.000000,,,,,,,,,,,,,,,,,,,,,,,,,
1577422398.319470,77.000000,0.000000,4206.153809,4377.948730,4048.718018,4125.128418,4109.230957,450.000000,4.000000,,,,0.000000,4.000000,4.000000,4.000000,4.000000,4.000000,,,,,,,,,,,,,,,,,,,,,,,,,
1577422398.327333,78.000000,0.000000,4212.820313,4370.769043,4042.564209,4133.333496,4117.436035,450.000000,4.000000,,,,0.000000,4.000000,4.000000,4.000000,4.000000,4.000000,40.371948,14.852083,5.439575,2.198526,0.985514,45.469402,10.227769,3.756846,2.347470,0.914654,94.368736,10.298287,5.479491,3.626266,1.239813,12.419923,4.708610,4.160344,2.219458,0.998518,25.374296,10.536205,6.058987,2.744054,1.209588
1577422398.335095,79.000000,0.000000,4209.743652,4366.666504,4034.871826,4133.846191,4109.230957,16214.000000,4.000000,,,,0.000000,4.000000,4.000000,4.000000,4.000000,4.000000,,,,,,,,,,,,,,,,,,,,,,,,,
1577422398.342958,80.000000,0.000000,4198.974121,4366.153809,4032.307617,4126.153809,4099.487305,450.000000,4.000000,,,,0.000000,4.000000,4.000000,4.000000,4.000000,4.000000,,,,,,,,,,,,,,,,,,,,,,,,,
1577422398.350721,81.000000,0.000000,4201.538574,4374.358887,4033.846191,4126.666504,4101.025879,450.000000,4.000000,,,,0.000000,4.000000,4.000000,4.000000,4.000000,4.000000,,,,,,,,,,,,,,,,,,,,,,,,,
1577422398.358585,82.000000,0.000000,4224.102539,4391.282227,4050.769287,4140.512695,4118.461426,450.000000,4.000000,,,,0.000000,4.000000,4.000000,4.000000,4.000000,4.000000,,,,,,,,,,,,,,,,,,,,,,,,,
1577422398.366450,83.000000,0.000000,4252.820313,4404.102539,4081.538574,4153.846191,4143.077148,16214.000000,4.000000,,,,0.000000,4.000000,4.000000,4.000000,4.000000,4.000000,,,,,,,,,,,,,,,,,,,,,,,,,
1577422398.374215,84.000000,0.000000,4252.307617,4386.666504,4086.153809,4144.102539,4139.487305,450.000000,4.000000,,,,0.000000,4.000000,4.000000,4.000000,4.000000,4.000000,,,,,,,,,,,,,,,,,,,,,,,,,
1577422398.381980,85.000000,0.000000,4224.615234,4367.179688,4067.692383,4117.436035,4110.256348,450.000000,4.000000,,,,0.000000,4.000000,4.000000,4.000000,4.000000,4.000000,,,,,,,,,,,,,,,,,,,,,,,,,
1577422398.389746,86.000000,0.000000,4215.384766,4380.000000,4070.256348,4112.820313,4108.205078,450.000000,4.000000,,,,0.000000,4.000000,4.000000,4.000000,4.000000,4.000000,,,,,,,,,,,,,,,,,,,,,,,,,
1577422398.397609,87.000000,0.000000,4232.820313,4400.000000,4095.384521,4133.846191,4133.333496,16214.000000,4.000000,,,,0.000000,4.000000,4.000000,4.000000,4.000000,4.000000,,,,,,,,,,,,,,,,,,,,,,,,,
1577422398.405372,88.000000,0.000000,4238.461426,4387.179688,4105.128418,4145.641113,4144.102539,450.000000,4.000000,,,,0.000000,4.000000,4.000000,4.000000,4.000000,4.000000,,,,,,,,,,,,,,,,,,,,,,,,,
1577422398.413235,89.000000,0.000000,4234.871582,4364.102539,4094.358887,4140.000000,4145.641113,450.000000,4.000000,,,,0.000000,4.000000,4.000000,4.000000,4.000000,4.000000,,,,,,,,,,,,,,,,,,,,,,,,,
1577422398.421099,90.000000,0.000000,4244.615234,4367.692383,4089.230713,4147.692383,4158.461426,450.000000,4.000000,,,,0.000000,4.000000,4.000000,4.000000,4.000000,4.000000,,,,,,,,,,,,,,,,,,,,,,,,,
1577422398.428864,91.000000,0.000000,4257.436035,4375.897461,4096.922852,4161.538574,4165.128418,16214.000000,4.000000,,,,0.000000,4.000000,4.000000,4.000000,4.000000,4.000000,,,,,,,,,,,,,,,,,,,,,,,,,
1577422398.436628,92.000000,0.000000,4253.333496,4360.000000,4098.974121,4155.384766,4153.333496,450.000000,4.000000,,,,0.000000,4.000000,4.000000,4.000000,4.000000,4.000000,,,,,,,,,,,,,,,,,,,,,,,,,
1577422398.444491,93.000000,0.000000,4246.666504,4345.128418,4090.769287,4146.153809,4147.179688,450.000000,4.000000,,,,0.000000,4.000000,4.000000,4.000000,4.000000,4.000000,,,,,,,,,,,,,,,,,,,,,,,,,
1577422398.452254,94.000000,0.000000,4249.743652,4348.205078,4081.538574,4152.820313,4156.922852,450.000000,4.000000,,,,0.000000,4.000000,4.000000,4.000000,4.000000,4.000000,31.998184,13.627606,4.963389,2.437702,0.987582,48.694138,12.947225,4.540195,2.565631,1.020725,99.213966,9.458067,5.522196,3.995547,1.329605,14.310019,4.613866,4.002533,2.513307,1.014432,25.812201,10.942776,5.915170,2.966447,1.221602
1577422398.460117,95.000000,0.000000,4248.205078,4344.102539,4067.179443,4156.922852,4156.410156,16214.000000,4.000000,,,,0.000000,4.000000,4.000000,4.000000,4.000000,4.000000,,,,,,,,,,,,,,,,,,,,,,,,,
1577422398.467981,96.000000,0.000000,4240.000000,4319.487305,4054.871826,4149.743652,4147.692383,450.000000,4.000000,,,,0.000000,4.000000,4.000000,4.000000,4.000000,4.000000,,,,,,,,,,,,,,,,,,,,,,,,,
1577422398.475745,97.000000,0.000000,4238.461426,4286.666504,4053.333252,4150.256348,4153.846191,450.000000,4.000000,,,,0.000000,4.000000,4.000000,4.000000,4.000000,4.000000,,,,,,,,,,,,,,,,,,,,,,,,,
1577422398.483608,98.000000,0.000000,4242.563965,4267.179688,4048.205078,4160.000000,4163.589844,450.000000,4.000000,,,,0.000000,4.000000,4.000000,4.000000,4.000000,4.000000,,,,,,,,,,,,,,,,,,,,,,,,,
1577422398.491473,99.000000,0.000000,4241.538574,4263.077148,4028.205078,4155.384766,4167.179688,16214.000000,4.000000,,,,0.000000,4.000000,4.000000,4.000000,4.000000,4.000000,,,,,,,,,,,,,,,,,,,,,,,,,
1577422398.499237,100.000000,0.000000,4243.077148,4254.358887,4021.025635,4148.717773,4176.410156,450.000000,4.000000,,,,0.000000,4.000000,4.000000,4.000000,4.000000,4.000000,,,,,,,,,,,,,,,,,,,,,,,,,
1577422398.507102,101.000000,0.000000,4253.846191,4248.205078,4026.153809,4154.358887,4180.512695,450.000000,4.000000,,,,0.000000,4.000000,4.000000,4.000000,4.000000,4.000000,,,,,,,,,,,,,,,,,,,,,,,,,
1577422398.514866,102.000000,0.000000,4248.205078,4242.563965,4015.384521,4151.282227,4169.743652,450.000000,4.000000,,,,0.000000,4.000000,4.000000,4.000000,4.000000,4.000000,,,,,,,,,,,,,,,,,,,,,,,,,
1577422398.522631,103.000000,0.000000,4243.077148,4230.769043,4017.948730,4147.179688,4165.641113,16214.000000,4.000000,,,,0.000000,4.000000,4.000000,4.000000,4.000000,4.000000,,,,,,,,,,,,,,,,,,,,,,,,,
1577422398.530495,104.000000,0.000000,4250.256348,4230.256348,4036.410156,4151.282227,4165.128418,450.000000,4.000000,,,,0.000000,4.000000,4.000000,4.000000,4.000000,4.000000,,,,,,,,,,,,,,,,,,,,,,,,,
1577422398.538359,105.000000,0.000000,4249.743652,4270.256348,4044.102539,4154.358887,4163.077148,450.000000,4.000000,,,,0.000000,4.000000,4.000000,4.000000,4.000000,4.000000,,,,,,,,,,,,,,,,,,,,,,,,,
1577422398.546124,106.000000,0.000000,4250.769043,4317.948730,4050.256348,4153.846191,4166.153809,450.000000,4.000000,,,,0.000000,4.000000,4.000000,4.000000,4.000000,4.000000,,,,,,,,,,,,,,,,,,,,,,,,,
1577422398.553988,107.000000,0.000000,4248.717773,4305.641113,4049.743652,4142.051270,4156.922852,16214.000000,4.000000,,,,0.000000,4.000000,4.000000,4.000000,4.000000,4.000000,,,,,,,,,,,,,,,,,,,,,,,,,
1577422398.561853,108.000000,0.000000,4241.025879,4266.666504,4053.333252,4136.410156,4146.153809,450.000000,4.000000,,,,0.000000,4.000000,4.000000,4.000000,4.000000,4.000000,,,,,,,,,,,,,,,,,,,,,,,,,
1577422398.569619,109.000000,0.000000,4251.794922,4282.051270,4081.538574,4151.794922,4160.512695,450.000000,4.000000,,,,0.000000,4.000000,4.000000,4.000000,4.000000,4.000000,,,,,,,,,,,,,,,,,,,,,,,,,
1577422398.577384,110.000000,0.000000,4261.025879,4311.282227,4097.948730,4156.410156,4173.846191,450.000000,4.000000,,,,0.000000,4.000000,4.000000,4.000000,4.000000,4.000000,24.880154,12.372994,4.860048,2.792939,0.999246,47.766808,15.373030,5.447423,2.764784,1.158457,98.177544,7.579813,5.832601,4.206106,1.339325,15.240989,4.323357,3.772402,2.914143,1.002543,25.467419,11.160606,5.867399,3.272099,1.236041
1577422398.585248,111.000000,0.000000,4243.077148,4301.538574,4082.564209,4143.077148,4158.974121,16214.000000,4.000000,,,,0.000000,4.000000,4.000000,4.000000,4.000000,4.000000,,,,,,,,,,,,,,,,,,,,,,,,,
1577422398.593012,112.000000,0.000000,4234.358887,4290.256348,4077.948730,4140.000000,4149.230957,450.000000,4.000000,,,,0.000000,4.000000,4.000000,4.000000,4.000000,4.000000,,,,,,,,,,,,,,,,,,,,,,,,,
1577422398.600877,113.000000,0.000000,4238.461426,4289.230957,4077.435791,4141.538574,4152.820313,450.000000,4.000000,,,,0.000000,4.000000,4.000000,4.000000,4.000000,4.000000,,,,,,,,,,,,,,,,,,,,,,,,,
1577422398.608641,114.000000,0.000000,4235.384766,4277.948730,4062.051270,4138.974121,4148.205078,450.000000,4.000000,,,,0.000000,4.000000,4.000000,4.000000,4.000000,4.000000,,,,,,,,,,,,,,,,,,,,,,,,,
1577422398.616505,115.000000,0.000000,4247.692383,4275.384766,4068.205078,4157.948730,4163.589844,16214.000000,4.000000,,,,0.000000,4.000000,4.000000,4.000000,4.000000,4.000000,,,,,,,,,,,,,,,,,,,,,,,,,
1577422398.624270,116.000000,0.000000,4265.128418,4282.563965,4080.512939,4174.871582,4185.641113,450.000000,4.000000,,,,0.000000,4.000000,4.000000,4.000000,4.000000,4.000000,,,,,,,,,,,,,,,,,,,,,,,,,
1577422398.632134,117.000000,0.000000,4264.615234,4289.743652,4068.205078,4162.563965,4181.538574,450.000000,4.000000,,,,0.000000,4.000000,4.000000,4.000000,4.000000,4.000000,,,,,,,,,,,,,,,,,,,,,,,,,
1577422398.639898,118.000000,0.000000,4263.077148,4288.205078,4056.410156,4158.461426,4173.846191,450.000000,4.000000,,,,0.000000,4.000000,4.000000,4.000000,4.000000,4.000000,,,,,,,,,,,,,,,,,,,,,,,,,
1577422398.647762,119.000000,0.000000,4276.410156,4275.897461,4064.102539,4176.922852,4181.538574,16214.000000,4.000000,,,,0.000000,4.000000,4.000000,4.000000,4.000000,4.000000,,,,,,,,,,,,,,,,,,,,,,,,,
1577422398.655526,120.000000,0.000000,4285.641113,4265.128418,4073.846191,4178.974121,4190.256348,450.000000,4.000000,,,,0.000000,4.000000,4.000000,4.000000,4.000000,4.000000,,,,,,,,,,,,,,,,,,,,,,,,,
1577422398.663390,121.000000,0.000000,4287.179688,4273.333496,4073.846191,4169.230957,4190.256348,450.000000,4.000000,,,,0.000000,4.000000,4.000000,4.000000,4.000000,4.000000,,,,,,,,,,,,,,,,,,,,,,,,,
1577422398.671255,122.000000,0.000000,4291.794922,4277.948730,4076.410156,4177.436035,4194.871582,450.000000,4.000000,,,,0.000000,4.000000,4.000000,4.000000,4.000000,4.000000,,,,,,,,,,,,,,,,,,,,,,,,,
1577422398.679121,123.000000,0.000000,4289.230957,4260.000000,4081.025635,4184.102539,4194.871582,16214.000000,4.000000,,,,0.000000,4.000000,4.000000,4.000000,4.000000,4.000000,,,,,,,,,,,,,,,,,,,,,,,,,
1577422398.686987,124.000000,0.000000,4282.051270,4258.461426,4089.743652,4181.025879,4185.641113,450.000000,4.000000,,,,0.000000,4.000000,4.000000,4.000000,4.000000,4.000000,,,,,,,,,,,,,,,,,,,,,,,,,
1577422398.694753,125.000000,0.000000,4281.538574,4279.487305,4097.948730,4180.512695,4181.538574,450.000000,4.000000,,,,0.000000,4.000000,4.000000,4.000000,4.000000,4.000000,,,,,,,,,,,,,,,,,,,,,,,,,
1577422398.702620,126.000000,0.000000,4272.820313,4276.922852,4099.487305,4166.153809,4173.846191,450.000000,4.000000,,,,0.000000,4.000000,4.000000,4.000000,4.000000,4.000000,19.457687,11.314965,4.966150,3.146590,1.017821,41.914207,16.968067,6.228436,2.873540,1.289425,89.129288,5.313970,6.298098,4.169734,1.269174,15.290771,3.941722,3.485363,3.296013,0.966254,24.245325,11.025448,5.811543,3.580974,1.236752
1577422398.710386,127.000000,0.000000,4260.000000,4249.230957,4103.589844,4148.205078,4161.025879,234.000000,4.000000,,,,0.000000,4.000000,4.000000,4.000000,4.000000,4.000000,,,,,,,,,,,,,,,,,,,,,,,,,
1577422398.718252,0.000000,0.000000,4272.307617,4246.666504,4119.487305,4156.922852,4168.205078,450.000000,4.000000,,,,0.000000,4.000000,4.000000,4.000000,4.000000,4.000000,,,,,,,,,,,,,,,,,,,,,,,,,
1577422398.726019,1.000000,0.000000,4296.922852,4275.384766,4143.589844,4180.512695,4188.717773,450.000000,4.000000,,,,0.000000,4.000000,4.000000,4.000000,4.000000,4.000000,,,,,,,,,,,,,,,,,,,,,,,,,
1577422398.733885,2.000000,0.000000,4296.922852,4277.948730,4146.153809,4182.563965,4195.897461,16213.000000,4.000000,,,,0.000000,4.000000,4.000000,4.000000,4.000000,4.000000,,,,,,,,,,,,,,,,,,,,,,,,,
1577422398.741651,3.000000,0.000000,4284.615234,4260.000000,4129.230957,4170.769043,4192.307617,450.000000,4.000000,,,,0.000000,4.000000,4.000000,4.000000,4.000000,4.000000,,,,,,,,,,,,,,,,,,,,,,,,,
1577422398.749517,4.000000,0.000000,4291.282227,4249.743652,4119.487305,4178.974121,4192.307617,16170.000000,4.000000,,,,0.000000,4.000000,4.000000,4.000000,4.000000,4.000000,,,,,,,,,,,,,,,,,,,,,,,,,
1577422398.757283,5.000000,0.000000,4298.461426,4230.256348,4109.743652,4187.692383,4193.846191,450.000000,4.000000,,,,0.000000,4.000000,4.000000,4.000000,4.000000,4.000000,,,,,,,,,,,,,,,,,,,,,,,,,
1577422398.765150,6.000000,0.000000,4297.948730,4204.615234,4088.205078,4178.974121,4192.307617,16168.000000,4.000000,,,,0.000000,4.000000,4.000000,4.000000,4.000000,4.000000,,,,,,,,,,,,,,,,,,,,,,,,,
1577422398.772916,7.000000,0.000000,4313.846191,4199.487305,4072.820557,4177.948730,4200.000000,450.000000,4.000000,,,,0.000000,4.000000,4.000000,4.000000,4.000000,4.000000,,,,,,,,,,,,,,,,,,,,,,,,,
1577422398.780782,8.000000,0.000000,4329.743652,4179.487305,4057.948730,4181.538574,4210.769043,450.000000,4.000000,,,,0.000000,4.000000,4.000000,4.000000,4.000000,4.000000,,,,,,,,,,,,,,,,,,,,,,,,,
1577422398.788548,9.000000,0.000000,4322.051270,4135.384766,4029.743652,4171.282227,4205.641113,16167.000000,4.000000,,,,0.000000,4.000000,4.000000,4.000000,4.000000,4.000000,,,,,,,,,,,,,,,,,,,,,,,,,
1577422398.796414,10.000000,0.000000,4322.563965,4117.948730,4014.358887,4155.897461,4206.153809,450.000000,4.000000,,,,0.000000,4.000000,4.000000,4.000000,4.000000,4.000000,,,,,,,,,,,,,,,,,,,,,,,,,
1577422398.804180,11.000000,0.000000,4348.717773,4115.384766,4022.051270,4158.461426,4227.692383,16213.000000,4.000000,,,,0.000000,4.000000,4.000000,4.000000,4.000000,4.000000,,,,,,,,,,,,,,,,,,,,,,,,,
1577422398.812046,12.000000,0.000000,4368.205078,4103.077148,4018.461426,4165.641113,4243.077148,450.000000,4.000000,,,,0.000000,4.000000,4.000000,4.000000,4.000000,4.000000,,,,,,,,,,,,,,,,,,,,,,,,,
1577422398.819812,13.000000,0.000000,4383.077148,4100.000000,3994.358887,4162.563965,4249.743652,450.000000,4.000000,,,,0.000000,4.000000,4.000000,4.000000,4.000000,4.000000,,,,,,,,,,,,,,,,,,,,,,,,,
1577422398.827678,14.000000,0.000000,4410.256348,4106.666504,3981.538574,4162.051270,4265.641113,450.000000,4.000000,,,,0.000000,4.000000,4.000000,4.000000,4.000000,4.000000,16.029150,10.334656,4.978750,3.351129,1.033705,33.316391,17.296644,6.589760,2.834002,1.381637,75.279968,3.384358,6.649700,3.858609,1.145894,14.163286,3.510634,3.143915,3.508764,0.915969,22.051941,10.285630,5.596482,3.774143,1.208143
1577422398.835444,15.000000,0.000000,4429.743652,4116.922852,3980.512939,4155.384766,4272.820313,16213.000000,4.000000,,,,0.000000,4.000000,4.000000,4.000000,4.000000,4.000000,,,,,,,,,,,,,,,,,,,,,,,,,
1577422398.843309,16.000000,0.000000,4440.000000,4122.051270,3976.923096,4138.461426,4268.717773,0.000000,4.000000,,,,0.000000,4.000000,4.000000,4.000000,4.000000,4.000000,,,,,,,,,,,,,,,,,,,,,,,,,
1577422398.851075,17.000000,0.000000,4455.897461,4128.205078,3977.435791,4129.743652,4269.743652,0.000000,4.000000,,,,0.000000,4.000000,4.000000,4.000000,4.000000,4.000000,,,,,,,,,,,,,,,,,,,,,,,,,
1577422398.858941,18.000000,0.000000,4473.846191,4144.615234,3984.615479,4129.743652,4274.871582,0.000000,4.000000,,,,0.000000,4.000000,4.000000,4.000000,4.000000,4.000000,,,,,,,,,,,,,,,,,,,,,,,,,
1577422398.866807,19.000000,0.000000,4492.307617,4153.846191,4006.153809,4143.077148,4288.717773,0.000000,4.000000,,,,0.000000,4.000000,4.000000,4.000000,4.000000,4.000000,,,,,,,,,,,,,,,,,,,,,,,,,
1577422398.874574,20.000000,0.000000,4520.000000,4161.025879,4040.000000,4158.974121,4311.282227,0.000000,4.000000,,,,0.000000,4.000000,4.000000,4.000000,4.000000,4.000000,,,,,,,,,,,,,,,,,,,,,,,,,
1577422398.882440,21.000000,0.000000,4550.769043,4200.000000,4070.256348,4165.128418,4325.128418,0.000000,4.000000,,,,0.000000,4.000000,4.000000,4.000000,4.000000,4.000000,,,,,,,,,,,,,,,,,,,,,,,,,
1577422398.890206,22.000000,0.000000,4553.846191,4234.358887,4076.923096,4158.461426,4318.974121,0.000000,4.000000,,,,0.000000,4.000000,4.000000,4.000000,4.000000,4.000000,,,,,,,,,,,,,,,,,,,,,,,,,
1577422398.898073,23.000000,0.000000,4538.974121,4235.384766,4068.718018,4150.769043,4306.666504,0.000000,4.000000,,,,0.000000,4.000000,4.000000,4.000000,4.000000,4.000000,,,,,,,,,,,,,,,,,,,,,,,,,
1577422398.905839,24.000000,0.000000,4553.333496,4262.051270,4080.512939,4162.563965,4313.333496,0.000000,4.000000,,,,0.000000,4.000000,4.000000,4.000000,4.000000,4.000000,,,,,,,,,,,,,,,,,,,,,,,,,
1577422398.913705,25.000000,0.000000,4573.333496,4304.615234,4088.718018,4175.897461,4323.589844,0.000000,4.000000,,,,0.000000,4.000000,4.000000,4.000000,4.000000,4.000000,,,,,,,,,,,,,,,,,,,,,,,,,
1577422398.921472,26.000000,0.000000,4545.641113,4298.974121,4058.461426,4158.974121,4307.179688,0.000000,4.000000,,,,0.000000,4.000000,4.000000,4.000000,4.000000,4.000000,,,,,,,,,,,,,,,,,,,,,,,,,
1577422398.929238,27.000000,0.000000,4521.025879,4275.384766,4038.974365,4147.179688,4288.205078,0.000000,4.000000,,,,0.000000,4.000000,4.000000,4.000000,4.000000,4.000000,,,,,,,,,,,,,,,,,,,,,,,,,
1577422398.937103,28.000000,0.000000,4559.487305,4277.436035,4070.256348,4176.410156,4320.000000,0.000000,4.000000,,,,0.000000,4.000000,4.000000,4.000000,4.000000,4.000000,,,,,,,,,,,,,,,,,,,,,,,,,
1577422398.944969,29.000000,0.000000,4601.025879,4292.307617,4096.922852,4205.641113,4365.641113,0.000000,4.000000,,,,0.000000,4.000000,4.000000,4.000000,4.000000,4.000000,,,,,,,,,,,,,,,,,,,,,,,,,
1577422398.952836,30.000000,0.000000,4604.615234,4295.897461,4090.769287,4202.563965,4369.743652,0.000000,4.000000,,,,0.000000,4.000000,4.000000,4.000000,4.000000,4.000000,13.346367,9.141849,4.680021,3.303789,1.030690,25.290323,16.211269,6.325243,2.644484,1.425770,61.744255,2.181913,6.592734,3.324840,1.008277,12.458892,3.027556,2.767525,3.451243,0.861445,19.141619,8.831112,5.135650,3.757971,1.139994
1577422398.960603,31.000000,0.000000,4615.384766,4288.205078,4102.563965,4200.512695,4364.102539,0.000000,4.000000,,,,0.000000,4.000000,4.000000,4.000000,4.000000,4.000000,,,,,,,,,,,,,,,,,,,,,,,,,
1577422398.968370,32.000000,0.000000,4632.820313,4276.922852,4129.743652,4206.153809,4373.333496,0.000000,4.000000,,,,0.000000,4.000000,4.000000,4.000000,4.000000,4.000000,,,,,,,,,,,,,,,,,,,,,,,,,
1577422398.976236,33.000000,0.000000,4629.743652,4277.436035,4136.410156,4204.102539,4378.974121,0.000000,4.000000,,,,0.000000,4.000000,4.000000,4.000000,4.000000,4.000000,,,,,,,,,,,,,,,,,,,,,,,,,
1577422398.984103,34.000000,0.000000,4624.102539,4286.666504,4137.436035,4203.589844,4374.358887,0.000000,4.000000,,,,0.000000,4.000000,4.000000,4.000000,4.000000,4.000000,,,,,,,,,,,,,,,,,,,,,,,,,
1577422398.991870,35.000000,0.000000,4621.025879,4278.974121,4145.641113,4203.589844,4367.179688,0.000000,4.000000,,,,0.000000,4.000000,4.000000,4.000000,4.000000,4.000000,,,,,,,,,,,,,,,,,,,,,,,,,
1577422398.999637,36.000000,0.000000,4607.692383,4262.563965,4142.051270,4197.948730,4353.846191,0.000000,4.000000,,,,0.000000,4.000000,4.000000,4.000000,4.000000,4.000000,,,,,,,,,,,,,,,,,,,,,,,,,
1577422399.007503,37.000000,0.000000,4595.897461,4265.641113,4136.410156,4193.846191,4338.461426,0.000000,4.000000,,,,0.000000,4.000000,4.000000,4.000000,4.000000,4.000000,,,,,,,,,,,,,,,,,,,,,,,,,
1577422399.015269,38.000000,0.000000,4596.922852,4286.666504,4145.128418,4197.436035,4343.589844,0.000000,4.000000,,,,0.000000,4.000000,4.000000,4.000000,4.000000,4.000000,,,,,,,,,,,,,,,,,,,,,,,,,
1577422399.023135,39.000000,0.000000,4590.769043,4322.563965,4148.205078,4196.922852,4348.717773,0.000000,4.000000,,,,0.000000,4.000000,4.000000,4.000000,4.000000,4.000000,,,,,,,,,,,,,,,,,,,,,,,,,
1577422399.030901,40.000000,0.000000,4580.000000,4358.461426,4134.358887,4187.692383,4334.871582,0.000000,4.000000,,,,0.000000,4.000000,4.000000,4.000000,4.000000,4.000000,,,,,,,,,,,,,,,,,,,,,,,,,
1577422399.038767,41.000000,0.000000,4582.563965,4384.615234,4123.077148,4181.538574,4321.538574,0.000000,4.000000,,,,0.000000,4.000000,4.000000,4.000000,4.000000,4.000000,,,,,,,,,,,,,,,,,,,,,,,,,
1577422399.046533,42.000000,0.000000,4585.128418,4408.205078,4111.794922,4176.410156,4318.974121,0.000000,4.000000,,,,0.000000,4.000000,4.000000,4.000000,4.000000,4.000000,,,,,,,,,,,,,,,,,,,,,,,,,
1577422399.054399,43.000000,0.000000,4577.948730,4423.589844,4089.743652,4172.820313,4317.948730,0.000000,4.000000,,,,0.000000,4.000000,4.000000,4.000000,4.000000,4.000000,,,,,,,,,,,,,,,,,,,,,,,,,
1577422399.062165,44.000000,0.000000,4570.769043,4437.948730,4081.025635,4175.384766,4317.436035,0.000000,4.000000,,,,0.000000,4.000000,4.000000,4.000000,4.000000,4.000000,,,,,,,,,,,,,,,,,,,,,,,,,
1577422399.070030,45.000000,0.000000,4572.820313,4474.358887,4088.205078,4176.922852,4324.615234,0.000000,4.000000,,,,0.000000,4.000000,4.000000,4.000000,4.000000,4.000000,,,,,,,,,,,,,,,,,,,,,,,,,
1577422399.077796,46.000000,0.000000,4583.077148,4511.282227,4097.436035,4189.230957,4340.512695,0.000000,4.000000,,,,0.000000,4.000000,4.000000,4.000000,4.000000,4.000000,10.909893,7.654490,4.050052,2.989020,0.991638,20.188070,14.003407,5.446234,2.357023,1.432992,51.413239,1.715008,5.977527,2.681128,0.885185,10.256417,2.516248,2.390241,3.112678,0.804957,15.672767,6.873812,4.465083,3.494130,1.029786
1577422399.085662,47.000000,0.000000,4602.563965,4517.436035,4115.384766,4212.820313,4364.102539,0.000000,4.000000,,,,0.000000,4.000000,4.000000,4.000000,4.000000,4.000000,,,,,,,,,,,,,,,,,,,,,,,,,
1577422399.093428,48.000000,0.000000,4613.333496,4516.410156,4134.358887,4217.436035,4381.025879,0.000000,4.000000,,,,0.000000,4.000000,4.000000,4.000000,4.000000,4.000000,,,,,,,,,,,,,,,,,,,,,,,,,
1577422399.101293,49.000000,0.000000,4600.512695,4508.205078,4134.358887,4202.051270,4377.948730,0.000000,4.000000,,,,0.000000,4.000000,4.000000,4.000000,4.000000,4.000000,,,,,,,,,,,,,,,,,,,,,,,,,
1577422399.109059,50.000000,0.000000,4595.384766,4482.051270,4124.102539,4197.436035,4378.974121,0.000000,4.000000,,,,0.000000,4.000000,4.000000,4.000000,4.000000,4.000000,,,,,,,,,,,,,,,,,,,,,,,,,
1577422399.116925,51.000000,0.000000,4592.307617,4461.538574,4117.948730,4199.487305,4383.589844,0.000000,4.000000,,,,0.000000,4.000000,4.000000,4.000000,4.000000,4.000000,,,,,,,,,,,,,,,,,,,,,,,,,
1577422399.124791,52.000000,0.000000,4569.230957,4448.205078,4117.436035,4193.846191,4370.256348,0.000000,4.000000,,,,0.000000,4.000000,4.000000,4.000000,4.000000,4.000000,,,,,,,,,,,,,,,,,,,,,,,,,
1577422399.132558,53.000000,0.000000,4563.077148,4442.051270,4121.538574,4186.666504,4363.589844,0.000000,4.000000,,,,0.000000,4.000000,4.000000,4.000000,4.000000,4.000000,,,,,,,,,,,,,,,,,,,,,,,,,
1577422399.140424,54.000000,0.000000,4569.230957,4444.102539,4114.871582,4174.358887,4368.205078,0.000000,4.000000,,,,0.000000,4.000000,4.000000,4.000000,4.000000,4.000000,,,,,,,,,,,,,,,,,,,,,,,,,
1577422399.148191,55.000000,0.000000,4556.410156,4438.974121,4108.205078,4161.538574,4359.487305,0.000000,4.000000,,,,0.000000,4.000000,4.000000,4.000000,4.000000,4.000000,,,,,,,,,,,,,,,,,,,,,,,,,
1577422399.156058,56.000000,0.000000,4547.692383,4418.974121,4122.563965,4163.589844,4358.974121,0.000000,4.000000,,,,0.000000,4.000000,4.000000,4.000000,4.000000,4.000000,,,,,,,,,,,,,,,,,,,,,,,,,
