title:l5, start timestamp:2019-12-27T07:55:24.996195+03:00, stop timestamp:2019-12-27T07:55:54.256611+03:00, headset type:INSIGHT, headset serial:A2D200FB, headset firmware:930, subject name:Qasim, channels:44, sampling rate:eeg_128;pow_8, samples:3753      , version:2.0
Timestamp,EEG.Counter,EEG.Interpolated,EEG.AF3,EEG.T7,EEG.Pz,EEG.T8,EEG.AF4,EEG.RawCq,EEG.Battery,MarkerIndex,MarkerType,MarkerValueInt,EEG.MarkerHardware,CQ.AF3,CQ.T7,CQ.Pz,CQ.T8,CQ.AF4,POW.AF3.Theta,POW.AF3.Alpha,POW.AF3.BetaL,POW.AF3.BetaH,POW.AF3.Gamma,POW.T7.Theta,POW.T7.Alpha,POW.T7.BetaL,POW.T7.BetaH,POW.T7.Gamma,POW.Pz.Theta,POW.Pz.Alpha,POW.Pz.BetaL,POW.Pz.BetaH,POW.Pz.Gamma,POW.T8.Theta,POW.T8.Alpha,POW.T8.BetaL,POW.T8.BetaH,POW.T8.Gamma,POW.AF4.Theta,POW.AF4.Alpha,POW.AF4.BetaL,POW.AF4.BetaH,POW.AF4.Gamma
1577422524.996195,54.000000,0.000000,4373.846191,4318.974121,4034.358887,4144.615234,4281.538574,0.000000,4.000000,,,,0.000000,4.000000,4.000000,4.000000,4.000000,4.000000,,,,,,,,,,,,,,,,,,,,,,,,,
1577422525.004175,55.000000,0.000000,4306.666504,4253.846191,4021.538574,4118.461426,4232.820313,0.000000,4.000000,,,,0.000000,4.000000,4.000000,4.000000,4.000000,4.000000,,,,,,,,,,,,,,,,,,,,,,,,,
1577422525.012155,56.000000,0.000000,4335.384766,4261.538574,4057.948730,4141.538574,4252.307617,0.000000,4.000000,,,,0.000000,4.000000,4.000000,4.000000,4.000000,4.000000,,,,,,,,,,,,,,,,,,,,,,,,,
1577422525.020035,57.000000,0.000000,4425.128418,4294.358887,4063.076904,4138.461426,4300.512695,0.000000,4.000000,,,,0.000000,4.000000,4.000000,4.000000,4.000000,4.000000,,,,,,,,,,,,,,,,,,,,,,,,,
1577422525.027915,58.000000,0.000000,4491.282227,4326.666504,4069.743652,4147.692383,4340.512695,0.000000,4.000000,,,,0.000000,4.000000,4.000000,4.000000,4.000000,4.000000,,,,,,,,,,,,,,,,,,,,,,,,,
1577422525.035696,59.000000,0.000000,4519.487305,4338.461426,4084.102539,4165.641113,4361.025879,0.000000,4.000000,,,,0.000000,4.000000,4.000000,4.000000,4.000000,4.000000,,,,,,,,,,,,,,,,,,,,,,,,,
1577422525.043576,60.000000,0.000000,4462.563965,4289.230957,4077.948730,4153.846191,4328.717773,0.000000,4.000000,,,,0.000000,4.000000,4.000000,4.000000,4.000000,4.000000,,,,,,,,,,,,,,,,,,,,,,,,,
1577422525.051356,61.000000,0.000000,4449.743652,4278.461426,4094.871826,4168.205078,4327.692383,0.000000,4.000000,,,,0.000000,4.000000,4.000000,4.000000,4.000000,4.000000,,,,,,,,,,,,,,,,,,,,,,,,,
1577422525.059236,62.000000,0.000000,4496.922852,4292.820313,4110.769043,4152.820313,4358.974121,0.000000,4.000000,,,,0.000000,4.000000,4.000000,4.000000,4.000000,4.000000,,,,,,,,,,,,,,,,,,,,,,,,,
1577422525.067017,63.000000,0.000000,4525.128418,4296.410156,4140.000000,4151.794922,4396.410156,0.000000,4.000000,,,,0.000000,4.000000,4.000000,4.000000,4.000000,4.000000,5.603573,1.477863,2.406230,14.748190,7.013267,25.177670,1.791520,1.858871,6.823164,3.489346,65.529900,8.713323,3.032150,3.329556,2.116456,3.221823,2.286535,1.152379,2.007713,3.982927,3.747979,1.785457,2.281197,10.447459,5.409048
1577422525.074897,64.000000,0.000000,4532.820313,4312.307617,4152.307617,4158.974121,4404.615234,450.000000,4.000000,,,,0.000000,4.000000,4.000000,4.000000,4.000000,4.000000,,,,,,,,,,,,,,,,,,,,,,,,,
1577422525.082677,65.000000,0.000000,4480.512695,4273.846191,4118.974121,4096.410156,4334.871582,450.000000,4.000000,,,,0.000000,4.000000,4.000000,4.000000,4.000000,4.000000,,,,,,,,,,,,,,,,,,,,,,,,,
1577422525.090557,66.000000,0.000000,4564.102539,4336.410156,4214.871582,4177.948730,4405.128418,16128.000000,4.000000,,,,0.000000,4.000000,4.000000,4.000000,4.000000,4.000000,,,,,,,,,,,,,,,,,,,,,,,,,
1577422525.098338,67.000000,0.000000,4585.128418,4336.410156,4187.179688,4145.641113,4402.051270,450.000000,4.000000,,,,0.000000,4.000000,4.000000,4.000000,4.000000,4.000000,,,,,,,,,,,,,,,,,,,,,,,,,
1577422525.106318,68.000000,0.000000,4293.333496,4100.512695,4077.435791,3990.256348,4196.410156,16121.000000,4.000000,,,,0.000000,4.000000,4.000000,4.000000,4.000000,4.000000,,,,,,,,,,,,,,,,,,,,,,,,,
1577422525.114298,69.000000,0.000000,4733.333496,4475.384766,4423.077148,4407.179688,4624.615234,450.000000,4.000000,,,,0.000000,4.000000,4.000000,4.000000,4.000000,4.000000,,,,,,,,,,,,,,,,,,,,,,,,,
1577422525.122178,70.000000,0.000000,4946.153809,4558.461426,4242.051270,4173.333496,4598.974121,16139.000000,4.000000,,,,0.000000,4.000000,4.000000,4.000000,4.000000,4.000000,,,,,,,,,,,,,,,,,,,,,,,,,
1577422525.130158,71.000000,0.000000,4381.538574,4070.256348,4084.102539,3807.692383,4131.794922,450.000000,4.000000,,,,0.000000,4.000000,4.000000,4.000000,4.000000,4.000000,,,,,,,,,,,,,,,,,,,,,,,,,
1577422525.138138,72.000000,1.000000,4406.210938,4088.774902,4116.068359,3846.780518,4160.398926,450.000000,4.000000,,,,0.000000,4.000000,4.000000,4.000000,4.000000,4.000000,,,,,,,,,,,,,,,,,,,,,,,,,
1577422525.146019,73.000000,1.000000,4430.883301,4107.293457,4148.034180,3885.868896,4189.002930,16111.000000,4.000000,,,,0.000000,4.000000,4.000000,4.000000,4.000000,4.000000,,,,,,,,,,,,,,,,,,,,,,,,,
1577422525.153899,74.000000,1.000000,4455.555664,4125.812012,4180.000000,3924.957275,4217.606934,450.000000,4.000000,,,,0.000000,4.000000,4.000000,4.000000,4.000000,4.000000,,,,,,,,,,,,,,,,,,,,,,,,,
1577422525.161779,75.000000,1.000000,4480.228027,4144.330566,4211.965820,3964.045654,4246.210938,16128.000000,4.000000,,,,0.000000,4.000000,4.000000,4.000000,4.000000,4.000000,,,,,,,,,,,,,,,,,,,,,,,,,
1577422525.169659,76.000000,1.000000,4504.900391,4162.849121,4243.931641,4003.133789,4274.814941,450.000000,4.000000,,,,0.000000,4.000000,4.000000,4.000000,4.000000,4.000000,,,,,,,,,,,,,,,,,,,,,,,,,
1577422525.177539,77.000000,1.000000,4529.572754,4181.367676,4275.897461,4042.222168,4303.418945,450.000000,4.000000,,,,0.000000,4.000000,4.000000,4.000000,4.000000,4.000000,,,,,,,,,,,,,,,,,,,,,,,,,
1577422525.185420,78.000000,1.000000,4554.245117,4199.886230,4307.863281,4081.310547,4332.022949,450.000000,4.000000,,,,0.000000,4.000000,4.000000,4.000000,4.000000,4.000000,,,,,,,,,,,,,,,,,,,,,,,,,
1577422525.193300,79.000000,1.000000,4578.917480,4218.404785,4339.829102,4120.398926,4360.626953,16128.000000,4.000000,,,,0.000000,4.000000,4.000000,4.000000,4.000000,4.000000,4.777151,1.443904,2.281753,14.475842,7.144341,23.711254,1.686952,1.479189,7.379175,3.557346,55.771721,9.408019,3.150776,3.499255,2.183053,2.815039,2.015006,1.104255,2.007467,3.990349,3.512991,1.741299,2.069937,10.898967,5.501899
1577422525.201180,80.000000,0.000000,4603.589844,4236.922852,4371.794922,4159.487305,4389.230957,450.000000,4.000000,,,,0.000000,4.000000,4.000000,4.000000,4.000000,4.000000,,,,,,,,,,,,,,,,,,,,,,,,,
1577422525.208960,81.000000,0.000000,4546.666504,4176.922852,4344.102539,4108.717773,4329.230957,450.000000,4.000000,,,,0.000000,4.000000,4.000000,4.000000,4.000000,4.000000,,,,,,,,,,,,,,,,,,,,,,,,,
1577422525.216841,82.000000,0.000000,4558.461426,4180.512695,4399.487305,4134.358887,4348.717773,450.000000,4.000000,,,,0.000000,4.000000,4.000000,4.000000,4.000000,4.000000,,,,,,,,,,,,,,,,,,,,,,,,,
1577422525.224721,83.000000,0.000000,4594.358887,4205.128418,4445.128418,4147.692383,4383.077148,16121.000000,4.000000,,,,0.000000,4.000000,4.000000,4.000000,4.000000,4.000000,,,,,,,,,,,,,,,,,,,,,,,,,
1577422525.232501,84.000000,0.000000,4550.769043,4175.897461,4440.512695,4114.871582,4344.102539,450.000000,4.000000,,,,0.000000,4.000000,4.000000,4.000000,4.000000,4.000000,,,,,,,,,,,,,,,,,,,,,,,,,
1577422525.240381,85.000000,0.000000,4538.974121,4157.436035,4443.589844,4116.410156,4333.846191,450.000000,4.000000,,,,0.000000,4.000000,4.000000,4.000000,4.000000,4.000000,,,,,,,,,,,,,,,,,,,,,,,,,
1577422525.248162,86.000000,0.000000,4510.769043,4121.538574,4425.128418,4088.718018,4310.256348,450.000000,4.000000,,,,0.000000,4.000000,4.000000,4.000000,4.000000,4.000000,,,,,,,,,,,,,,,,,,,,,,,,,
1577422525.255942,87.000000,0.000000,4508.717773,4135.384766,4442.563965,4100.000000,4314.871582,16121.000000,4.000000,,,,0.000000,4.000000,4.000000,4.000000,4.000000,4.000000,,,,,,,,,,,,,,,,,,,,,,,,,
1577422525.263822,88.000000,0.000000,4530.769043,4163.589844,4445.641113,4121.538574,4330.769043,450.000000,4.000000,,,,0.000000,4.000000,4.000000,4.000000,4.000000,4.000000,,,,,,,,,,,,,,,,,,,,,,,,,
1577422525.271702,89.000000,0.000000,4496.410156,4140.512695,4409.230957,4098.461426,4302.051270,450.000000,4.000000,,,,0.000000,4.000000,4.000000,4.000000,4.000000,4.000000,,,,,,,,,,,,,,,,,,,,,,,,,
1577422525.279483,90.000000,0.000000,4486.153809,4149.230957,4397.948730,4096.410156,4290.256348,450.000000,4.000000,,,,0.000000,4.000000,4.000000,4.000000,4.000000,4.000000,,,,,,,,,,,,,,,,,,,,,,,,,
1577422525.287363,91.000000,0.000000,4485.128418,4164.102539,4394.871582,4094.358887,4280.512695,16121.000000,4.000000,,,,0.000000,4.000000,4.000000,4.000000,4.000000,4.000000,,,,,,,,,,,,,,,,,,,,,,,,,
1577422525.295143,92.000000,0.000000,4497.436035,4180.000000,4415.384766,4111.282227,4290.769043,450.000000,4.000000,,,,0.000000,4.000000,4.000000,4.000000,4.000000,4.000000,,,,,,,,,,,,,,,,,,,,,,,,,
1577422525.302923,93.000000,0.000000,4512.820313,4203.077148,4420.512695,4120.512695,4301.025879,450.000000,4.000000,,,,0.000000,4.000000,4.000000,4.000000,4.000000,4.000000,,,,,,,,,,,,,,,,,,,,,,,,,
1577422525.310904,94.000000,0.000000,4509.743652,4214.358887,4421.538574,4114.871582,4305.641113,450.000000,4.000000,,,,0.000000,4.000000,4.000000,4.000000,4.000000,4.000000,,,,,,,,,,,,,,,,,,,,,,,,,
1577422525.318784,95.000000,0.000000,4517.436035,4220.512695,4447.179688,4128.717773,4326.666504,16121.000000,4.000000,,,,0.000000,4.000000,4.000000,4.000000,4.000000,4.000000,3.967933,1.590283,2.351458,14.565653,7.429179,21.831818,1.778642,1.362782,8.282522,3.902813,53.526310,9.221189,3.093003,3.481609,2.256145,2.808010,2.042965,1.390448,2.085510,3.929778,3.494893,1.861680,2.061438,11.360341,5.620399
1577422525.326664,96.000000,0.000000,4494.871582,4198.974121,4444.615234,4121.025879,4310.769043,450.000000,4.000000,,,,0.000000,4.000000,4.000000,4.000000,4.000000,4.000000,,,,,,,,,,,,,,,,,,,,,,,,,
1577422525.334644,97.000000,0.000000,4482.051270,4191.794922,4442.563965,4124.615234,4302.051270,450.000000,4.000000,,,,0.000000,4.000000,4.000000,4.000000,4.000000,4.000000,,,,,,,,,,,,,,,,,,,,,,,,,
1577422525.342524,98.000000,0.000000,4505.641113,4204.615234,4460.512695,4155.384766,4317.948730,450.000000,4.000000,,,,0.000000,4.000000,4.000000,4.000000,4.000000,4.000000,,,,,,,,,,,,,,,,,,,,,,,,,
1577422525.350504,99.000000,0.000000,4496.922852,4186.153809,4444.615234,4161.538574,4310.256348,16121.000000,4.000000,,,,0.000000,4.000000,4.000000,4.000000,4.000000,4.000000,,,,,,,,,,,,,,,,,,,,,,,,,
1577422525.358385,100.000000,0.000000,4477.436035,4163.589844,4412.820313,4156.922852,4304.102539,450.000000,4.000000,,,,0.000000,4.000000,4.000000,4.000000,4.000000,4.000000,,,,,,,,,,,,,,,,,,,,,,,,,
1577422525.366265,101.000000,0.000000,4484.102539,4146.666504,4409.743652,4162.051270,4317.948730,450.000000,4.000000,,,,0.000000,4.000000,4.000000,4.000000,4.000000,4.000000,,,,,,,,,,,,,,,,,,,,,,,,,
1577422525.374045,102.000000,0.000000,4493.333496,4130.256348,4417.436035,4165.641113,4335.384766,450.000000,4.000000,,,,0.000000,4.000000,4.000000,4.000000,4.000000,4.000000,,,,,,,,,,,,,,,,,,,,,,,,,
1577422525.381825,103.000000,0.000000,4475.384766,4118.974121,4386.666504,4149.230957,4325.641113,16121.000000,4.000000,,,,0.000000,4.000000,4.000000,4.000000,4.000000,4.000000,,,,,,,,,,,,,,,,,,,,,,,,,
1577422525.389706,104.000000,0.000000,4448.717773,4097.948730,4341.025879,4126.666504,4307.179688,450.000000,4.000000,,,,0.000000,4.000000,4.000000,4.000000,4.000000,4.000000,,,,,,,,,,,,,,,,,,,,,,,,,
1577422525.397486,105.000000,0.000000,4437.948730,4072.307617,4318.974121,4113.333496,4306.153809,450.000000,4.000000,,,,0.000000,4.000000,4.000000,4.000000,4.000000,4.000000,,,,,,,,,,,,,,,,,,,,,,,,,
1577422525.405366,106.000000,0.000000,4426.666504,4074.358887,4295.897461,4097.436035,4296.410156,450.000000,4.000000,,,,0.000000,4.000000,4.000000,4.000000,4.000000,4.000000,,,,,,,,,,,,,,,,,,,,,,,,,
1577422525.413147,107.000000,0.000000,4430.256348,4110.769043,4282.563965,4098.974121,4295.384766,16121.000000,4.000000,,,,0.000000,4.000000,4.000000,4.000000,4.000000,4.000000,,,,,,,,,,,,,,,,,,,,,,,,,
1577422525.421127,108.000000,0.000000,4434.871582,4122.051270,4280.512695,4109.230957,4299.487305,450.000000,4.000000,,,,0.000000,4.000000,4.000000,4.000000,4.000000,4.000000,,,,,,,,,,,,,,,,,,,,,,,,,
1577422525.429007,109.000000,0.000000,4424.615234,4112.820313,4268.205078,4108.205078,4289.743652,450.000000,4.000000,,,,0.000000,4.000000,4.000000,4.000000,4.000000,4.000000,,,,,,,,,,,,,,,,,,,,,,,,,
1577422525.436887,110.000000,0.000000,4422.051270,4128.717773,4256.410156,4109.743652,4288.205078,450.000000,4.000000,,,,0.000000,4.000000,4.000000,4.000000,4.000000,4.000000,,,,,,,,,,,,,,,,,,,,,,,,,
1577422525.444667,111.000000,0.000000,4429.230957,4167.179688,4265.641113,4122.051270,4292.307617,16121.000000,4.000000,,,,0.000000,4.000000,4.000000,4.000000,4.000000,4.000000,4.519487,2.548222,3.400438,15.649768,8.934278,18.887335,2.819316,2.085509,9.669412,5.154392,49.829693,8.548827,3.193882,3.462402,2.595094,5.481042,3.704790,2.834721,2.743885,4.461964,5.346126,3.011546,3.030812,12.315337,6.445183
1577422525.452647,112.000000,0.000000,4441.538574,4208.205078,4284.615234,4138.974121,4300.000000,450.000000,4.000000,,,,0.000000,4.000000,4.000000,4.000000,4.000000,4.000000,,,,,,,,,,,,,,,,,,,,,,,,,
1577422525.460528,113.000000,0.000000,4433.333496,4231.282227,4282.563965,4135.897461,4295.384766,450.000000,4.000000,,,,0.000000,4.000000,4.000000,4.000000,4.000000,4.000000,,,,,,,,,,,,,,,,,,,,,,,,,
1577422525.468408,114.000000,0.000000,4423.589844,4257.948730,4286.666504,4123.589844,4291.794922,450.000000,4.000000,,,,0.000000,4.000000,4.000000,4.000000,4.000000,4.000000,,,,,,,,,,,,,,,,,,,,,,,,,
1577422525.476188,115.000000,0.000000,4418.974121,4291.282227,4307.179688,4115.384766,4292.820313,16121.000000,4.000000,,,,0.000000,4.000000,4.000000,4.000000,4.000000,4.000000,,,,,,,,,,,,,,,,,,,,,,,,,
1577422525.484168,116.000000,0.000000,4403.077148,4313.333496,4333.333496,4115.384766,4282.563965,450.000000,4.000000,,,,0.000000,4.000000,4.000000,4.000000,4.000000,4.000000,,,,,,,,,,,,,,,,,,,,,,,,,
1577422525.492049,117.000000,0.000000,4402.051270,4330.256348,4365.128418,4129.743652,4283.589844,450.000000,4.000000,,,,0.000000,4.000000,4.000000,4.000000,4.000000,4.000000,,,,,,,,,,,,,,,,,,,,,,,,,
1577422525.499929,118.000000,0.000000,4416.410156,4346.666504,4400.000000,4144.102539,4291.282227,450.000000,4.000000,,,,0.000000,4.000000,4.000000,4.000000,4.000000,4.000000,,,,,,,,,,,,,,,,,,,,,,,,,
1577422525.507709,119.000000,0.000000,4423.077148,4357.436035,4436.410156,4154.358887,4293.846191,16121.000000,4.000000,,,,0.000000,4.000000,4.000000,4.000000,4.000000,4.000000,,,,,,,,,,,,,,,,,,,,,,,,,
1577422525.515589,120.000000,0.000000,4431.282227,4363.077148,4463.077148,4170.256348,4307.692383,450.000000,4.000000,,,,0.000000,4.000000,4.000000,4.000000,4.000000,4.000000,,,,,,,,,,,,,,,,,,,,,,,,,
1577422525.523370,121.000000,0.000000,4432.307617,4354.871582,4466.153809,4173.333496,4310.256348,450.000000,4.000000,,,,0.000000,4.000000,4.000000,4.000000,4.000000,4.000000,,,,,,,,,,,,,,,,,,,,,,,,,
1577422525.531150,122.000000,0.000000,4413.846191,4337.436035,4454.871582,4150.256348,4288.717773,450.000000,4.000000,,,,0.000000,4.000000,4.000000,4.000000,4.000000,4.000000,,,,,,,,,,,,,,,,,,,,,,,,,
1577422525.539030,123.000000,0.000000,4414.358887,4340.512695,4459.487305,4146.153809,4296.410156,16121.000000,4.000000,,,,0.000000,4.000000,4.000000,4.000000,4.000000,4.000000,,,,,,,,,,,,,,,,,,,,,,,,,
1577422525.546910,124.000000,0.000000,4426.153809,4343.589844,4473.333496,4163.077148,4320.000000,450.000000,4.000000,,,,0.000000,4.000000,4.000000,4.000000,4.000000,4.000000,,,,,,,,,,,,,,,,,,,,,,,,,
1577422525.554691,125.000000,0.000000,4411.794922,4338.974121,4467.692383,4156.410156,4306.153809,450.000000,4.000000,,,,0.000000,4.000000,4.000000,4.000000,4.000000,4.000000,,,,,,,,,,,,,,,,,,,,,,,,,
1577422525.562471,126.000000,0.000000,4402.051270,4340.512695,4456.410156,4146.153809,4289.230957,450.000000,4.000000,,,,0.000000,4.000000,4.000000,4.000000,4.000000,4.000000,,,,,,,,,,,,,,,,,,,,,,,,,
1577422525.570351,127.000000,0.000000,4420.000000,4350.769043,4462.563965,4163.589844,4307.692383,234.000000,4.000000,,,,0.000000,4.000000,4.000000,4.000000,4.000000,4.000000,7.071213,5.176561,6.329215,18.335855,12.853796,16.437094,6.169531,4.312834,11.795672,8.016839,43.772823,8.551494,3.896931,3.695035,3.509125,14.002606,8.850322,6.405781,4.600802,6.352413,11.007150,6.333859,5.854410,14.365957,8.804993
1577422525.578131,0.000000,0.000000,4418.461426,4362.051270,4464.102539,4171.794922,4320.000000,450.000000,4.000000,,,,0.000000,4.000000,4.000000,4.000000,4.000000,4.000000,,,,,,,,,,,,,,,,,,,,,,,,,
1577422525.586012,1.000000,0.000000,4381.538574,4351.794922,4438.461426,4144.102539,4285.128418,450.000000,4.000000,,,,0.000000,4.000000,4.000000,4.000000,4.000000,4.000000,,,,,,,,,,,,,,,,,,,,,,,,,
1577422525.593792,2.000000,0.000000,4362.563965,4338.461426,4415.897461,4124.615234,4254.358887,16188.000000,4.000000,,,,0.000000,4.000000,4.000000,4.000000,4.000000,4.000000,,,,,,,,,,,,,,,,,,,,,,,,,
1577422525.601672,3.000000,0.000000,4357.948730,4340.000000,4415.384766,4129.230957,4252.820313,450.000000,4.000000,,,,0.000000,4.000000,4.000000,4.000000,4.000000,4.000000,,,,,,,,,,,,,,,,,,,,,,,,,
1577422525.609453,4.000000,0.000000,4351.794922,4350.256348,4425.128418,4135.897461,4256.410156,16158.000000,4.000000,,,,0.000000,4.000000,4.000000,4.000000,4.000000,4.000000,,,,,,,,,,,,,,,,,,,,,,,,,
1577422525.617333,5.000000,0.000000,4374.871582,4357.948730,4435.384766,4153.846191,4282.051270,450.000000,4.000000,,,,0.000000,4.000000,4.000000,4.000000,4.000000,4.000000,,,,,,,,,,,,,,,,,,,,,,,,,
1577422525.625113,6.000000,0.000000,4402.563965,4359.487305,4452.307617,4175.384766,4310.256348,16141.000000,4.000000,,,,0.000000,4.000000,4.000000,4.000000,4.000000,4.000000,,,,,,,,,,,,,,,,,,,,,,,,,
1577422525.632993,7.000000,0.000000,4402.051270,4365.641113,4469.230957,4182.563965,4310.256348,450.000000,4.000000,,,,0.000000,4.000000,4.000000,4.000000,4.000000,4.000000,,,,,,,,,,,,,,,,,,,,,,,,,
1577422525.640774,8.000000,0.000000,4387.692383,4369.743652,4463.077148,4173.846191,4296.410156,450.000000,4.000000,,,,0.000000,4.000000,4.000000,4.000000,4.000000,4.000000,,,,,,,,,,,,,,,,,,,,,,,,,
1577422525.648654,9.000000,0.000000,4378.461426,4365.128418,4456.410156,4166.153809,4286.153809,16155.000000,4.000000,,,,0.000000,4.000000,4.000000,4.000000,4.000000,4.000000,,,,,,,,,,,,,,,,,,,,,,,,,
1577422525.656434,10.000000,0.000000,4368.205078,4346.666504,4460.000000,4160.000000,4274.871582,450.000000,4.000000,,,,0.000000,4.000000,4.000000,4.000000,4.000000,4.000000,,,,,,,,,,,,,,,,,,,,,,,,,
1577422525.664314,11.000000,0.000000,4349.743652,4335.897461,4452.307617,4150.256348,4260.000000,16187.000000,4.000000,,,,0.000000,4.000000,4.000000,4.000000,4.000000,4.000000,,,,,,,,,,,,,,,,,,,,,,,,,
1577422525.672095,12.000000,0.000000,4351.794922,4358.461426,4459.487305,4160.512695,4268.205078,450.000000,4.000000,,,,0.000000,4.000000,4.000000,4.000000,4.000000,4.000000,,,,,,,,,,,,,,,,,,,,,,,,,
1577422525.679975,13.000000,0.000000,4360.512695,4365.128418,4472.820313,4172.820313,4285.128418,450.000000,4.000000,,,,0.000000,4.000000,4.000000,4.000000,4.000000,4.000000,,,,,,,,,,,,,,,,,,,,,,,,,
1577422525.687755,14.000000,0.000000,4347.179688,4343.077148,4455.897461,4160.000000,4270.256348,450.000000,4.000000,,,,0.000000,4.000000,4.000000,4.000000,4.000000,4.000000,,,,,,,,,,,,,,,,,,,,,,,,,
1577422525.695635,15.000000,0.000000,4335.897461,4344.102539,4436.922852,4146.666504,4253.333496,16187.000000,4.000000,,,,0.000000,4.000000,4.000000,4.000000,4.000000,4.000000,12.123312,9.851762,11.419104,22.582600,19.456577,17.511448,12.514867,8.214348,14.660484,12.626077,38.161163,9.532499,5.417061,4.295890,5.098543,30.016479,18.368258,12.441292,7.832747,9.840091,21.227304,12.344361,10.785510,17.658833,12.956534
1577422525.703516,16.000000,0.000000,4356.922852,4371.282227,4456.410156,4164.615234,4277.948730,0.000000,4.000000,,,,0.000000,4.000000,4.000000,4.000000,4.000000,4.000000,,,,,,,,,,,,,,,,,,,,,,,,,
1577422525.711396,17.000000,0.000000,4383.077148,4378.974121,4488.205078,4193.846191,4309.230957,0.000000,4.000000,,,,0.000000,4.000000,4.000000,4.000000,4.000000,4.000000,,,,,,,,,,,,,,,,,,,,,,,,,
1577422525.719176,18.000000,0.000000,4365.641113,4356.410156,4475.897461,4183.077148,4296.922852,0.000000,4.000000,,,,0.000000,4.000000,4.000000,4.000000,4.000000,4.000000,,,,,,,,,,,,,,,,,,,,,,,,,
1577422525.726956,19.000000,0.000000,4345.641113,4355.384766,4454.358887,4164.615234,4277.948730,0.000000,4.000000,,,,0.000000,4.000000,4.000000,4.000000,4.000000,4.000000,,,,,,,,,,,,,,,,,,,,,,,,,
1577422525.734837,20.000000,0.000000,4357.948730,4371.282227,4456.922852,4172.307617,4282.051270,0.000000,4.000000,,,,0.000000,4.000000,4.000000,4.000000,4.000000,4.000000,,,,,,,,,,,,,,,,,,,,,,,,,
1577422525.742617,21.000000,0.000000,4360.512695,4367.179688,4444.615234,4177.436035,4286.153809,0.000000,4.000000,,,,0.000000,4.000000,4.000000,4.000000,4.000000,4.000000,,,,,,,,,,,,,,,,,,,,,,,,,
1577422525.750497,22.000000,0.000000,4357.948730,4348.205078,4430.769043,4183.589844,4288.205078,0.000000,4.000000,,,,0.000000,4.000000,4.000000,4.000000,4.000000,4.000000,,,,,,,,,,,,,,,,,,,,,,,,,
1577422525.758277,23.000000,0.000000,4363.589844,4335.897461,4432.820313,4192.820313,4292.820313,0.000000,4.000000,,,,0.000000,4.000000,4.000000,4.000000,4.000000,4.000000,,,,,,,,,,,,,,,,,,,,,,,,,
1577422525.766158,24.000000,0.000000,4349.743652,4335.897461,4430.256348,4185.128418,4280.512695,0.000000,4.000000,,,,0.000000,4.000000,4.000000,4.000000,4.000000,4.000000,,,,,,,,,,,,,,,,,,,,,,,,,
1577422525.773938,25.000000,0.000000,4327.179688,4325.128418,4415.897461,4168.205078,4258.974121,0.000000,4.000000,,,,0.000000,4.000000,4.000000,4.000000,4.000000,4.000000,,,,,,,,,,,,,,,,,,,,,,,,,
1577422525.781818,26.000000,0.000000,4335.384766,4309.743652,4408.205078,4167.179688,4265.641113,0.000000,4.000000,,,,0.000000,4.000000,4.000000,4.000000,4.000000,4.000000,,,,,,,,,,,,,,,,,,,,,,,,,
1577422525.789599,27.000000,1.000000,4332.243652,4305.063965,4397.692383,4164.487305,4260.641113,0.000000,4.000000,,,,0.000000,4.000000,4.000000,4.000000,4.000000,4.000000,,,,,,,,,,,,,,,,,,,,,,,,,
1577422525.797479,28.000000,1.000000,4329.102539,4300.384766,4387.179688,4161.794922,4255.641113,0.000000,4.000000,,,,0.000000,4.000000,4.000000,4.000000,4.000000,4.000000,,,,,,,,,,,,,,,,,,,,,,,,,
1577422525.805359,29.000000,1.000000,4325.961426,4295.705078,4376.666504,4159.102539,4250.641113,0.000000,4.000000,,,,0.000000,4.000000,4.000000,4.000000,4.000000,4.000000,,,,,,,,,,,,,,,,,,,,,,,,,
1577422525.813239,30.000000,1.000000,4322.820313,4291.025879,4366.153809,4156.410156,4245.641113,0.000000,4.000000,,,,0.000000,4.000000,4.000000,4.000000,4.000000,4.000000,,,,,,,,,,,,,,,,,,,,,,,,,
1577422525.821119,31.000000,1.000000,4319.679688,4286.346191,4355.641113,4153.717773,4240.641113,0.000000,4.000000,,,,0.000000,4.000000,4.000000,4.000000,4.000000,4.000000,18.612129,16.061274,17.869879,27.372002,27.534407,25.783094,21.178160,13.125719,17.734976,18.194859,37.732620,11.401626,7.557372,5.145745,7.095262,51.651577,31.106451,20.046566,11.876470,14.291455,34.507782,20.318138,17.035624,21.528296,18.181936
1577422525.829000,32.000000,1.000000,4316.538574,4281.666504,4345.128418,4151.025879,4235.641113,0.000000,4.000000,,,,0.000000,4.000000,4.000000,4.000000,4.000000,4.000000,,,,,,,,,,,,,,,,,,,,,,,,,
1577422525.836880,33.000000,1.000000,4313.397461,4276.987305,4334.615234,4148.333496,4230.641113,0.000000,4.000000,,,,0.000000,4.000000,4.000000,4.000000,4.000000,4.000000,,,,,,,,,,,,,,,,,,,,,,,,,
1577422525.844760,34.000000,0.000000,4310.256348,4272.307617,4324.102539,4145.641113,4225.641113,0.000000,4.000000,,,,0.000000,4.000000,4.000000,4.000000,4.000000,4.000000,,,,,,,,,,,,,,,,,,,,,,,,,
1577422525.852540,35.000000,0.000000,4296.410156,4282.563965,4316.410156,4138.461426,4210.769043,0.000000,4.000000,,,,0.000000,4.000000,4.000000,4.000000,4.000000,4.000000,,,,,,,,,,,,,,,,,,,,,,,,,
1577422525.860421,36.000000,0.000000,4302.051270,4295.384766,4323.589844,4146.666504,4217.948730,0.000000,4.000000,,,,0.000000,4.000000,4.000000,4.000000,4.000000,4.000000,,,,,,,,,,,,,,,,,,,,,,,,,
1577422525.868301,37.000000,0.000000,4316.922852,4297.436035,4330.256348,4165.641113,4236.922852,0.000000,4.000000,,,,0.000000,4.000000,4.000000,4.000000,4.000000,4.000000,,,,,,,,,,,,,,,,,,,,,,,,,
1577422525.876181,38.000000,0.000000,4310.769043,4290.256348,4307.692383,4160.000000,4233.846191,0.000000,4.000000,,,,0.000000,4.000000,4.000000,4.000000,4.000000,4.000000,,,,,,,,,,,,,,,,,,,,,,,,,
1577422525.883961,39.000000,0.000000,4306.666504,4292.307617,4281.538574,4144.102539,4223.589844,0.000000,4.000000,,,,0.000000,4.000000,4.000000,4.000000,4.000000,4.000000,,,,,,,,,,,,,,,,,,,,,,,,,
1577422525.891841,40.000000,0.000000,4338.974121,4302.051270,4301.538574,4166.153809,4253.846191,0.000000,4.000000,,,,0.000000,4.000000,4.000000,4.000000,4.000000,4.000000,,,,,,,,,,,,,,,,,,,,,,,,,
1577422525.899622,41.000000,0.000000,4343.077148,4279.487305,4305.641113,4168.205078,4268.205078,0.000000,4.000000,,,,0.000000,4.000000,4.000000,4.000000,4.000000,4.000000,,,,,,,,,,,,,,,,,,,,,,,,,
1577422525.907402,42.000000,0.000000,4310.256348,4250.256348,4269.230957,4138.974121,4238.461426,0.000000,4.000000,,,,0.000000,4.000000,4.000000,4.000000,4.000000,4.000000,,,,,,,,,,,,,,,,,,,,,,,,,
1577422525.915282,43.000000,0.000000,4319.487305,4255.897461,4263.589844,4150.769043,4235.897461,0.000000,4.000000,,,,0.000000,4.000000,4.000000,4.000000,4.000000,4.000000,,,,,,,,,,,,,,,,,,,,,,,,,
1577422525.923063,44.000000,0.000000,4346.153809,4254.358887,4278.974121,4178.461426,4260.000000,0.000000,4.000000,,,,0.000000,4.000000,4.000000,4.000000,4.000000,4.000000,,,,,,,,,,,,,,,,,,,,,,,,,
1577422525.930943,45.000000,0.000000,4336.410156,4230.769043,4264.615234,4176.922852,4258.974121,0.000000,4.000000,,,,0.000000,4.000000,4.000000,4.000000,4.000000,4.000000,,,,,,,,,,,,,,,,,,,,,,,,,
1577422525.938823,46.000000,0.000000,4327.692383,4228.717773,4245.641113,4170.769043,4250.256348,0.000000,4.000000,,,,0.000000,4.000000,4.000000,4.000000,4.000000,4.000000,,,,,,,,,,,,,,,,,,,,,,,,,
1577422525.946603,47.000000,0.000000,4327.179688,4251.282227,4252.307617,4170.256348,4248.717773,0.000000,4.000000,,,,0.000000,4.000000,4.000000,4.000000,4.000000,4.000000,24.715048,22.400267,23.951500,31.060823,34.670868,42.404785,30.052521,17.687143,20.077421,23.141150,46.574577,13.425897,9.711266,5.932496,8.915236,73.724037,43.815861,27.267056,15.586187,18.352678,47.258682,28.292204,22.948570,24.699139,22.921362
1577422525.954484,48.000000,0.000000,4316.922852,4261.538574,4262.563965,4168.717773,4249.230957,0.000000,4.000000,,,,0.000000,4.000000,4.000000,4.000000,4.000000,4.000000,,,,,,,,,,,,,,,,,,,,,,,,,
1577422525.962264,49.000000,0.000000,4319.487305,4242.051270,4259.487305,4171.282227,4262.563965,0.000000,4.000000,,,,0.000000,4.000000,4.000000,4.000000,4.000000,4.000000,,,,,,,,,,,,,,,,,,,,,,,,,
1577422525.970044,50.000000,0.000000,4310.769043,4207.692383,4243.077148,4155.384766,4258.974121,0.000000,4.000000,,,,0.000000,4.000000,4.000000,4.000000,4.000000,4.000000,,,,,,,,,,,,,,,,,,,,,,,,,
1577422525.977924,51.000000,0.000000,4269.743652,4190.769043,4220.512695,4117.436035,4230.769043,0.000000,4.000000,,,,0.000000,4.000000,4.000000,4.000000,4.000000,4.000000,,,,,,,,,,,,,,,,,,,,,,,,,
1577422525.985705,52.000000,0.000000,4264.102539,4204.615234,4225.641113,4122.051270,4240.000000,0.000000,4.000000,,,,0.000000,4.000000,4.000000,4.000000,4.000000,4.000000,,,,,,,,,,,,,,,,,,,,,,,,,
1577422525.993585,53.000000,0.000000,4301.025879,4206.666504,4251.282227,4161.538574,4283.589844,0.000000,4.000000,,,,0.000000,4.000000,4.000000,4.000000,4.000000,4.000000,,,,,,,,,,,,,,,,,,,,,,,,,
1577422526.001365,54.000000,0.000000,4309.230957,4192.307617,4257.436035,4168.205078,4292.307617,0.000000,4.000000,,,,0.000000,4.000000,4.000000,4.000000,4.000000,4.000000,,,,,,,,,,,,,,,,,,,,,,,,,
1577422526.009245,55.000000,0.000000,4314.871582,4216.410156,4274.358887,4179.487305,4300.512695,0.000000,4.000000,,,,0.000000,4.000000,4.000000,4.000000,4.000000,4.000000,,,,,,,,,,,,,,,,,,,,,,,,,
1577422526.017026,56.000000,0.000000,4336.410156,4242.563965,4303.077148,4206.153809,4329.230957,0.000000,4.000000,,,,0.000000,4.000000,4.000000,4.000000,4.000000,4.000000,,,,,,,,,,,,,,,,,,,,,,,,,
1577422526.024906,57.000000,0.000000,4322.051270,4220.512695,4298.461426,4192.307617,4316.922852,0.000000,4.000000,,,,0.000000,4.000000,4.000000,4.000000,4.000000,4.000000,,,,,,,,,,,,,,,,,,,,,,,,,
1577422526.032686,58.000000,0.000000,4293.846191,4208.717773,4280.000000,4171.282227,4279.487305,0.000000,4.000000,,,,0.000000,4.000000,4.000000,4.000000,4.000000,4.000000,,,,,,,,,,,,,,,,,,,,,,,,,
1577422526.040566,59.000000,0.000000,4296.922852,4227.179688,4284.102539,4181.025879,4273.846191,0.000000,4.000000,,,,0.000000,4.000000,4.000000,4.000000,4.000000,4.000000,,,,,,,,,,,,,,,,,,,,,,,,,
1577422526.048347,60.000000,0.000000,4302.051270,4215.897461,4285.128418,4180.512695,4279.487305,0.000000,4.000000,,,,0.000000,4.000000,4.000000,4.000000,4.000000,4.000000,,,,,,,,,,,,,,,,,,,,,,,,,
1577422526.056227,61.000000,0.000000,4284.615234,4179.487305,4264.102539,4156.410156,4267.179688,0.000000,4.000000,,,,0.000000,4.000000,4.000000,4.000000,4.000000,4.000000,,,,,,,,,,,,,,,,,,,,,,,,,
1577422526.064007,62.000000,0.000000,4272.307617,4173.333496,4261.025879,4150.769043,4257.436035,0.000000,4.000000,,,,0.000000,4.000000,4.000000,4.000000,4.000000,4.000000,,,,,,,,,,,,,,,,,,,,,,,,,
1577422526.071888,63.000000,0.000000,4280.512695,4186.153809,4271.282227,4158.974121,4267.692383,0.000000,4.000000,,,,0.000000,4.000000,4.000000,4.000000,4.000000,4.000000,28.376383,26.989235,27.717979,32.041763,38.283371,64.555687,36.351353,20.427204,20.714693,25.753607,62.758251,14.592540,11.156253,6.290365,9.903492,89.455872,52.445324,31.877399,17.717024,20.546177,55.461029,33.752689,26.638401,25.812117,25.447596
1577422526.079668,64.000000,0.000000,4284.615234,4173.846191,4260.512695,4148.717773,4269.743652,450.000000,4.000000,,,,0.000000,4.000000,4.000000,4.000000,4.000000,4.000000,,,,,,,,,,,,,,,,,,,,,,,,,
1577422526.087548,65.000000,0.000000,4283.589844,4158.974121,4263.077148,4148.205078,4264.102539,450.000000,4.000000,,,,0.000000,4.000000,4.000000,4.000000,4.000000,4.000000,,,,,,,,,,,,,,,,,,,,,,,,,
1577422526.095328,66.000000,0.000000,4299.487305,4164.102539,4290.769043,4171.794922,4277.948730,16210.000000,4.000000,,,,0.000000,4.000000,4.000000,4.000000,4.000000,4.000000,,,,,,,,,,,,,,,,,,,,,,,,,
1577422526.103209,67.000000,0.000000,4305.128418,4153.846191,4306.153809,4186.153809,4288.717773,450.000000,4.000000,,,,0.000000,4.000000,4.000000,4.000000,4.000000,4.000000,,,,,,,,,,,,,,,,,,,,,,,,,
1577422526.110989,68.000000,0.000000,4292.820313,4133.846191,4312.307617,4190.256348,4282.051270,16175.000000,4.000000,,,,0.000000,4.000000,4.000000,4.000000,4.000000,4.000000,,,,,,,,,,,,,,,,,,,,,,,,,
1577422526.118869,69.000000,0.000000,4288.717773,4118.974121,4314.871582,4189.230957,4279.487305,450.000000,4.000000,,,,0.000000,4.000000,4.000000,4.000000,4.000000,4.000000,,,,,,,,,,,,,,,,,,,,,,,,,
1577422526.126649,70.000000,0.000000,4287.179688,4109.743652,4306.666504,4184.102539,4272.820313,16159.000000,4.000000,,,,0.000000,4.000000,4.000000,4.000000,4.000000,4.000000,,,,,,,,,,,,,,,,,,,,,,,,,
1577422526.134530,71.000000,0.000000,4275.384766,4117.948730,4294.358887,4178.974121,4251.794922,450.000000,4.000000,,,,0.000000,4.000000,4.000000,4.000000,4.000000,4.000000,,,,,,,,,,,,,,,,,,,,,,,,,
1577422526.142310,72.000000,0.000000,4266.666504,4132.307617,4295.897461,4181.538574,4238.974121,450.000000,4.000000,,,,0.000000,4.000000,4.000000,4.000000,4.000000,4.000000,,,,,,,,,,,,,,,,,,,,,,,,,
1577422526.150090,73.000000,0.000000,4280.512695,4135.384766,4310.256348,4193.333496,4250.769043,16170.000000,4.000000,,,,0.000000,4.000000,4.000000,4.000000,4.000000,4.000000,,,,,,,,,,,,,,,,,,,,,,,,,
1577422526.157970,74.000000,0.000000,4275.897461,4126.153809,4291.794922,4173.846191,4236.410156,450.000000,4.000000,,,,0.000000,4.000000,4.000000,4.000000,4.000000,4.000000,,,,,,,,,,,,,,,,,,,,,,,,,
1577422526.165851,75.000000,0.000000,4257.436035,4134.358887,4273.333496,4158.461426,4213.333496,16210.000000,4.000000,,,,0.000000,4.000000,4.000000,4.000000,4.000000,4.000000,,,,,,,,,,,,,,,,,,,,,,,,,
1577422526.173731,76.000000,0.000000,4272.307617,4154.358887,4294.871582,4181.538574,4233.846191,450.000000,4.000000,,,,0.000000,4.000000,4.000000,4.000000,4.000000,4.000000,,,,,,,,,,,,,,,,,,,,,,,,,
1577422526.181511,77.000000,0.000000,4271.282227,4142.563965,4289.230957,4173.333496,4236.410156,450.000000,4.000000,,,,0.000000,4.000000,4.000000,4.000000,4.000000,4.000000,,,,,,,,,,,,,,,,,,,,,,,,,
1577422526.189391,78.000000,0.000000,4256.410156,4128.205078,4272.820313,4154.871582,4221.025879,450.000000,4.000000,,,,0.000000,4.000000,4.000000,4.000000,4.000000,4.000000,,,,,,,,,,,,,,,,,,,,,,,,,
1577422526.197172,79.000000,0.000000,4274.871582,4133.846191,4300.000000,4174.358887,4240.512695,16210.000000,4.000000,,,,0.000000,4.000000,4.000000,4.000000,4.000000,4.000000,28.332264,28.313618,27.926468,29.510208,36.852962,85.664139,37.852013,20.446981,19.101263,24.994961,81.363121,14.208317,11.421076,5.995550,9.651196,93.548264,53.945633,32.415951,17.485508,19.973879,56.363628,34.785061,26.897396,24.102381,24.688866
1577422526.204952,80.000000,0.000000,4294.358887,4129.230957,4330.769043,4192.820313,4264.102539,450.000000,4.000000,,,,0.000000,4.000000,4.000000,4.000000,4.000000,4.000000,,,,,,,,,,,,,,,,,,,,,,,,,
1577422526.212832,81.000000,0.000000,4300.000000,4121.538574,4325.641113,4197.436035,4271.282227,450.000000,4.000000,,,,0.000000,4.000000,4.000000,4.000000,4.000000,4.000000,,,,,,,,,,,,,,,,,,,,,,,,,
1577422526.220613,82.000000,0.000000,4310.256348,4123.589844,4304.102539,4208.717773,4280.512695,450.000000,4.000000,,,,0.000000,4.000000,4.000000,4.000000,4.000000,4.000000,,,,,,,,,,,,,,,,,,,,,,,,,
1577422526.228493,83.000000,0.000000,4310.256348,4125.128418,4281.025879,4216.410156,4280.000000,16210.000000,4.000000,,,,0.000000,4.000000,4.000000,4.000000,4.000000,4.000000,,,,,,,,,,,,,,,,,,,,,,,,,
1577422526.236373,84.000000,0.000000,4286.666504,4122.051270,4234.358887,4198.461426,4252.820313,450.000000,4.000000,,,,0.000000,4.000000,4.000000,4.000000,4.000000,4.000000,,,,,,,,,,,,,,,,,,,,,,,,,
1577422526.244153,85.000000,0.000000,4250.256348,4115.384766,4170.256348,4169.230957,4219.487305,450.000000,4.000000,,,,0.000000,4.000000,4.000000,4.000000,4.000000,4.000000,,,,,,,,,,,,,,,,,,,,,,,,,
1577422526.252034,86.000000,0.000000,4232.307617,4127.692383,4137.948730,4161.025879,4209.230957,450.000000,4.000000,,,,0.000000,4.000000,4.000000,4.000000,4.000000,4.000000,,,,,,,,,,,,,,,,,,,,,,,,,
1577422526.259814,87.000000,0.000000,4244.615234,4149.230957,4133.333496,4174.358887,4223.589844,16210.000000,4.000000,,,,0.000000,4.000000,4.000000,4.000000,4.000000,4.000000,,,,,,,,,,,,,,,,,,,,,,,,,
1577422526.267594,88.000000,1.000000,4246.096680,4149.800781,4133.162598,4176.866211,4226.666504,14458.888672,4.000000,,,,0.000000,4.000000,4.000000,4.000000,4.000000,4.000000,,,,,,,,,,,,,,,,,,,,,,,,,
1577422526.275474,89.000000,1.000000,4247.578125,4150.370605,4132.991211,4179.373047,4229.743652,12707.777344,4.000000,,,,0.000000,4.000000,4.000000,4.000000,4.000000,4.000000,,,,,,,,,,,,,,,,,,,,,,,,,
1577422526.283355,90.000000,1.000000,4249.060059,4150.939941,4132.820313,4181.880371,4232.820313,10956.666992,4.000000,,,,0.000000,4.000000,4.000000,4.000000,4.000000,4.000000,,,,,,,,,,,,,,,,,,,,,,,,,
1577422526.291235,91.000000,1.000000,4250.541504,4151.509766,4132.649414,4184.387695,4235.897461,9205.555664,4.000000,,,,0.000000,4.000000,4.000000,4.000000,4.000000,4.000000,,,,,,,,,,,,,,,,,,,,,,,,,
1577422526.299115,92.000000,1.000000,4252.022949,4152.079590,4132.478516,4186.894531,4238.974121,7454.444336,4.000000,,,,0.000000,4.000000,4.000000,4.000000,4.000000,4.000000,,,,,,,,,,,,,,,,,,,,,,,,,
1577422526.306995,93.000000,1.000000,4253.504395,4152.649414,4132.307617,4189.401855,4242.051270,5703.333496,4.000000,,,,0.000000,4.000000,4.000000,4.000000,4.000000,4.000000,,,,,,,,,,,,,,,,,,,,,,,,,
1577422526.314875,94.000000,1.000000,4254.985840,4153.219238,4132.136719,4191.908691,4245.128418,3952.222168,4.000000,,,,0.000000,4.000000,4.000000,4.000000,4.000000,4.000000,,,,,,,,,,,,,,,,,,,,,,,,,
1577422526.322756,95.000000,1.000000,4256.467285,4153.789063,4131.965820,4194.416016,4248.205078,2201.111084,4.000000,,,,0.000000,4.000000,4.000000,4.000000,4.000000,4.000000,25.006010,26.007067,24.538233,23.899054,30.692133,99.056023,33.945961,17.831518,15.455083,21.027967,94.746452,12.379592,10.460831,5.094514,8.211335,84.581444,47.867275,28.795168,14.966414,16.778620,50.017593,31.197660,23.694483,19.824932,20.776197
1577422526.330636,96.000000,0.000000,4257.948730,4154.358887,4131.794922,4196.922852,4251.282227,450.000000,4.000000,,,,0.000000,4.000000,4.000000,4.000000,4.000000,4.000000,,,,,,,,,,,,,,,,,,,,,,,,,
1577422526.338416,97.000000,0.000000,4254.871582,4155.897461,4147.179688,4212.307617,4253.333496,450.000000,4.000000,,,,0.000000,4.000000,4.000000,4.000000,4.000000,4.000000,,,,,,,,,,,,,,,,,,,,,,,,,
1577422526.346296,98.000000,0.000000,4244.102539,4147.179688,4122.051270,4209.743652,4245.641113,450.000000,4.000000,,,,0.000000,4.000000,4.000000,4.000000,4.000000,4.000000,,,,,,,,,,,,,,,,,,,,,,,,,
1577422526.354177,99.000000,0.000000,4243.077148,4134.358887,4091.281982,4212.820313,4238.974121,16210.000000,4.000000,,,,0.000000,4.000000,4.000000,4.000000,4.000000,4.000000,,,,,,,,,,,,,,,,,,,,,,,,,
1577422526.361957,100.000000,0.000000,4246.153809,4118.974121,4053.846191,4215.897461,4236.410156,450.000000,4.000000,,,,0.000000,4.000000,4.000000,4.000000,4.000000,4.000000,,,,,,,,,,,,,,,,,,,,,,,,,
1577422526.369837,101.000000,0.000000,4246.666504,4118.461426,4014.871826,4209.230957,4231.794922,450.000000,4.000000,,,,0.000000,4.000000,4.000000,4.000000,4.000000,4.000000,,,,,,,,,,,,,,,,,,,,,,,,,
1577422526.377617,102.000000,0.000000,4242.563965,4126.153809,3975.384521,4202.051270,4220.512695,450.000000,4.000000,,,,0.000000,4.000000,4.000000,4.000000,4.000000,4.000000,,,,,,,,,,,,,,,,,,,,,,,,,
1577422526.385498,103.000000,0.000000,4226.666504,4118.461426,3904.615479,4184.615234,4203.589844,16210.000000,4.000000,,,,0.000000,4.000000,4.000000,4.000000,4.000000,4.000000,,,,,,,,,,,,,,,,,,,,,,,,,
1577422526.393278,104.000000,0.000000,4227.692383,4124.615234,3860.512939,4183.589844,4207.179688,450.000000,4.000000,,,,0.000000,4.000000,4.000000,4.000000,4.000000,4.000000,,,,,,,,,,,,,,,,,,,,,,,,,
1577422526.401058,105.000000,0.000000,4233.333496,4142.563965,3855.897461,4194.358887,4219.487305,450.000000,4.000000,,,,0.000000,4.000000,4.000000,4.000000,4.000000,4.000000,,,,,,,,,,,,,,,,,,,,,,,,,
1577422526.408938,106.000000,0.000000,4223.589844,4153.846191,3846.666748,4192.307617,4212.307617,450.000000,4.000000,,,,0.000000,4.000000,4.000000,4.000000,4.000000,4.000000,,,,,,,,,,,,,,,,,,,,,,,,,
1577422526.416719,107.000000,1.000000,4222.734863,4157.321777,3860.968750,4193.048340,4210.939941,2201.111084,4.000000,,,,0.000000,4.000000,4.000000,4.000000,4.000000,4.000000,,,,,,,,,,,,,,,,,,,,,,,,,
1577422526.424599,108.000000,1.000000,4221.880371,4160.797852,3875.270752,4193.789063,4209.572754,3952.222168,4.000000,,,,0.000000,4.000000,4.000000,4.000000,4.000000,4.000000,,,,,,,,,,,,,,,,,,,,,,,,,
1577422526.432479,109.000000,1.000000,4221.025879,4164.273438,3889.572754,4194.529785,4208.205078,5703.333496,4.000000,,,,0.000000,4.000000,4.000000,4.000000,4.000000,4.000000,,,,,,,,,,,,,,,,,,,,,,,,,
1577422526.440359,110.000000,1.000000,4220.170898,4167.749512,3903.874756,4195.270508,4206.837402,7454.444336,4.000000,,,,0.000000,4.000000,4.000000,4.000000,4.000000,4.000000,,,,,,,,,,,,,,,,,,,,,,,,,
1577422526.448240,111.000000,1.000000,4219.316406,4171.225098,3918.176758,4196.011230,4205.470215,9205.555664,4.000000,,,,0.000000,4.000000,4.000000,4.000000,4.000000,4.000000,19.473715,21.080545,18.828939,16.740669,21.808414,99.999069,25.897415,13.637300,10.732523,15.158923,96.906990,9.886835,8.671415,3.854571,6.071546,65.927673,36.712914,22.341803,11.046328,12.060153,38.617912,24.642275,18.215168,14.172436,14.995825
1577422526.456120,112.000000,1.000000,4218.461426,4174.700684,3932.478516,4196.751953,4204.102539,10956.666992,4.000000,,,,0.000000,4.000000,4.000000,4.000000,4.000000,4.000000,,,,,,,,,,,,,,,,,,,,,,,,,
1577422526.464000,113.000000,1.000000,4217.606934,4178.176758,3946.780518,4197.492676,4202.734863,12707.777344,4.000000,,,,0.000000,4.000000,4.000000,4.000000,4.000000,4.000000,,,,,,,,,,,,,,,,,,,,,,,,,
1577422526.471880,114.000000,1.000000,4216.751953,4181.652344,3961.082520,4198.233398,4201.367676,14458.888672,4.000000,,,,0.000000,4.000000,4.000000,4.000000,4.000000,4.000000,,,,,,,,,,,,,,,,,,,,,,,,,
1577422526.479760,115.000000,0.000000,4215.897461,4185.128418,3975.384521,4198.974121,4200.000000,16210.000000,4.000000,,,,0.000000,4.000000,4.000000,4.000000,4.000000,4.000000,,,,,,,,,,,,,,,,,,,,,,,,,
1577422526.487541,116.000000,0.000000,4213.333496,4207.179688,3908.718018,4182.051270,4195.384766,450.000000,4.000000,,,,0.000000,4.000000,4.000000,4.000000,4.000000,4.000000,,,,,,,,,,,,,,,,,,,,,,,,,
1577422526.495421,117.000000,0.000000,4242.563965,4241.538574,3848.205078,4198.974121,4222.563965,450.000000,4.000000,,,,0.000000,4.000000,4.000000,4.000000,4.000000,4.000000,,,,,,,,,,,,,,,,,,,,,,,,,
1577422526.503201,118.000000,0.000000,4254.358887,4246.666504,3866.153809,4202.563965,4232.820313,450.000000,4.000000,,,,0.000000,4.000000,4.000000,4.000000,4.000000,4.000000,,,,,,,,,,,,,,,,,,,,,,,,,
1577422526.511181,119.000000,0.000000,4244.102539,4249.230957,3927.692383,4196.922852,4221.025879,16210.000000,4.000000,,,,0.000000,4.000000,4.000000,4.000000,4.000000,4.000000,,,,,,,,,,,,,,,,,,,,,,,,,
1577422526.519162,120.000000,1.000000,4238.689453,4249.060059,3952.820557,4194.928711,4214.757813,14458.888672,4.000000,,,,0.000000,4.000000,4.000000,4.000000,4.000000,4.000000,,,,,,,,,,,,,,,,,,,,,,,,,
1577422526.527042,121.000000,1.000000,4233.276367,4248.888672,3977.948730,4192.934570,4208.490234,12707.777344,4.000000,,,,0.000000,4.000000,4.000000,4.000000,4.000000,4.000000,,,,,,,,,,,,,,,,,,,,,,,,,
1577422526.534922,122.000000,1.000000,4227.863281,4248.717773,4003.076904,4190.939941,4202.222168,10956.666992,4.000000,,,,0.000000,4.000000,4.000000,4.000000,4.000000,4.000000,,,,,,,,,,,,,,,,,,,,,,,,,
1577422526.542802,123.000000,1.000000,4222.450195,4248.546875,4028.205078,4188.945801,4195.954590,9205.555664,4.000000,,,,0.000000,4.000000,4.000000,4.000000,4.000000,4.000000,,,,,,,,,,,,,,,,,,,,,,,,,
1577422526.550682,124.000000,1.000000,4217.037109,4248.375977,4053.333252,4186.951660,4189.686523,7454.444336,4.000000,,,,0.000000,4.000000,4.000000,4.000000,4.000000,4.000000,,,,,,,,,,,,,,,,,,,,,,,,,
1577422526.558563,125.000000,1.000000,4211.624023,4248.205078,4078.461426,4184.957031,4183.418945,5703.333496,4.000000,,,,0.000000,4.000000,4.000000,4.000000,4.000000,4.000000,,,,,,,,,,,,,,,,,,,,,,,,,
1577422526.566443,126.000000,1.000000,4206.210938,4248.034180,4103.589844,4182.962891,4177.150879,3952.222168,4.000000,,,,0.000000,4.000000,4.000000,4.000000,4.000000,4.000000,,,,,,,,,,,,,,,,,,,,,,,,,
1577422526.574323,127.000000,1.000000,4200.797852,4247.863281,4128.717773,4180.968750,4170.883301,2201.111084,4.000000,,,,0.000000,4.000000,4.000000,4.000000,4.000000,4.000000,13.793134,15.394481,12.741881,9.982671,12.924808,88.512985,16.489632,9.365861,6.201368,9.209324,88.047623,8.247293,6.850469,2.658757,3.909611,43.767124,24.563984,15.246109,7.009422,7.312651,26.019159,17.740320,12.310411,8.709012,9.141186
1577422526.582203,0.000000,0.000000,4195.384766,4247.692383,4153.846191,4178.974121,4164.615234,450.000000,4.000000,,,,0.000000,4.000000,4.000000,4.000000,4.000000,4.000000,,,,,,,,,,,,,,,,,,,,,,,,,
1577422526.590087,1.000000,1.000000,4197.834961,4243.931641,4117.948730,4178.005859,4168.546875,450.000000,4.000000,,,,0.000000,4.000000,4.000000,4.000000,4.000000,4.000000,,,,,,,,,,,,,,,,,,,,,,,,,
1577422526.598071,2.000000,1.000000,4200.284668,4240.170898,4082.051270,4177.037109,4172.478516,16210.000000,4.000000,,,,0.000000,4.000000,4.000000,4.000000,4.000000,4.000000,,,,,,,,,,,,,,,,,,,,,,,,,
1577422526.606055,3.000000,1.000000,4202.734863,4236.410156,4046.153809,4176.068359,4176.410156,450.000000,4.000000,,,,0.000000,4.000000,4.000000,4.000000,4.000000,4.000000,,,,,,,,,,,,,,,,,,,,,,,,,
1577422526.614039,4.000000,1.000000,4205.185059,4232.649414,4010.256348,4175.099609,4180.341797,16175.000000,4.000000,,,,0.000000,4.000000,4.000000,4.000000,4.000000,4.000000,,,,,,,,,,,,,,,,,,,,,,,,,
1577422526.622023,5.000000,1.000000,4207.635254,4228.888672,3974.358887,4174.130859,4184.273438,450.000000,4.000000,,,,0.000000,4.000000,4.000000,4.000000,4.000000,4.000000,,,,,,,,,,,,,,,,,,,,,,,,,
1577422526.630007,6.000000,1.000000,4210.085449,4225.128418,3938.461426,4173.162598,4188.205078,16159.000000,4.000000,,,,0.000000,4.000000,4.000000,4.000000,4.000000,4.000000,,,,,,,,,,,,,,,,,,,,,,,,,
1577422526.637991,7.000000,1.000000,4212.535645,4221.367676,3902.564209,4172.193848,4192.136719,450.000000,4.000000,,,,0.000000,4.000000,4.000000,4.000000,4.000000,4.000000,,,,,,,,,,,,,,,,,,,,,,,,,
1577422526.645975,8.000000,1.000000,4214.985840,4217.606934,3866.666748,4171.225098,4196.068359,450.000000,4.000000,,,,0.000000,4.000000,4.000000,4.000000,4.000000,4.000000,,,,,,,,,,,,,,,,,,,,,,,,,
1577422526.653959,9.000000,0.000000,4217.436035,4213.846191,3830.769287,4170.256348,4200.000000,16176.000000,4.000000,,,,0.000000,4.000000,4.000000,4.000000,4.000000,4.000000,,,,,,,,,,,,,,,,,,,,,,,,,
1577422526.661779,10.000000,0.000000,4222.563965,4218.461426,3843.589844,4175.897461,4202.563965,450.000000,4.000000,,,,0.000000,4.000000,4.000000,4.000000,4.000000,4.000000,,,,,,,,,,,,,,,,,,,,,,,,,
1577422526.669833,11.000000,1.000000,4220.057129,4222.108398,3889.743652,4172.421875,4202.849121,16210.000000,4.000000,,,,0.000000,4.000000,4.000000,4.000000,4.000000,4.000000,,,,,,,,,,,,,,,,,,,,,,,,,
1577422526.677787,12.000000,1.000000,4217.549805,4225.754883,3935.897461,4168.945801,4203.133789,450.000000,4.000000,,,,0.000000,4.000000,4.000000,4.000000,4.000000,4.000000,,,,,,,,,,,,,,,,,,,,,,,,,
1577422526.685741,13.000000,1.000000,4215.042969,4229.401855,3982.051270,4165.470215,4203.418945,450.000000,4.000000,,,,0.000000,4.000000,4.000000,4.000000,4.000000,4.000000,,,,,,,,,,,,,,,,,,,,,,,,,
1577422526.693695,14.000000,1.000000,4212.535645,4233.048340,4028.205078,4161.994141,4203.703613,450.000000,4.000000,,,,0.000000,4.000000,4.000000,4.000000,4.000000,4.000000,,,,,,,,,,,,,,,,,,,,,,,,,
1577422526.701649,15.000000,1.000000,4210.028320,4236.695313,4074.358887,4158.518555,4203.988770,16210.000000,4.000000,,,,0.000000,4.000000,4.000000,4.000000,4.000000,4.000000,9.237584,10.733675,7.938367,5.105788,6.220323,69.121399,8.502533,6.242939,2.915123,4.672670,73.325134,9.121365,5.734298,1.850208,2.276772,24.342968,14.994319,9.449286,3.912074,3.728616,15.550475,12.745640,7.599386,4.683221,4.679044
1577422526.709604,16.000000,1.000000,4207.521484,4240.341797,4120.512695,4155.042969,4204.273438,150.000000,4.000000,,,,0.000000,4.000000,4.000000,4.000000,4.000000,4.000000,,,,,,,,,,,,,,,,,,,,,,,,,
1577422526.717558,17.000000,1.000000,4205.014160,4243.988770,4166.666504,4151.566895,4204.558594,100.000000,4.000000,,,,0.000000,4.000000,4.000000,4.000000,4.000000,4.000000,,,,,,,,,,,,,,,,,,,,,,,,,
1577422526.725512,18.000000,1.000000,4202.507324,4247.635254,4212.820313,4148.091309,4204.843262,50.000000,4.000000,,,,0.000000,4.000000,4.000000,4.000000,4.000000,4.000000,,,,,,,,,,,,,,,,,,,,,,,,,
1577422526.733466,19.000000,0.000000,4200.000000,4251.282227,4258.974121,4144.615234,4205.128418,0.000000,4.000000,,,,0.000000,4.000000,4.000000,4.000000,4.000000,4.000000,,,,,,,,,,,,,,,,,,,,,,,,,
1577422526.741233,20.000000,0.000000,4207.179688,4261.538574,4092.820557,4148.717773,4206.666504,0.000000,4.000000,,,,0.000000,4.000000,4.000000,4.000000,4.000000,4.000000,,,,,,,,,,,,,,,,,,,,,,,,,
1577422526.749101,21.000000,0.000000,4201.025879,4260.512695,3954.358887,4145.641113,4198.974121,0.000000,4.000000,,,,0.000000,4.000000,4.000000,4.000000,4.000000,4.000000,,,,,,,,,,,,,,,,,,,,,,,,,
1577422526.756968,22.000000,0.000000,4196.922852,4260.000000,3971.281982,4151.282227,4196.410156,0.000000,4.000000,,,,0.000000,4.000000,4.000000,4.000000,4.000000,4.000000,,,,,,,,,,,,,,,,,,,,,,,,,
1577422526.764835,23.000000,0.000000,4198.461426,4256.410156,3935.897461,4158.461426,4195.897461,0.000000,4.000000,,,,0.000000,4.000000,4.000000,4.000000,4.000000,4.000000,,,,,,,,,,,,,,,,,,,,,,,,,
1577422526.772703,24.000000,0.000000,4202.051270,4272.307617,3891.794922,4165.128418,4198.974121,0.000000,4.000000,,,,0.000000,4.000000,4.000000,4.000000,4.000000,4.000000,,,,,,,,,,,,,,,,,,,,,,,,,
1577422526.780479,25.000000,0.000000,4205.128418,4294.358887,4105.128418,4173.846191,4208.717773,0.000000,4.000000,,,,0.000000,4.000000,4.000000,4.000000,4.000000,4.000000,,,,,,,,,,,,,,,,,,,,,,,,,
1577422526.788312,26.000000,0.000000,4184.615234,4276.922852,4307.179688,4165.128418,4201.025879,0.000000,4.000000,,,,0.000000,4.000000,4.000000,4.000000,4.000000,4.000000,,,,,,,,,,,,,,,,,,,,,,,,,
1577422526.796355,27.000000,1.000000,4186.381836,4273.675293,4291.908691,4165.355957,4202.108398,0.000000,4.000000,,,,0.000000,4.000000,4.000000,4.000000,4.000000,4.000000,,,,,,,,,,,,,,,,,,,,,,,,,
1577422526.804298,28.000000,1.000000,4188.147949,4270.427246,4276.638184,4165.583984,4203.190918,0.000000,4.000000,,,,0.000000,4.000000,4.000000,4.000000,4.000000,4.000000,,,,,,,,,,,,,,,,,,,,,,,,,
1577422526.812241,29.000000,1.000000,4189.914551,4267.179688,4261.367676,4165.812012,4204.273438,0.000000,4.000000,,,,0.000000,4.000000,4.000000,4.000000,4.000000,4.000000,,,,,,,,,,,,,,,,,,,,,,,,,
1577422526.820184,30.000000,1.000000,4191.681152,4263.931641,4246.096680,4166.040039,4205.355957,0.000000,4.000000,,,,0.000000,4.000000,4.000000,4.000000,4.000000,4.000000,,,,,,,,,,,,,,,,,,,,,,,,,
1577422526.828127,31.000000,1.000000,4193.447266,4260.683594,4230.826172,4166.267578,4206.438965,0.000000,4.000000,,,,0.000000,4.000000,4.000000,4.000000,4.000000,4.000000,6.535315,7.988820,5.094344,2.491605,2.485115,48.308460,3.589573,4.690380,1.186238,2.115987,61.305573,14.540728,5.771952,1.623949,1.385078,11.463338,9.595037,5.833929,2.137519,1.735329,8.962947,10.501823,4.775038,2.465923,2.160111
1577422526.836070,32.000000,1.000000,4195.213867,4257.436035,4215.555664,4166.495605,4207.521484,0.000000,4.000000,,,,0.000000,4.000000,4.000000,4.000000,4.000000,4.000000,,,,,,,,,,,,,,,,,,,,,,,,,
1577422526.844013,33.000000,1.000000,4196.979980,4254.187988,4200.284668,4166.723633,4208.604004,0.000000,4.000000,,,,0.000000,4.000000,4.000000,4.000000,4.000000,4.000000,,,,,,,,,,,,,,,,,,,,,,,,,
1577422526.851956,34.000000,1.000000,4198.746582,4250.939941,4185.014160,4166.951660,4209.686523,0.000000,4.000000,,,,0.000000,4.000000,4.000000,4.000000,4.000000,4.000000,,,,,,,,,,,,,,,,,,,,,,,,,
1577422526.859899,35.000000,0.000000,4200.512695,4247.692383,4169.743652,4167.179688,4210.769043,0.000000,4.000000,,,,0.000000,4.000000,4.000000,4.000000,4.000000,4.000000,,,,,,,,,,,,,,,,,,,,,,,,,
1577422526.867842,36.000000,0.000000,4207.179688,4243.077148,4220.512695,4171.282227,4220.000000,0.000000,4.000000,,,,0.000000,4.000000,4.000000,4.000000,4.000000,4.000000,,,,,,,,,,,,,,,,,,,,,,,,,
1577422526.875784,37.000000,0.000000,4200.512695,4228.717773,4242.563965,4166.153809,4209.230957,0.000000,4.000000,,,,0.000000,4.000000,4.000000,4.000000,4.000000,4.000000,,,,,,,,,,,,,,,,,,,,,,,,,
1577422526.883727,38.000000,0.000000,4196.410156,4235.897461,4248.717773,4163.589844,4198.974121,0.000000,4.000000,,,,0.000000,4.000000,4.000000,4.000000,4.000000,4.000000,,,,,,,,,,,,,,,,,,,,,,,,,
1577422526.891472,39.000000,0.000000,4207.692383,4253.846191,4257.436035,4171.794922,4211.282227,0.000000,4.000000,,,,0.000000,4.000000,4.000000,4.000000,4.000000,4.000000,,,,,,,,,,,,,,,,,,,,,,,,,
1577422526.899229,40.000000,0.000000,4206.153809,4252.307617,4266.153809,4174.871582,4215.384766,0.000000,4.000000,,,,0.000000,4.000000,4.000000,4.000000,4.000000,4.000000,,,,,,,,,,,,,,,,,,,,,,,,,
1577422526.906996,41.000000,0.000000,4189.743652,4233.846191,4267.692383,4163.077148,4198.974121,0.000000,4.000000,,,,0.000000,4.000000,4.000000,4.000000,4.000000,4.000000,,,,,,,,,,,,,,,,,,,,,,,,,
1577422526.914863,42.000000,0.000000,4191.282227,4223.077148,4263.077148,4157.948730,4198.461426,0.000000,4.000000,,,,0.000000,4.000000,4.000000,4.000000,4.000000,4.000000,,,,,,,,,,,,,,,,,,,,,,,,,
1577422526.922730,43.000000,0.000000,4213.333496,4243.077148,4255.384766,4165.128418,4219.487305,0.000000,4.000000,,,,0.000000,4.000000,4.000000,4.000000,4.000000,4.000000,,,,,,,,,,,,,,,,,,,,,,,,,
1577422526.930598,44.000000,0.000000,4214.358887,4268.205078,4241.538574,4166.153809,4226.666504,0.000000,4.000000,,,,0.000000,4.000000,4.000000,4.000000,4.000000,4.000000,,,,,,,,,,,,,,,,,,,,,,,,,
1577422526.938340,45.000000,0.000000,4205.128418,4262.051270,4233.333496,4163.589844,4224.615234,0.000000,4.000000,,,,0.000000,4.000000,4.000000,4.000000,4.000000,4.000000,,,,,,,,,,,,,,,,,,,,,,,,,
1577422526.946160,46.000000,1.000000,4202.279297,4259.430176,4221.709473,4163.931641,4224.501465,0.000000,4.000000,,,,0.000000,4.000000,4.000000,4.000000,4.000000,4.000000,,,,,,,,,,,,,,,,,,,,,,,,,
1577422526.954079,47.000000,1.000000,4199.430176,4256.809082,4210.085449,4164.273438,4224.387695,0.000000,4.000000,,,,0.000000,4.000000,4.000000,4.000000,4.000000,4.000000,5.467806,6.938794,3.842885,1.544160,1.098676,31.687357,1.766553,4.263591,0.622354,1.144260,63.159676,28.165663,7.321316,2.062345,1.130607,5.127877,7.685929,4.132067,1.407436,0.993281,6.163063,10.322585,3.511050,1.607969,1.188201
1577422526.961999,48.000000,1.000000,4196.581055,4254.187988,4198.461426,4164.615234,4224.273438,0.000000,4.000000,,,,0.000000,4.000000,4.000000,4.000000,4.000000,4.000000,,,,,,,,,,,,,,,,,,,,,,,,,
1577422526.969918,49.000000,1.000000,4193.732422,4251.566895,4186.837402,4164.957031,4224.159668,0.000000,4.000000,,,,0.000000,4.000000,4.000000,4.000000,4.000000,4.000000,,,,,,,,,,,,,,,,,,,,,,,,,
1577422526.977837,50.000000,1.000000,4190.883301,4248.945801,4175.213867,4165.299316,4224.045410,0.000000,4.000000,,,,0.000000,4.000000,4.000000,4.000000,4.000000,4.000000,,,,,,,,,,,,,,,,,,,,,,,,,
1577422526.985756,51.000000,1.000000,4188.034180,4246.324707,4163.589844,4165.641113,4223.931641,0.000000,4.000000,,,,0.000000,4.000000,4.000000,4.000000,4.000000,4.000000,,,,,,,,,,,,,,,,,,,,,,,,,
1577422526.993676,52.000000,1.000000,4185.185059,4243.703613,4151.965820,4165.982910,4223.817871,0.000000,4.000000,,,,0.000000,4.000000,4.000000,4.000000,4.000000,4.000000,,,,,,,,,,,,,,,,,,,,,,,,,
1577422527.001595,53.000000,1.000000,4182.336426,4241.082520,4140.341797,4166.324707,4223.703613,0.000000,4.000000,,,,0.000000,4.000000,4.000000,4.000000,4.000000,4.000000,,,,,,,,,,,,,,,,,,,,,,,,,
1577422527.009514,54.000000,0.000000,4179.487305,4238.461426,4128.717773,4166.666504,4223.589844,0.000000,4.000000,,,,0.000000,4.000000,4.000000,4.000000,4.000000,4.000000,,,,,,,,,,,,,,,,,,,,,,,,,
1577422527.017252,55.000000,0.000000,4173.846191,4221.538574,4094.358887,4154.871582,4215.384766,0.000000,4.000000,,,,0.000000,4.000000,4.000000,4.000000,4.000000,4.000000,,,,,,,,,,,,,,,,,,,,,,,,,
1577422527.025000,56.000000,0.000000,4165.128418,4207.179688,4040.000000,4142.051270,4198.974121,0.000000,4.000000,,,,0.000000,4.000000,4.000000,4.000000,4.000000,4.000000,,,,,,,,,,,,,,,,,,,,,,,,,
1577422527.032848,57.000000,0.000000,4167.179688,4220.512695,4005.641113,4145.128418,4199.487305,0.000000,4.000000,,,,0.000000,4.000000,4.000000,4.000000,4.000000,4.000000,,,,,,,,,,,,,,,,,,,,,,,,,
1577422527.040595,58.000000,0.000000,4177.948730,4232.820313,3996.923096,4153.846191,4208.717773,0.000000,4.000000,,,,0.000000,4.000000,4.000000,4.000000,4.000000,4.000000,,,,,,,,,,,,,,,,,,,,,,,,,
1577422527.048441,59.000000,0.000000,4180.000000,4229.743652,3991.281982,4152.307617,4202.051270,0.000000,4.000000,,,,0.000000,4.000000,4.000000,4.000000,4.000000,4.000000,,,,,,,,,,,,,,,,,,,,,,,,,
1577422527.056187,60.000000,0.000000,4159.487305,4228.717773,3990.256348,4141.025879,4183.589844,0.000000,4.000000,,,,0.000000,4.000000,4.000000,4.000000,4.000000,4.000000,,,,,,,,,,,,,,,,,,,,,,,,,
1577422527.064033,61.000000,0.000000,4150.256348,4240.000000,4013.333252,4145.641113,4177.948730,0.000000,4.000000,,,,0.000000,4.000000,4.000000,4.000000,4.000000,4.000000,,,,,,,,,,,,,,,,,,,,,,,,,
1577422527.071778,62.000000,0.000000,4162.563965,4251.282227,4052.820557,4156.410156,4188.717773,0.000000,4.000000,,,,0.000000,4.000000,4.000000,4.000000,4.000000,4.000000,,,,,,,,,,,,,,,,,,,,,,,,,
1577422527.079622,63.000000,0.000000,4157.436035,4255.384766,4066.153809,4147.179688,4181.538574,0.000000,4.000000,,,,0.000000,4.000000,4.000000,4.000000,4.000000,4.000000,5.267091,6.634037,3.297577,1.286558,0.790153,21.696507,1.838297,4.115734,0.552156,0.895890,84.135033,55.160885,11.397860,3.391504,1.327942,2.889564,7.293114,3.395603,1.131116,0.804361,5.663322,10.641932,2.961919,1.321496,0.921952
1577422527.087366,64.000000,0.000000,4146.153809,4259.487305,4072.820557,4133.333496,4165.641113,450.000000,4.000000,,,,0.000000,4.000000,4.000000,4.000000,4.000000,4.000000,,,,,,,,,,,,,,,,,,,,,,,,,
1577422527.095120,65.000000,0.000000,4155.897461,4268.205078,4115.384766,4140.000000,4175.384766,450.000000,4.000000,,,,0.000000,4.000000,4.000000,4.000000,4.000000,4.000000,,,,,,,,,,,,,,,,,,,,,,,,,
1577422527.102974,66.000000,0.000000,4155.384766,4265.128418,4124.102539,4140.512695,4176.410156,16220.000000,4.000000,,,,0.000000,4.000000,4.000000,4.000000,4.000000,4.000000,,,,,,,,,,,,,,,,,,,,,,,,,
1577422527.110829,67.000000,0.000000,4143.077148,4258.461426,4088.205078,4127.179688,4164.615234,450.000000,4.000000,,,,0.000000,4.000000,4.000000,4.000000,4.000000,4.000000,,,,,,,,,,,,,,,,,,,,,,,,,
1577422527.118592,68.000000,0.000000,4157.436035,4270.769043,4106.153809,4141.538574,4181.538574,16181.000000,4.000000,,,,0.000000,4.000000,4.000000,4.000000,4.000000,4.000000,,,,,,,,,,,,,,,,,,,,,,,,,
1577422527.126365,69.000000,0.000000,4170.769043,4275.384766,4135.897461,4156.410156,4198.974121,450.000000,4.000000,,,,0.000000,4.000000,4.000000,4.000000,4.000000,4.000000,,,,,,,,,,,,,,,,,,,,,,,,,
1577422527.134238,70.000000,0.000000,4153.333496,4252.307617,4084.615479,4138.461426,4188.717773,16158.000000,4.000000,,,,0.000000,4.000000,4.000000,4.000000,4.000000,4.000000,,,,,,,,,,,,,,,,,,,,,,,,,
1577422527.142111,71.000000,0.000000,4153.846191,4244.102539,4043.589844,4138.974121,4193.846191,450.000000,4.000000,,,,0.000000,4.000000,4.000000,4.000000,4.000000,4.000000,,,,,,,,,,,,,,,,,,,,,,,,,
1577422527.149984,72.000000,0.000000,4177.436035,4254.871582,4072.307617,4160.512695,4224.102539,450.000000,4.000000,,,,0.000000,4.000000,4.000000,4.000000,4.000000,4.000000,,,,,,,,,,,,,,,,,,,,,,,,,
1577422527.157734,73.000000,0.000000,4176.922852,4242.051270,4082.564209,4151.794922,4233.333496,16172.000000,4.000000,,,,0.000000,4.000000,4.000000,4.000000,4.000000,4.000000,,,,,,,,,,,,,,,,,,,,,,,,,
1577422527.165584,74.000000,0.000000,4159.487305,4219.487305,4065.128174,4131.282227,4218.974121,450.000000,4.000000,,,,0.000000,4.000000,4.000000,4.000000,4.000000,4.000000,,,,,,,,,,,,,,,,,,,,,,,,,
1577422527.173333,75.000000,0.000000,4154.871582,4218.974121,4062.051270,4140.000000,4221.025879,16211.000000,4.000000,,,,0.000000,4.000000,4.000000,4.000000,4.000000,4.000000,,,,,,,,,,,,,,,,,,,,,,,,,
1577422527.181092,76.000000,0.000000,4155.897461,4221.538574,4065.128174,4156.922852,4232.820313,450.000000,4.000000,,,,0.000000,4.000000,4.000000,4.000000,4.000000,4.000000,,,,,,,,,,,,,,,,,,,,,,,,,
1577422527.188950,77.000000,0.000000,4158.974121,4215.384766,4058.974365,4158.974121,4235.897461,450.000000,4.000000,,,,0.000000,4.000000,4.000000,4.000000,4.000000,4.000000,,,,,,,,,,,,,,,,,,,,,,,,,
1577422527.196708,78.000000,0.000000,4148.205078,4201.538574,4032.820557,4149.230957,4223.589844,450.000000,4.000000,,,,0.000000,4.000000,4.000000,4.000000,4.000000,4.000000,,,,,,,,,,,,,,,,,,,,,,,,,
1577422527.204497,79.000000,0.000000,4123.077148,4188.205078,4008.718018,4133.333496,4195.897461,16211.000000,4.000000,,,,0.000000,4.000000,4.000000,4.000000,4.000000,4.000000,5.286397,6.172460,2.790870,1.097104,0.645476,17.579651,2.390663,3.672580,0.528557,0.745866,121.168434,97.331818,19.174589,5.775776,1.883769,2.134838,6.685918,2.842376,0.898386,0.670964,5.849491,10.188510,2.491363,1.089943,0.750277
1577422527.212295,80.000000,0.000000,4124.615234,4191.282227,4004.615479,4127.179688,4190.256348,450.000000,4.000000,,,,0.000000,4.000000,4.000000,4.000000,4.000000,4.000000,,,,,,,,,,,,,,,,,,,,,,,,,
1577422527.220194,81.000000,0.000000,4151.794922,4198.974121,4008.718018,4140.000000,4211.794922,450.000000,4.000000,,,,0.000000,4.000000,4.000000,4.000000,4.000000,4.000000,,,,,,,,,,,,,,,,,,,,,,,,,
1577422527.228092,82.000000,0.000000,4160.000000,4203.077148,4000.512939,4145.641113,4215.897461,450.000000,4.000000,,,,0.000000,4.000000,4.000000,4.000000,4.000000,4.000000,,,,,,,,,,,,,,,,,,,,,,,,,
1577422527.235879,83.000000,0.000000,4163.589844,4221.025879,3990.769287,4144.102539,4212.820313,16211.000000,4.000000,,,,0.000000,4.000000,4.000000,4.000000,4.000000,4.000000,,,,,,,,,,,,,,,,,,,,,,,,,
1577422527.243676,84.000000,1.000000,4158.119629,4219.430176,3980.455811,4141.823242,4207.692383,14459.777344,4.000000,,,,0.000000,4.000000,4.000000,4.000000,4.000000,4.000000,,,,,,,,,,,,,,,,,,,,,,,,,
1577422527.251572,85.000000,1.000000,4152.649414,4217.834961,3970.142334,4139.543945,4202.563965,12708.555664,4.000000,,,,0.000000,4.000000,4.000000,4.000000,4.000000,4.000000,,,,,,,,,,,,,,,,,,,,,,,,,
1577422527.259469,86.000000,1.000000,4147.179688,4216.239258,3959.829102,4137.265137,4197.436035,10957.333008,4.000000,,,,0.000000,4.000000,4.000000,4.000000,4.000000,4.000000,,,,,,,,,,,,,,,,,,,,,,,,,
1577422527.267365,87.000000,1.000000,4141.709473,4214.644043,3949.515625,4134.985840,4192.307617,9206.111328,4.000000,,,,0.000000,4.000000,4.000000,4.000000,4.000000,4.000000,,,,,,,,,,,,,,,,,,,,,,,,,
1577422527.275261,88.000000,1.000000,4136.239258,4213.048340,3939.202393,4132.706543,4187.179688,7454.888672,4.000000,,,,0.000000,4.000000,4.000000,4.000000,4.000000,4.000000,,,,,,,,,,,,,,,,,,,,,,,,,
1577422527.283158,89.000000,1.000000,4130.769043,4211.453125,3928.888916,4130.427246,4182.051270,5703.666504,4.000000,,,,0.000000,4.000000,4.000000,4.000000,4.000000,4.000000,,,,,,,,,,,,,,,,,,,,,,,,,
1577422527.291054,90.000000,1.000000,4125.299316,4209.857422,3918.575439,4128.147949,4176.922852,3952.444336,4.000000,,,,0.000000,4.000000,4.000000,4.000000,4.000000,4.000000,,,,,,,,,,,,,,,,,,,,,,,,,
1577422527.298951,91.000000,1.000000,4119.829102,4208.262207,3908.262207,4125.869141,4171.794922,2201.222168,4.000000,,,,0.000000,4.000000,4.000000,4.000000,4.000000,4.000000,,,,,,,,,,,,,,,,,,,,,,,,,
1577422527.306847,92.000000,0.000000,4114.358887,4206.666504,3897.948730,4123.589844,4166.666504,450.000000,4.000000,,,,0.000000,4.000000,4.000000,4.000000,4.000000,4.000000,,,,,,,,,,,,,,,,,,,,,,,,,
1577422527.314567,93.000000,0.000000,4111.794922,4193.333496,3904.102539,4117.948730,4160.512695,450.000000,4.000000,,,,0.000000,4.000000,4.000000,4.000000,4.000000,4.000000,,,,,,,,,,,,,,,,,,,,,,,,,
1577422527.322386,94.000000,0.000000,4153.333496,4208.205078,3918.461426,4142.563965,4195.897461,450.000000,4.000000,,,,0.000000,4.000000,4.000000,4.000000,4.000000,4.000000,,,,,,,,,,,,,,,,,,,,,,,,,
1577422527.330105,95.000000,0.000000,4172.307617,4226.666504,3931.281982,4151.282227,4206.153809,16211.000000,4.000000,,,,0.000000,4.000000,4.000000,4.000000,4.000000,4.000000,5.508849,5.251717,2.192313,0.905596,0.496524,16.579176,2.761910,2.939796,0.502725,0.590274,164.556595,149.461716,30.500832,9.109961,2.785373,1.829805,5.454839,2.232673,0.684922,0.511962,6.257380,8.677116,1.979292,0.875665,0.571896
1577422527.337833,96.000000,0.000000,4164.102539,4227.179688,3933.846191,4145.641113,4190.769043,450.000000,4.000000,,,,0.000000,4.000000,4.000000,4.000000,4.000000,4.000000,,,,,,,,,,,,,,,,,,,,,,,,,
1577422527.345572,97.000000,0.000000,4179.487305,4224.615234,3932.307617,4154.871582,4206.666504,450.000000,4.000000,,,,0.000000,4.000000,4.000000,4.000000,4.000000,4.000000,,,,,,,,,,,,,,,,,,,,,,,,,
1577422527.353410,98.000000,0.000000,4180.512695,4223.077148,3925.128174,4149.743652,4211.794922,450.000000,4.000000,,,,0.000000,4.000000,4.000000,4.000000,4.000000,4.000000,,,,,,,,,,,,,,,,,,,,,,,,,
1577422527.361147,99.000000,0.000000,4153.846191,4229.230957,3921.538574,4131.282227,4188.205078,16211.000000,4.000000,,,,0.000000,4.000000,4.000000,4.000000,4.000000,4.000000,,,,,,,,,,,,,,,,,,,,,,,,,
1577422527.368894,100.000000,0.000000,4151.282227,4237.436035,3927.179443,4131.282227,4184.102539,450.000000,4.000000,,,,0.000000,4.000000,4.000000,4.000000,4.000000,4.000000,,,,,,,,,,,,,,,,,,,,,,,,,
1577422527.376741,101.000000,0.000000,4155.384766,4226.666504,3917.435791,4139.487305,4182.051270,450.000000,4.000000,,,,0.000000,4.000000,4.000000,4.000000,4.000000,4.000000,,,,,,,,,,,,,,,,,,,,,,,,,
1577422527.384488,102.000000,0.000000,4132.820313,4210.769043,3902.051270,4143.077148,4157.436035,450.000000,4.000000,,,,0.000000,4.000000,4.000000,4.000000,4.000000,4.000000,,,,,,,,,,,,,,,,,,,,,,,,,
1577422527.392244,103.000000,0.000000,4111.794922,4217.948730,3892.820557,4145.128418,4135.897461,16211.000000,4.000000,,,,0.000000,4.000000,4.000000,4.000000,4.000000,4.000000,,,,,,,,,,,,,,,,,,,,,,,,,
1577422527.400100,104.000000,0.000000,4106.153809,4227.692383,3886.153809,4141.538574,4121.025879,450.000000,4.000000,,,,0.000000,4.000000,4.000000,4.000000,4.000000,4.000000,,,,,,,,,,,,,,,,,,,,,,,,,
1577422527.407856,105.000000,0.000000,4091.794922,4222.563965,3891.281982,4125.641113,4098.974121,450.000000,4.000000,,,,0.000000,4.000000,4.000000,4.000000,4.000000,4.000000,,,,,,,,,,,,,,,,,,,,,,,,,
1577422527.415712,106.000000,0.000000,4092.307617,4230.769043,3914.358887,4119.487305,4095.384521,450.000000,4.000000,,,,0.000000,4.000000,4.000000,4.000000,4.000000,4.000000,,,,,,,,,,,,,,,,,,,,,,,,,
1577422527.423467,107.000000,0.000000,4112.307617,4250.256348,3931.281982,4131.282227,4117.436035,16211.000000,4.000000,,,,0.000000,4.000000,4.000000,4.000000,4.000000,4.000000,,,,,,,,,,,,,,,,,,,,,,,,,
1577422527.431231,108.000000,0.000000,4126.666504,4264.615234,3942.051270,4145.641113,4136.410156,450.000000,4.000000,,,,0.000000,4.000000,4.000000,4.000000,4.000000,4.000000,,,,,,,,,,,,,,,,,,,,,,,,,
1577422527.439005,109.000000,0.000000,4136.922852,4274.358887,3957.948730,4150.769043,4142.051270,450.000000,4.000000,,,,0.000000,4.000000,4.000000,4.000000,4.000000,4.000000,,,,,,,,,,,,,,,,,,,,,,,,,
1577422527.446879,110.000000,0.000000,4130.769043,4261.025879,3956.410156,4131.282227,4129.743652,450.000000,4.000000,,,,0.000000,4.000000,4.000000,4.000000,4.000000,4.000000,,,,,,,,,,,,,,,,,,,,,,,,,
1577422527.454752,111.000000,0.000000,4115.384766,4252.307617,3946.153809,4121.025879,4117.948730,16211.000000,4.000000,,,,0.000000,4.000000,4.000000,4.000000,4.000000,4.000000,5.520306,4.070253,1.574014,0.722003,0.379871,16.622187,2.764503,2.122437,0.488298,0.466588,199.715073,199.934082,43.331455,12.732137,3.898397,1.697815,3.912606,1.600196,0.504602,0.368090,6.771933,6.514263,1.472599,0.683342,0.428531
1577422527.462515,112.000000,0.000000,4123.589844,4275.384766,3946.666748,4138.461426,4124.615234,450.000000,4.000000,,,,0.000000,4.000000,4.000000,4.000000,4.000000,4.000000,,,,,,,,,,,,,,,,,,,,,,,,,
1577422527.470377,113.000000,0.000000,4126.666504,4287.179688,3943.076904,4135.897461,4123.077148,450.000000,4.000000,,,,0.000000,4.000000,4.000000,4.000000,4.000000,4.000000,,,,,,,,,,,,,,,,,,,,,,,,,
1577422527.478138,114.000000,0.000000,4107.179688,4286.666504,3932.820557,4124.615234,4105.128418,450.000000,4.000000,,,,0.000000,4.000000,4.000000,4.000000,4.000000,4.000000,,,,,,,,,,,,,,,,,,,,,,,,,
1577422527.485998,115.000000,0.000000,4095.384521,4298.974121,3917.435791,4135.384766,4093.846191,16211.000000,4.000000,,,,0.000000,4.000000,4.000000,4.000000,4.000000,4.000000,,,,,,,,,,,,,,,,,,,,,,,,,
1577422527.493779,116.000000,0.000000,4090.769287,4300.000000,3914.358887,4143.589844,4087.692383,450.000000,4.000000,,,,0.000000,4.000000,4.000000,4.000000,4.000000,4.000000,,,,,,,,,,,,,,,,,,,,,,,,,
1577422527.501568,117.000000,0.000000,4085.128174,4291.282227,3923.589844,4139.487305,4080.000000,450.000000,4.000000,,,,0.000000,4.000000,4.000000,4.000000,4.000000,4.000000,,,,,,,,,,,,,,,,,,,,,,,,,
1577422527.509458,118.000000,0.000000,4086.666748,4297.948730,3921.025635,4141.538574,4075.384521,450.000000,4.000000,,,,0.000000,4.000000,4.000000,4.000000,4.000000,4.000000,,,,,,,,,,,,,,,,,,,,,,,,,
1577422527.517348,119.000000,0.000000,4076.923096,4294.358887,3904.615479,4137.436035,4062.564209,16211.000000,4.000000,,,,0.000000,4.000000,4.000000,4.000000,4.000000,4.000000,,,,,,,,,,,,,,,,,,,,,,,,,
1577422527.525126,120.000000,0.000000,4057.435791,4267.692383,3894.358887,4117.436035,4047.692383,450.000000,4.000000,,,,0.000000,4.000000,4.000000,4.000000,4.000000,4.000000,,,,,,,,,,,,,,,,,,,,,,,,,
1577422527.533004,121.000000,0.000000,4052.820557,4256.410156,3901.025635,4110.256348,4044.102539,450.000000,4.000000,,,,0.000000,4.000000,4.000000,4.000000,4.000000,4.000000,,,,,,,,,,,,,,,,,,,,,,,,,
1577422527.540782,122.000000,0.000000,4071.281982,4262.563965,3926.153809,4134.871582,4057.435791,450.000000,4.000000,,,,0.000000,4.000000,4.000000,4.000000,4.000000,4.000000,,,,,,,,,,,,,,,,,,,,,,,,,
1577422527.548659,123.000000,0.000000,4085.128174,4252.307617,3948.205078,4155.384766,4073.333252,16211.000000,4.000000,,,,0.000000,4.000000,4.000000,4.000000,4.000000,4.000000,,,,,,,,,,,,,,,,,,,,,,,,,
1577422527.556436,124.000000,0.000000,4078.461426,4233.333496,3938.974365,4140.512695,4070.256348,450.000000,4.000000,,,,0.000000,4.000000,4.000000,4.000000,4.000000,4.000000,,,,,,,,,,,,,,,,,,,,,,,,,
1577422527.564312,125.000000,0.000000,4088.205078,4242.563965,3930.256348,4129.743652,4069.743652,450.000000,4.000000,,,,0.000000,4.000000,4.000000,4.000000,4.000000,4.000000,,,,,,,,,,,,,,,,,,,,,,,,,
1577422527.572088,126.000000,0.000000,4106.153809,4257.948730,3941.538574,4137.948730,4076.410156,450.000000,4.000000,,,,0.000000,4.000000,4.000000,4.000000,4.000000,4.000000,,,,,,,,,,,,,,,,,,,,,,,,,
1577422527.579872,127.000000,0.000000,4098.461426,4250.256348,3934.871826,4133.846191,4068.205078,234.000000,4.000000,,,,0.000000,4.000000,4.000000,4.000000,4.000000,4.000000,5.388336,3.048595,1.033310,0.559637,0.325922,16.501799,2.432975,1.406130,0.490607,0.401473,213.933029,234.501999,54.118938,15.616554,4.935652,1.601877,2.465456,1.033825,0.366210,0.276576,7.499863,4.366232,1.032737,0.515685,0.353559
1577422527.587757,0.000000,0.000000,4085.641113,4238.461426,3905.128174,4125.128418,4054.358887,450.000000,4.000000,,,,0.000000,4.000000,4.000000,4.000000,4.000000,4.000000,,,,,,,,,,,,,,,,,,,,,,,,,
1577422527.595540,1.000000,0.000000,4087.692383,4248.205078,3899.487061,4137.948730,4059.487061,450.000000,4.000000,,,,0.000000,4.000000,4.000000,4.000000,4.000000,4.000000,,,,,,,,,,,,,,,,,,,,,,,,,
1577422527.603423,2.000000,0.000000,4098.461426,4272.307617,3917.948730,4154.871582,4075.897461,16222.000000,4.000000,,,,0.000000,4.000000,4.000000,4.000000,4.000000,4.000000,,,,,,,,,,,,,,,,,,,,,,,,,
1577422527.611207,3.000000,0.000000,4093.846191,4265.128418,3908.718018,4141.025879,4073.333252,450.000000,4.000000,,,,0.000000,4.000000,4.000000,4.000000,4.000000,4.000000,,,,,,,,,,,,,,,,,,,,,,,,,
1577422527.619090,4.000000,0.000000,4079.487061,4243.077148,3893.333252,4129.230957,4064.615479,16186.000000,4.000000,,,,0.000000,4.000000,4.000000,4.000000,4.000000,4.000000,,,,,,,,,,,,,,,,,,,,,,,,,
1577422527.626872,5.000000,0.000000,4086.153809,4262.563965,3899.487061,4133.846191,4073.846191,450.000000,4.000000,,,,0.000000,4.000000,4.000000,4.000000,4.000000,4.000000,,,,,,,,,,,,,,,,,,,,,,,,,
1577422527.634754,6.000000,0.000000,4087.179443,4283.589844,3883.589844,4117.436035,4070.769287,16159.000000,4.000000,,,,0.000000,4.000000,4.000000,4.000000,4.000000,4.000000,,,,,,,,,,,,,,,,,,,,,,,,,
1577422527.642535,7.000000,0.000000,4072.820557,4274.871582,3858.461426,4100.512695,4055.897461,450.000000,4.000000,,,,0.000000,4.000000,4.000000,4.000000,4.000000,4.000000,,,,,,,,,,,,,,,,,,,,,,,,,
1577422527.650415,8.000000,0.000000,4077.435791,4283.077148,3872.820557,4111.794922,4061.025635,450.000000,4.000000,,,,0.000000,4.000000,4.000000,4.000000,4.000000,4.000000,,,,,,,,,,,,,,,,,,,,,,,,,
1577422527.658195,9.000000,0.000000,4084.102539,4300.000000,3892.820557,4119.487305,4067.179443,16166.000000,4.000000,,,,0.000000,4.000000,4.000000,4.000000,4.000000,4.000000,,,,,,,,,,,,,,,,,,,,,,,,,
1577422527.665984,10.000000,1.000000,4085.413086,4299.430176,3903.475830,4119.886230,4066.267822,450.000000,4.000000,,,,0.000000,4.000000,4.000000,4.000000,4.000000,4.000000,,,,,,,,,,,,,,,,,,,,,,,,,
1577422527.673873,11.000000,1.000000,4086.723633,4298.860352,3914.131104,4120.284668,4065.356201,16211.000000,4.000000,,,,0.000000,4.000000,4.000000,4.000000,4.000000,4.000000,,,,,,,,,,,,,,,,,,,,,,,,,
1577422527.681763,12.000000,1.000000,4088.034180,4298.290527,3924.786377,4120.683594,4064.444336,450.000000,4.000000,,,,0.000000,4.000000,4.000000,4.000000,4.000000,4.000000,,,,,,,,,,,,,,,,,,,,,,,,,
1577422527.689652,13.000000,1.000000,4089.344727,4297.720703,3935.441650,4121.082520,4063.532715,450.000000,4.000000,,,,0.000000,4.000000,4.000000,4.000000,4.000000,4.000000,,,,,,,,,,,,,,,,,,,,,,,,,
1577422527.697541,14.000000,1.000000,4090.655273,4297.150879,3946.096924,4121.481445,4062.621094,450.000000,4.000000,,,,0.000000,4.000000,4.000000,4.000000,4.000000,4.000000,,,,,,,,,,,,,,,,,,,,,,,,,
1577422527.705430,15.000000,1.000000,4091.965820,4296.581055,3956.752197,4121.880371,4061.709473,16211.000000,4.000000,,,,0.000000,4.000000,4.000000,4.000000,4.000000,4.000000,5.000391,2.703530,0.646066,0.450589,0.342603,15.694438,1.968491,0.907352,0.509477,0.397139,205.345535,242.884048,59.306503,16.827501,5.564631,1.493822,1.423898,0.621968,0.295880,0.254688,8.417885,2.939441,0.713714,0.398645,0.357783
1577422527.713319,16.000000,1.000000,4093.276367,4296.011230,3967.407471,4122.279297,4060.797607,3592.444336,4.000000,,,,0.000000,4.000000,4.000000,4.000000,4.000000,4.000000,,,,,,,,,,,,,,,,,,,,,,,,,
1577422527.721208,17.000000,1.000000,4094.586914,4295.441406,3978.062744,4122.678223,4059.885986,1796.222168,4.000000,,,,0.000000,4.000000,4.000000,4.000000,4.000000,4.000000,,,,,,,,,,,,,,,,,,,,,,,,,
1577422527.729097,18.000000,0.000000,4095.897461,4294.871582,3988.718018,4123.077148,4058.974365,0.000000,4.000000,,,,0.000000,4.000000,4.000000,4.000000,4.000000,4.000000,,,,,,,,,,,,,,,,,,,,,,,,,
1577422527.736986,19.000000,0.000000,4097.948730,4274.871582,4004.102539,4127.179688,4064.615479,0.000000,4.000000,,,,0.000000,4.000000,4.000000,4.000000,4.000000,4.000000,,,,,,,,,,,,,,,,,,,,,,,,,
1577422527.744693,20.000000,0.000000,4102.563965,4276.922852,4011.794922,4129.743652,4069.230713,0.000000,4.000000,,,,0.000000,4.000000,4.000000,4.000000,4.000000,4.000000,,,,,,,,,,,,,,,,,,,,,,,,,
1577422527.752500,21.000000,0.000000,4107.179688,4298.974121,4023.076904,4130.769043,4074.871826,0.000000,4.000000,,,,0.000000,4.000000,4.000000,4.000000,4.000000,4.000000,,,,,,,,,,,,,,,,,,,,,,,,,
1577422527.760207,22.000000,0.000000,4124.102539,4306.153809,4047.692383,4140.512695,4097.948730,0.000000,4.000000,,,,0.000000,4.000000,4.000000,4.000000,4.000000,4.000000,,,,,,,,,,,,,,,,,,,,,,,,,
1577422527.767922,23.000000,0.000000,4121.538574,4299.487305,4055.897461,4135.384766,4098.974121,0.000000,4.000000,,,,0.000000,4.000000,4.000000,4.000000,4.000000,4.000000,,,,,,,,,,,,,,,,,,,,,,,,,
1577422527.775738,24.000000,0.000000,4087.692383,4291.794922,4034.871826,4105.641113,4072.820557,0.000000,4.000000,,,,0.000000,4.000000,4.000000,4.000000,4.000000,4.000000,,,,,,,,,,,,,,,,,,,,,,,,,
1577422527.783452,25.000000,0.000000,4073.846191,4293.333496,4025.128174,4096.410156,4063.076904,0.000000,4.000000,,,,0.000000,4.000000,4.000000,4.000000,4.000000,4.000000,,,,,,,,,,,,,,,,,,,,,,,,,
1577422527.791267,26.000000,0.000000,4089.743652,4304.102539,4033.333252,4105.128418,4076.410156,0.000000,4.000000,,,,0.000000,4.000000,4.000000,4.000000,4.000000,4.000000,,,,,,,,,,,,,,,,,,,,,,,,,
1577422527.798981,27.000000,0.000000,4100.512695,4321.538574,4036.923096,4110.256348,4087.692383,0.000000,4.000000,,,,0.000000,4.000000,4.000000,4.000000,4.000000,4.000000,,,,,,,,,,,,,,,,,,,,,,,,,
1577422527.806795,28.000000,0.000000,4106.153809,4329.743652,4042.051270,4120.000000,4094.871826,0.000000,4.000000,,,,0.000000,4.000000,4.000000,4.000000,4.000000,4.000000,,,,,,,,,,,,,,,,,,,,,,,,,
1577422527.814610,29.000000,0.000000,4098.461426,4311.282227,4028.205078,4113.333496,4091.794922,0.000000,4.000000,,,,0.000000,4.000000,4.000000,4.000000,4.000000,4.000000,,,,,,,,,,,,,,,,,,,,,,,,,
1577422527.822313,30.000000,0.000000,4080.512939,4305.641113,4001.025635,4097.436035,4080.512939,0.000000,4.000000,,,,0.000000,4.000000,4.000000,4.000000,4.000000,4.000000,,,,,,,,,,,,,,,,,,,,,,,,,
1577422527.830025,31.000000,0.000000,4080.000000,4316.922852,3994.871826,4101.538574,4082.564209,0.000000,4.000000,,,,0.000000,4.000000,4.000000,4.000000,4.000000,4.000000,4.636782,3.416800,0.451025,0.428570,0.414235,14.558366,1.613950,0.658258,0.536924,0.437165,175.228821,222.468552,56.904034,15.944393,5.560775,1.359880,0.896637,0.396408,0.327332,0.296471,9.608345,2.695449,0.550122,0.371299,0.425196
1577422527.837838,32.000000,0.000000,4080.000000,4295.384766,3983.076904,4108.205078,4085.128174,0.000000,4.000000,,,,0.000000,4.000000,4.000000,4.000000,4.000000,4.000000,,,,,,,,,,,,,,,,,,,,,,,,,
1577422527.845650,33.000000,0.000000,4074.358887,4268.717773,3963.076904,4103.589844,4084.615479,0.000000,4.000000,,,,0.000000,4.000000,4.000000,4.000000,4.000000,4.000000,,,,,,,,,,,,,,,,,,,,,,,,,
1577422527.853370,34.000000,0.000000,4084.615479,4271.794922,3963.589844,4102.051270,4098.461426,0.000000,4.000000,,,,0.000000,4.000000,4.000000,4.000000,4.000000,4.000000,,,,,,,,,,,,,,,,,,,,,,,,,
1577422527.861101,35.000000,0.000000,4097.436035,4272.307617,3968.205078,4106.666504,4113.333496,0.000000,4.000000,,,,0.000000,4.000000,4.000000,4.000000,4.000000,4.000000,,,,,,,,,,,,,,,,,,,,,,,,,
1577422527.868931,36.000000,0.000000,4099.487305,4264.615234,3962.564209,4107.692383,4118.461426,0.000000,4.000000,,,,0.000000,4.000000,4.000000,4.000000,4.000000,4.000000,,,,,,,,,,,,,,,,,,,,,,,,,
1577422527.876761,37.000000,0.000000,4111.794922,4264.615234,3974.871826,4112.307617,4135.897461,0.000000,4.000000,,,,0.000000,4.000000,4.000000,4.000000,4.000000,4.000000,,,,,,,,,,,,,,,,,,,,,,,,,
1577422527.884591,38.000000,0.000000,4131.794922,4250.769043,3997.948730,4125.128418,4161.538574,0.000000,4.000000,,,,0.000000,4.000000,4.000000,4.000000,4.000000,4.000000,,,,,,,,,,,,,,,,,,,,,,,,,
1577422527.892300,39.000000,0.000000,4137.436035,4237.436035,4003.076904,4127.692383,4171.794922,0.000000,4.000000,,,,0.000000,4.000000,4.000000,4.000000,4.000000,4.000000,,,,,,,,,,,,,,,,,,,,,,,,,
1577422527.900019,40.000000,0.000000,4133.333496,4250.256348,4012.307617,4123.589844,4165.128418,0.000000,4.000000,,,,0.000000,4.000000,4.000000,4.000000,4.000000,4.000000,,,,,,,,,,,,,,,,,,,,,,,,,
1577422527.907836,41.000000,0.000000,4125.128418,4253.846191,4032.307617,4118.974121,4154.358887,0.000000,4.000000,,,,0.000000,4.000000,4.000000,4.000000,4.000000,4.000000,,,,,,,,,,,,,,,,,,,,,,,,,
1577422527.915553,42.000000,0.000000,4119.487305,4242.563965,4033.333252,4112.820313,4150.256348,0.000000,4.000000,,,,0.000000,4.000000,4.000000,4.000000,4.000000,4.000000,,,,,,,,,,,,,,,,,,,,,,,,,
1577422527.923370,43.000000,0.000000,4106.666504,4241.025879,4017.435791,4104.102539,4141.025879,0.000000,4.000000,,,,0.000000,4.000000,4.000000,4.000000,4.000000,4.000000,,,,,,,,,,,,,,,,,,,,,,,,,
1577422527.931187,44.000000,0.000000,4096.410156,4250.256348,4018.461426,4098.974121,4133.333496,0.000000,4.000000,,,,0.000000,4.000000,4.000000,4.000000,4.000000,4.000000,,,,,,,,,,,,,,,,,,,,,,,,,
1577422527.938893,45.000000,0.000000,4111.282227,4249.230957,4034.358887,4112.820313,4145.641113,0.000000,4.000000,,,,0.000000,4.000000,4.000000,4.000000,4.000000,4.000000,,,,,,,,,,,,,,,,,,,,,,,,,
1577422527.946700,46.000000,0.000000,4119.487305,4225.128418,4023.589844,4114.871582,4147.692383,0.000000,4.000000,,,,0.000000,4.000000,4.000000,4.000000,4.000000,4.000000,,,,,,,,,,,,,,,,,,,,,,,,,
1577422527.954407,47.000000,0.000000,4100.512695,4212.820313,4000.000000,4092.820557,4123.077148,0.000000,4.000000,,,,0.000000,4.000000,4.000000,4.000000,4.000000,4.000000,4.449888,5.142663,0.429089,0.494804,0.509480,13.742015,1.502403,0.612314,0.557751,0.499098,135.949738,179.388077,47.426075,13.236765,4.918067,1.267038,0.757222,0.335672,0.467917,0.377934,10.750979,3.584545,0.538736,0.442247,0.519950
1577422527.962213,48.000000,0.000000,4102.563965,4228.205078,4015.384521,4099.487305,4123.077148,0.000000,4.000000,,,,0.000000,4.000000,4.000000,4.000000,4.000000,4.000000,,,,,,,,,,,,,,,,,,,,,,,,,
1577422527.969919,49.000000,0.000000,4131.282227,4223.589844,4041.025635,4129.743652,4151.282227,0.000000,4.000000,,,,0.000000,4.000000,4.000000,4.000000,4.000000,4.000000,,,,,,,,,,,,,,,,,,,,,,,,,
1577422527.977725,50.000000,0.000000,4135.384766,4195.384766,4037.435791,4126.153809,4154.358887,0.000000,4.000000,,,,0.000000,4.000000,4.000000,4.000000,4.000000,4.000000,,,,,,,,,,,,,,,,,,,,,,,,,
1577422527.985430,51.000000,0.000000,4127.692383,4207.692383,4040.000000,4108.717773,4145.128418,0.000000,4.000000,,,,0.000000,4.000000,4.000000,4.000000,4.000000,4.000000,,,,,,,,,,,,,,,,,,,,,,,,,
1577422527.993145,52.000000,0.000000,4135.384766,4235.384766,4052.307617,4106.666504,4151.794922,0.000000,4.000000,,,,0.000000,4.000000,4.000000,4.000000,4.000000,4.000000,,,,,,,,,,,,,,,,,,,,,,,,,
1577422528.000959,53.000000,0.000000,4148.717773,4222.563965,4054.871826,4110.256348,4168.717773,0.000000,4.000000,,,,0.000000,4.000000,4.000000,4.000000,4.000000,4.000000,,,,,,,,,,,,,,,,,,,,,,,,,
1577422528.008773,54.000000,0.000000,4149.230957,4207.179688,4061.025635,4114.358887,4168.205078,0.000000,4.000000,,,,0.000000,4.000000,4.000000,4.000000,4.000000,4.000000,,,,,,,,,,,,,,,,,,,,,,,,,
1577422528.016476,55.000000,0.000000,4124.102539,4203.589844,4054.358887,4108.205078,4133.846191,0.000000,4.000000,,,,0.000000,4.000000,4.000000,4.000000,4.000000,4.000000,,,,,,,,,,,,,,,,,,,,,,,,,
1577422528.024188,56.000000,0.000000,4099.487305,4183.589844,4024.615479,4094.871826,4105.128418,0.000000,4.000000,,,,0.000000,4.000000,4.000000,4.000000,4.000000,4.000000,,,,,,,,,,,,,,,,,,,,,,,,,
1577422528.031909,57.000000,0.000000,4102.051270,4165.641113,4017.435791,4092.307617,4107.692383,0.000000,4.000000,,,,0.000000,4.000000,4.000000,4.000000,4.000000,4.000000,,,,,,,,,,,,,,,,,,,,,,,,,
1577422528.039729,58.000000,0.000000,4120.000000,4170.256348,4045.641113,4109.743652,4123.589844,0.000000,4.000000,,,,0.000000,4.000000,4.000000,4.000000,4.000000,4.000000,,,,,,,,,,,,,,,,,,,,,,,,,
1577422528.047549,59.000000,0.000000,4109.743652,4163.077148,4045.128174,4107.179688,4110.256348,0.000000,4.000000,,,,0.000000,4.000000,4.000000,4.000000,4.000000,4.000000,,,,,,,,,,,,,,,,,,,,,,,,,
1577422528.055259,60.000000,0.000000,4094.871826,4160.512695,4030.769287,4093.846191,4100.512695,0.000000,4.000000,,,,0.000000,4.000000,4.000000,4.000000,4.000000,4.000000,,,,,,,,,,,,,,,,,,,,,,,,,
1577422528.063069,61.000000,0.000000,4126.666504,4182.051270,4056.923096,4112.820313,4136.922852,0.000000,4.000000,,,,0.000000,4.000000,4.000000,4.000000,4.000000,4.000000,,,,,,,,,,,,,,,,,,,,,,,,,
1577422528.070779,62.000000,0.000000,4141.025879,4179.487305,4072.307617,4110.769043,4145.128418,0.000000,4.000000,,,,0.000000,4.000000,4.000000,4.000000,4.000000,4.000000,,,,,,,,,,,,,,,,,,,,,,,,,
1577422528.078589,63.000000,0.000000,4117.948730,4168.717773,4057.435791,4085.128174,4115.897461,0.000000,4.000000,,,,0.000000,4.000000,4.000000,4.000000,4.000000,4.000000,4.613916,7.337547,0.520617,0.623742,0.595371,13.380581,1.614901,0.707837,0.566639,0.566772,95.717056,126.554474,33.959717,9.581368,3.849750,1.269730,0.784317,0.398582,0.688243,0.468129,11.629783,5.086521,0.638434,0.588529,0.602149
1577422528.086299,64.000000,0.000000,4122.051270,4185.641113,4058.974365,4087.179443,4125.128418,450.000000,4.000000,,,,0.000000,4.000000,4.000000,4.000000,4.000000,4.000000,,,,,,,,,,,,,,,,,,,,,,,,,
1577422528.094109,65.000000,0.000000,4134.871582,4185.128418,4059.487061,4086.666748,4132.820313,450.000000,4.000000,,,,0.000000,4.000000,4.000000,4.000000,4.000000,4.000000,,,,,,,,,,,,,,,,,,,,,,,,,
1577422528.101817,66.000000,0.000000,4129.230957,4169.230957,4055.384521,4080.000000,4113.333496,16217.000000,4.000000,,,,0.000000,4.000000,4.000000,4.000000,4.000000,4.000000,,,,,,,,,,,,,,,,,,,,,,,,,
1577422528.109625,67.000000,0.000000,4133.846191,4188.717773,4071.794922,4096.410156,4120.512695,450.000000,4.000000,,,,0.000000,4.000000,4.000000,4.000000,4.000000,4.000000,,,,,,,,,,,,,,,,,,,,,,,,,
1577422528.117333,68.000000,0.000000,4145.128418,4224.102539,4086.153809,4113.846191,4137.436035,16185.000000,4.000000,,,,0.000000,4.000000,4.000000,4.000000,4.000000,4.000000,,,,,,,,,,,,,,,,,,,,,,,,,
1577422528.125141,69.000000,0.000000,4141.538574,4226.666504,4081.025635,4108.717773,4127.179688,450.000000,4.000000,,,,0.000000,4.000000,4.000000,4.000000,4.000000,4.000000,,,,,,,,,,,,,,,,,,,,,,,,,
1577422528.132848,70.000000,0.000000,4144.102539,4208.205078,4085.128174,4107.692383,4122.051270,16165.000000,4.000000,,,,0.000000,4.000000,4.000000,4.000000,4.000000,4.000000,,,,,,,,,,,,,,,,,,,,,,,,,
1577422528.140564,71.000000,0.000000,4156.922852,4212.820313,4110.256348,4122.563965,4131.794922,450.000000,4.000000,,,,0.000000,4.000000,4.000000,4.000000,4.000000,4.000000,,,,,,,,,,,,,,,,,,,,,,,,,
1577422528.148379,72.000000,0.000000,4146.666504,4216.410156,4122.051270,4108.717773,4121.025879,450.000000,4.000000,,,,0.000000,4.000000,4.000000,4.000000,4.000000,4.000000,,,,,,,,,,,,,,,,,,,,,,,,,
1577422528.156194,73.000000,0.000000,4121.025879,4189.743652,4108.205078,4080.512939,4101.538574,16176.000000,4.000000,,,,0.000000,4.000000,4.000000,4.000000,4.000000,4.000000,,,,,,,,,,,,,,,,,,,,,,,,,
1577422528.163899,74.000000,0.000000,4116.922852,4179.487305,4099.487305,4083.589844,4105.641113,450.000000,4.000000,,,,0.000000,4.000000,4.000000,4.000000,4.000000,4.000000,,,,,,,,,,,,,,,,,,,,,,,,,
1577422528.171614,75.000000,0.000000,4134.358887,4198.974121,4103.077148,4097.436035,4118.461426,16213.000000,4.000000,,,,0.000000,4.000000,4.000000,4.000000,4.000000,4.000000,,,,,,,,,,,,,,,,,,,,,,,,,
1577422528.179427,76.000000,0.000000,4152.820313,4207.179688,4101.025879,4106.153809,4129.230957,450.000000,4.000000,,,,0.000000,4.000000,4.000000,4.000000,4.000000,4.000000,,,,,,,,,,,,,,,,,,,,,,,,,
1577422528.187140,77.000000,0.000000,4174.871582,4198.974121,4103.589844,4125.128418,4153.333496,450.000000,4.000000,,,,0.000000,4.000000,4.000000,4.000000,4.000000,4.000000,,,,,,,,,,,,,,,,,,,,,,,,,
1577422528.194953,78.000000,0.000000,4194.358887,4193.333496,4111.794922,4133.846191,4176.922852,450.000000,4.000000,,,,0.000000,4.000000,4.000000,4.000000,4.000000,4.000000,,,,,,,,,,,,,,,,,,,,,,,,,
1577422528.202665,79.000000,0.000000,4201.025879,4200.512695,4107.692383,4131.282227,4183.077148,16213.000000,4.000000,,,,0.000000,4.000000,4.000000,4.000000,4.000000,4.000000,5.141261,9.272795,0.692075,0.781619,0.650090,13.327588,1.835371,0.902156,0.569149,0.636827,64.358551,78.020851,20.535635,6.047070,2.687837,1.426450,0.821847,0.552194,0.935802,0.542005,11.910966,6.594808,0.811920,0.776447,0.646033
1577422528.210478,80.000000,0.000000,4189.743652,4205.128418,4088.718018,4133.846191,4175.897461,450.000000,4.000000,,,,0.000000,4.000000,4.000000,4.000000,4.000000,4.000000,,,,,,,,,,,,,,,,,,,,,,,,,
1577422528.218190,81.000000,0.000000,4154.358887,4191.794922,4061.025635,4114.358887,4144.615234,450.000000,4.000000,,,,0.000000,4.000000,4.000000,4.000000,4.000000,4.000000,,,,,,,,,,,,,,,,,,,,,,,,,
1577422528.226001,82.000000,0.000000,4131.282227,4184.102539,4050.256348,4086.666748,4117.436035,450.000000,4.000000,,,,0.000000,4.000000,4.000000,4.000000,4.000000,4.000000,,,,,,,,,,,,,,,,,,,,,,,,,
1577422528.233712,83.000000,0.000000,4135.897461,4187.692383,4055.384521,4091.794922,4118.461426,16213.000000,4.000000,,,,0.000000,4.000000,4.000000,4.000000,4.000000,4.000000,,,,,,,,,,,,,,,,,,,,,,,,,
1577422528.241522,84.000000,0.000000,4143.589844,4188.205078,4062.564209,4107.692383,4130.256348,450.000000,4.000000,,,,0.000000,4.000000,4.000000,4.000000,4.000000,4.000000,,,,,,,,,,,,,,,,,,,,,,,,,
1577422528.249232,85.000000,0.000000,4136.922852,4189.743652,4060.000000,4106.666504,4130.256348,450.000000,4.000000,,,,0.000000,4.000000,4.000000,4.000000,4.000000,4.000000,,,,,,,,,,,,,,,,,,,,,,,,,
1577422528.256951,86.000000,0.000000,4112.307617,4186.153809,4035.897461,4095.384521,4108.717773,450.000000,4.000000,,,,0.000000,4.000000,4.000000,4.000000,4.000000,4.000000,,,,,,,,,,,,,,,,,,,,,,,,,
1577422528.264770,87.000000,0.000000,4108.205078,4173.333496,4018.461426,4089.743652,4095.897461,16213.000000,4.000000,,,,0.000000,4.000000,4.000000,4.000000,4.000000,4.000000,,,,,,,,,,,,,,,,,,,,,,,,,
1577422528.272488,88.000000,0.000000,4126.153809,4170.256348,4026.153809,4090.769287,4108.717773,450.000000,4.000000,,,,0.000000,4.000000,4.000000,4.000000,4.000000,4.000000,,,,,,,,,,,,,,,,,,,,,,,,,
1577422528.280307,89.000000,0.000000,4140.512695,4188.717773,4034.358887,4097.948730,4128.205078,450.000000,4.000000,,,,0.000000,4.000000,4.000000,4.000000,4.000000,4.000000,,,,,,,,,,,,,,,,,,,,,,,,,
1577422528.288023,90.000000,0.000000,4150.769043,4200.000000,4037.435791,4105.128418,4142.563965,450.000000,4.000000,,,,0.000000,4.000000,4.000000,4.000000,4.000000,4.000000,,,,,,,,,,,,,,,,,,,,,,,,,
1577422528.295840,91.000000,0.000000,4161.025879,4193.333496,4050.256348,4110.769043,4152.820313,16213.000000,4.000000,,,,0.000000,4.000000,4.000000,4.000000,4.000000,4.000000,,,,,,,,,,,,,,,,,,,,,,,,,
1577422528.303557,92.000000,0.000000,4164.102539,4198.974121,4054.871826,4108.717773,4151.794922,450.000000,4.000000,,,,0.000000,4.000000,4.000000,4.000000,4.000000,4.000000,,,,,,,,,,,,,,,,,,,,,,,,,
1577422528.311374,93.000000,0.000000,4159.487305,4210.769043,4045.641113,4106.153809,4147.179688,450.000000,4.000000,,,,0.000000,4.000000,4.000000,4.000000,4.000000,4.000000,,,,,,,,,,,,,,,,,,,,,,,,,
1577422528.319090,94.000000,0.000000,4161.025879,4198.974121,4047.179443,4115.897461,4151.282227,450.000000,4.000000,,,,0.000000,4.000000,4.000000,4.000000,4.000000,4.000000,,,,,,,,,,,,,,,,,,,,,,,,,
1577422528.326906,95.000000,0.000000,4161.538574,4185.128418,4052.307617,4116.922852,4148.205078,16213.000000,4.000000,,,,0.000000,4.000000,4.000000,4.000000,4.000000,4.000000,5.821939,10.397738,0.935777,0.932850,0.671840,13.353007,2.026017,1.136569,0.577348,0.712508,44.555653,42.783630,10.382793,3.409530,1.734740,1.693689,0.822765,0.787510,1.145755,0.587989,11.525295,7.715836,1.057657,0.963476,0.653055
1577422528.334621,96.000000,0.000000,4163.077148,4203.077148,4050.769287,4112.307617,4147.692383,450.000000,4.000000,,,,0.000000,4.000000,4.000000,4.000000,4.000000,4.000000,,,,,,,,,,,,,,,,,,,,,,,,,
1577422528.342344,97.000000,0.000000,4176.922852,4221.025879,4059.487061,4122.563965,4160.000000,450.000000,4.000000,,,,0.000000,4.000000,4.000000,4.000000,4.000000,4.000000,,,,,,,,,,,,,,,,,,,,,,,,,
1577422528.350166,98.000000,0.000000,4178.974121,4197.948730,4061.538574,4118.461426,4157.948730,450.000000,4.000000,,,,0.000000,4.000000,4.000000,4.000000,4.000000,4.000000,,,,,,,,,,,,,,,,,,,,,,,,,
1577422528.357890,99.000000,0.000000,4173.846191,4191.282227,4049.230713,4103.589844,4145.128418,16213.000000,4.000000,,,,0.000000,4.000000,4.000000,4.000000,4.000000,4.000000,,,,,,,,,,,,,,,,,,,,,,,,,
1577422528.365713,100.000000,0.000000,4181.025879,4215.897461,4049.743652,4106.153809,4144.615234,450.000000,4.000000,,,,0.000000,4.000000,4.000000,4.000000,4.000000,4.000000,,,,,,,,,,,,,,,,,,,,,,,,,
1577422528.373537,101.000000,0.000000,4180.000000,4209.743652,4047.179443,4105.128418,4146.666504,450.000000,4.000000,,,,0.000000,4.000000,4.000000,4.000000,4.000000,4.000000,,,,,,,,,,,,,,,,,,,,,,,,,
1577422528.381267,102.000000,0.000000,4184.615234,4202.563965,4033.846191,4105.128418,4155.384766,450.000000,4.000000,,,,0.000000,4.000000,4.000000,4.000000,4.000000,4.000000,,,,,,,,,,,,,,,,,,,,,,,,,
1577422528.389006,103.000000,0.000000,4201.025879,4229.230957,4033.333252,4121.538574,4172.820313,16213.000000,4.000000,,,,0.000000,4.000000,4.000000,4.000000,4.000000,4.000000,,,,,,,,,,,,,,,,,,,,,,,,,
1577422528.396844,104.000000,0.000000,4194.358887,4233.846191,4034.358887,4131.282227,4168.205078,450.000000,4.000000,,,,0.000000,4.000000,4.000000,4.000000,4.000000,4.000000,,,,,,,,,,,,,,,,,,,,,,,,,
1577422528.404683,105.000000,0.000000,4180.000000,4217.948730,4020.512939,4125.641113,4155.384766,450.000000,4.000000,,,,0.000000,4.000000,4.000000,4.000000,4.000000,4.000000,,,,,,,,,,,,,,,,,,,,,,,,,
1577422528.412521,106.000000,0.000000,4177.436035,4220.000000,4009.743652,4118.974121,4153.846191,450.000000,4.000000,,,,0.000000,4.000000,4.000000,4.000000,4.000000,4.000000,,,,,,,,,,,,,,,,,,,,,,,,,
1577422528.420360,107.000000,0.000000,4173.333496,4228.717773,4017.948730,4122.563965,4151.282227,16213.000000,4.000000,,,,0.000000,4.000000,4.000000,4.000000,4.000000,4.000000,,,,,,,,,,,,,,,,,,,,,,,,,
1577422528.428088,108.000000,0.000000,4181.025879,4236.410156,4032.307617,4137.436035,4155.897461,450.000000,4.000000,,,,0.000000,4.000000,4.000000,4.000000,4.000000,4.000000,,,,,,,,,,,,,,,,,,,,,,,,,
1577422528.435825,109.000000,0.000000,4194.358887,4242.051270,4035.384521,4148.205078,4158.461426,450.000000,4.000000,,,,0.000000,4.000000,4.000000,4.000000,4.000000,4.000000,,,,,,,,,,,,,,,,,,,,,,,,,
1577422528.443661,110.000000,0.000000,4175.897461,4229.230957,4017.435791,4135.384766,4128.717773,450.000000,4.000000,,,,0.000000,4.000000,4.000000,4.000000,4.000000,4.000000,,,,,,,,,,,,,,,,,,,,,,,,,
1577422528.451396,111.000000,0.000000,4145.128418,4218.461426,3993.846191,4113.333496,4097.948730,16213.000000,4.000000,,,,0.000000,4.000000,4.000000,4.000000,4.000000,4.000000,6.364942,10.545746,1.291793,1.062880,0.676549,13.197696,2.124887,1.369186,0.605469,0.795838,34.608154,22.630342,4.743689,1.920065,1.142456,2.012657,0.794162,1.137986,1.267973,0.609041,10.416267,8.333859,1.421173,1.125114,0.647621
1577422528.459231,112.000000,0.000000,4145.128418,4231.794922,3994.358887,4108.205078,4098.461426,450.000000,4.000000,,,,0.000000,4.000000,4.000000,4.000000,4.000000,4.000000,,,,,,,,,,,,,,,,,,,,,,,,,
1577422528.466966,113.000000,0.000000,4152.820313,4240.512695,4005.128174,4108.717773,4104.102539,450.000000,4.000000,,,,0.000000,4.000000,4.000000,4.000000,4.000000,4.000000,,,,,,,,,,,,,,,,,,,,,,,,,
1577422528.474800,114.000000,0.000000,4153.333496,4232.307617,4003.589844,4111.282227,4106.666504,450.000000,4.000000,,,,0.000000,4.000000,4.000000,4.000000,4.000000,4.000000,,,,,,,,,,,,,,,,,,,,,,,,,
1577422528.482534,115.000000,0.000000,4155.384766,4238.974121,4009.230713,4127.179688,4116.410156,16213.000000,4.000000,,,,0.000000,4.000000,4.000000,4.000000,4.000000,4.000000,,,,,,,,,,,,,,,,,,,,,,,,,
1577422528.490367,116.000000,0.000000,4159.487305,4257.436035,4025.641113,4132.307617,4124.615234,450.000000,4.000000,,,,0.000000,4.000000,4.000000,4.000000,4.000000,4.000000,,,,,,,,,,,,,,,,,,,,,,,,,
1577422528.498101,117.000000,0.000000,4170.256348,4264.102539,4042.051270,4130.769043,4132.307617,450.000000,4.000000,,,,0.000000,4.000000,4.000000,4.000000,4.000000,4.000000,,,,,,,,,,,,,,,,,,,,,,,,,
1577422528.505934,118.000000,0.000000,4187.179688,4259.487305,4052.307617,4139.487305,4144.615234,450.000000,4.000000,,,,0.000000,4.000000,4.000000,4.000000,4.000000,4.000000,,,,,,,,,,,,,,,,,,,,,,,,,
1577422528.513667,119.000000,0.000000,4191.282227,4253.846191,4052.307617,4136.410156,4147.692383,16213.000000,4.000000,,,,0.000000,4.000000,4.000000,4.000000,4.000000,4.000000,,,,,,,,,,,,,,,,,,,,,,,,,
1577422528.521499,120.000000,0.000000,4182.051270,4258.974121,4055.384521,4132.820313,4141.538574,450.000000,4.000000,,,,0.000000,4.000000,4.000000,4.000000,4.000000,4.000000,,,,,,,,,,,,,,,,,,,,,,,,,
1577422528.529231,121.000000,0.000000,4175.897461,4271.282227,4056.923096,4133.333496,4136.410156,450.000000,4.000000,,,,0.000000,4.000000,4.000000,4.000000,4.000000,4.000000,,,,,,,,,,,,,,,,,,,,,,,,,
1577422528.537063,122.000000,0.000000,4178.461426,4269.743652,4055.897461,4131.282227,4139.487305,450.000000,4.000000,,,,0.000000,4.000000,4.000000,4.000000,4.000000,4.000000,,,,,,,,,,,,,,,,,,,,,,,,,
1577422528.544794,123.000000,0.000000,4175.897461,4253.333496,4058.974365,4130.769043,4136.410156,16213.000000,4.000000,,,,0.000000,4.000000,4.000000,4.000000,4.000000,4.000000,,,,,,,,,,,,,,,,,,,,,,,,,
1577422528.552625,124.000000,0.000000,4158.974121,4253.846191,4056.410156,4124.615234,4117.436035,450.000000,4.000000,,,,0.000000,4.000000,4.000000,4.000000,4.000000,4.000000,,,,,,,,,,,,,,,,,,,,,,,,,
1577422528.560372,125.000000,0.000000,4162.563965,4283.077148,4066.666748,4127.692383,4122.051270,450.000000,4.000000,,,,0.000000,4.000000,4.000000,4.000000,4.000000,4.000000,,,,,,,,,,,,,,,,,,,,,,,,,
1577422528.568127,126.000000,0.000000,4185.128418,4286.666504,4084.102539,4133.846191,4147.692383,450.000000,4.000000,,,,0.000000,4.000000,4.000000,4.000000,4.000000,4.000000,,,,,,,,,,,,,,,,,,,,,,,,,
1577422528.575982,127.000000,0.000000,4171.794922,4261.538574,4070.256348,4117.948730,4140.000000,234.000000,4.000000,,,,0.000000,4.000000,4.000000,4.000000,4.000000,4.000000,6.710490,9.957830,1.793681,1.184400,0.686663,12.702225,2.141776,1.573980,0.661250,0.883544,30.968704,13.557678,2.816858,1.335897,0.882464,2.312543,0.770562,1.630579,1.288524,0.617988,8.966737,8.581429,1.919807,1.266221,0.660898
1577422528.583837,0.000000,0.000000,4149.230957,4269.230957,4054.358887,4108.205078,4122.051270,450.000000,4.000000,,,,0.000000,4.000000,4.000000,4.000000,4.000000,4.000000,,,,,,,,,,,,,,,,,,,,,,,,,
1577422528.591583,1.000000,0.000000,4170.256348,4294.871582,4070.769287,4124.615234,4142.051270,450.000000,4.000000,,,,0.000000,4.000000,4.000000,4.000000,4.000000,4.000000,,,,,,,,,,,,,,,,,,,,,,,,,
1577422528.599336,2.000000,0.000000,4195.384766,4286.666504,4087.179443,4134.871582,4165.641113,16212.000000,4.000000,,,,0.000000,4.000000,4.000000,4.000000,4.000000,4.000000,,,,,,,,,,,,,,,,,,,,,,,,,
1577422528.607189,3.000000,0.000000,4191.282227,4266.153809,4087.179443,4124.615234,4156.410156,450.000000,4.000000,,,,0.000000,4.000000,4.000000,4.000000,4.000000,4.000000,,,,,,,,,,,,,,,,,,,,,,,,,
1577422528.614942,4.000000,0.000000,4194.358887,4269.230957,4089.743652,4126.153809,4150.769043,16186.000000,4.000000,,,,0.000000,4.000000,4.000000,4.000000,4.000000,4.000000,,,,,,,,,,,,,,,,,,,,,,,,,
1577422528.622794,5.000000,0.000000,4197.948730,4275.897461,4086.666748,4133.333496,4156.410156,450.000000,4.000000,,,,0.000000,4.000000,4.000000,4.000000,4.000000,4.000000,,,,,,,,,,,,,,,,,,,,,,,,,
1577422528.630545,6.000000,0.000000,4192.307617,4277.948730,4092.307617,4137.436035,4157.948730,16162.000000,4.000000,,,,0.000000,4.000000,4.000000,4.000000,4.000000,4.000000,,,,,,,,,,,,,,,,,,,,,,,,,
1577422528.638305,7.000000,0.000000,4193.333496,4273.846191,4115.384766,4152.820313,4159.487305,450.000000,4.000000,,,,0.000000,4.000000,4.000000,4.000000,4.000000,4.000000,,,,,,,,,,,,,,,,,,,,,,,,,
1577422528.646164,8.000000,0.000000,4174.871582,4248.205078,4106.666504,4148.205078,4146.153809,450.000000,4.000000,,,,0.000000,4.000000,4.000000,4.000000,4.000000,4.000000,,,,,,,,,,,,,,,,,,,,,,,,,
1577422528.654023,9.000000,0.000000,4136.922852,4231.794922,4072.307617,4117.948730,4108.205078,16166.000000,4.000000,,,,0.000000,4.000000,4.000000,4.000000,4.000000,4.000000,,,,,,,,,,,,,,,,,,,,,,,,,
1577422528.661774,10.000000,0.000000,4131.794922,4257.948730,4069.230713,4111.794922,4092.307617,450.000000,4.000000,,,,0.000000,4.000000,4.000000,4.000000,4.000000,4.000000,,,,,,,,,,,,,,,,,,,,,,,,,
1577422528.669532,11.000000,0.000000,4156.922852,4282.051270,4075.897461,4118.461426,4111.794922,16208.000000,4.000000,,,,0.000000,4.000000,4.000000,4.000000,4.000000,4.000000,,,,,,,,,,,,,,,,,,,,,,,,,
1577422528.677391,12.000000,0.000000,4161.025879,4271.282227,4067.179443,4117.948730,4123.077148,450.000000,4.000000,,,,0.000000,4.000000,4.000000,4.000000,4.000000,4.000000,,,,,,,,,,,,,,,,,,,,,,,,,
1577422528.685249,13.000000,0.000000,4151.282227,4255.384766,4073.846191,4123.077148,4121.538574,450.000000,4.000000,,,,0.000000,4.000000,4.000000,4.000000,4.000000,4.000000,,,,,,,,,,,,,,,,,,,,,,,,,
1577422528.692998,14.000000,0.000000,4161.538574,4256.410156,4083.076904,4130.256348,4127.692383,450.000000,4.000000,,,,0.000000,4.000000,4.000000,4.000000,4.000000,4.000000,,,,,,,,,,,,,,,,,,,,,,,,,
1577422528.700755,15.000000,0.000000,4181.025879,4269.743652,4076.410156,4132.307617,4136.410156,16208.000000,4.000000,,,,0.000000,4.000000,4.000000,4.000000,4.000000,4.000000,6.985540,9.147169,2.421425,1.320151,0.714891,11.821616,2.127830,1.729145,0.739620,0.966433,30.596209,9.807988,2.624939,1.211620,0.815419,2.504746,0.814416,2.230526,1.236393,0.625631,7.669658,8.787135,2.503788,1.408891,0.707547
1577422528.708611,16.000000,0.000000,4187.692383,4276.410156,4074.358887,4131.282227,4137.948730,0.000000,4.000000,,,,0.000000,4.000000,4.000000,4.000000,4.000000,4.000000,,,,,,,,,,,,,,,,,,,,,,,,,
1577422528.716367,17.000000,0.000000,4182.051270,4264.102539,4075.897461,4125.641113,4134.871582,0.000000,4.000000,,,,0.000000,4.000000,4.000000,4.000000,4.000000,4.000000,,,,,,,,,,,,,,,,,,,,,,,,,
1577422528.724222,18.000000,0.000000,4179.487305,4259.487305,4071.794922,4117.948730,4134.358887,0.000000,4.000000,,,,0.000000,4.000000,4.000000,4.000000,4.000000,4.000000,,,,,,,,,,,,,,,,,,,,,,,,,
1577422528.731978,19.000000,0.000000,4186.666504,4279.487305,4080.000000,4130.769043,4136.922852,0.000000,4.000000,,,,0.000000,4.000000,4.000000,4.000000,4.000000,4.000000,,,,,,,,,,,,,,,,,,,,,,,,,
1577422528.739833,20.000000,0.000000,4199.487305,4297.948730,4100.000000,4163.589844,4152.307617,0.000000,4.000000,,,,0.000000,4.000000,4.000000,4.000000,4.000000,4.000000,,,,,,,,,,,,,,,,,,,,,,,,,
1577422528.747587,21.000000,0.000000,4187.179688,4285.128418,4100.512695,4166.153809,4149.230957,0.000000,4.000000,,,,0.000000,4.000000,4.000000,4.000000,4.000000,4.000000,,,,,,,,,,,,,,,,,,,,,,,,,
1577422528.755442,22.000000,0.000000,4147.692383,4262.051270,4081.025635,4133.333496,4109.230957,0.000000,4.000000,,,,0.000000,4.000000,4.000000,4.000000,4.000000,4.000000,,,,,,,,,,,,,,,,,,,,,,,,,
1577422528.763195,23.000000,0.000000,4132.820313,4260.000000,4073.333252,4119.487305,4089.743652,0.000000,4.000000,,,,0.000000,4.000000,4.000000,4.000000,4.000000,4.000000,,,,,,,,,,,,,,,,,,,,,,,,,
1577422528.771049,24.000000,0.000000,4147.179688,4274.871582,4080.000000,4130.769043,4105.641113,0.000000,4.000000,,,,0.000000,4.000000,4.000000,4.000000,4.000000,4.000000,,,,,,,,,,,,,,,,,,,,,,,,,
1577422528.778802,25.000000,0.000000,4164.102539,4294.871582,4089.230713,4140.000000,4124.102539,0.000000,4.000000,,,,0.000000,4.000000,4.000000,4.000000,4.000000,4.000000,,,,,,,,,,,,,,,,,,,,,,,,,
1577422528.786655,26.000000,0.000000,4174.871582,4312.307617,4094.358887,4142.051270,4134.358887,0.000000,4.000000,,,,0.000000,4.000000,4.000000,4.000000,4.000000,4.000000,,,,,,,,,,,,,,,,,,,,,,,,,
1577422528.794507,27.000000,0.000000,4166.153809,4321.538574,4089.230713,4134.871582,4124.615234,0.000000,4.000000,,,,0.000000,4.000000,4.000000,4.000000,4.000000,4.000000,,,,,,,,,,,,,,,,,,,,,,,,,
1577422528.802250,28.000000,0.000000,4171.282227,4333.333496,4097.948730,4133.333496,4128.205078,0.000000,4.000000,,,,0.000000,4.000000,4.000000,4.000000,4.000000,4.000000,,,,,,,,,,,,,,,,,,,,,,,,,
1577422528.810001,29.000000,0.000000,4195.384766,4343.077148,4118.461426,4139.487305,4152.820313,0.000000,4.000000,,,,0.000000,4.000000,4.000000,4.000000,4.000000,4.000000,,,,,,,,,,,,,,,,,,,,,,,,,
1577422528.817776,30.000000,0.000000,4190.256348,4338.461426,4112.820313,4139.487305,4147.179688,0.000000,4.000000,,,,0.000000,4.000000,4.000000,4.000000,4.000000,4.000000,,,,,,,,,,,,,,,,,,,,,,,,,
1577422528.825759,31.000000,0.000000,4173.846191,4336.922852,4101.538574,4142.051270,4133.846191,0.000000,4.000000,,,,0.000000,4.000000,4.000000,4.000000,4.000000,4.000000,7.413564,8.641642,3.083764,1.482962,0.759393,10.557755,2.122292,1.809565,0.823824,1.036865,30.959471,7.456683,2.659285,1.212839,0.807924,2.559883,1.004838,2.830656,1.165236,0.634457,6.973396,9.269998,3.064725,1.570263,0.779022
1577422528.833642,32.000000,0.000000,4171.282227,4349.230957,4103.077148,4151.794922,4141.538574,0.000000,4.000000,,,,0.000000,4.000000,4.000000,4.000000,4.000000,4.000000,,,,,,,,,,,,,,,,,,,,,,,,,
1577422528.841524,33.000000,0.000000,4165.128418,4360.000000,4095.897461,4149.743652,4138.974121,0.000000,4.000000,,,,0.000000,4.000000,4.000000,4.000000,4.000000,4.000000,,,,,,,,,,,,,,,,,,,,,,,,,
1577422528.849407,34.000000,0.000000,4168.205078,4373.846191,4097.436035,4147.179688,4132.307617,0.000000,4.000000,,,,0.000000,4.000000,4.000000,4.000000,4.000000,4.000000,,,,,,,,,,,,,,,,,,,,,,,,,
1577422528.857172,35.000000,0.000000,4186.153809,4386.153809,4120.512695,4161.025879,4144.615234,0.000000,4.000000,,,,0.000000,4.000000,4.000000,4.000000,4.000000,4.000000,,,,,,,,,,,,,,,,,,,,,,,,,
1577422528.865037,36.000000,0.000000,4174.871582,4370.256348,4109.743652,4148.717773,4135.897461,0.000000,4.000000,,,,0.000000,4.000000,4.000000,4.000000,4.000000,4.000000,,,,,,,,,,,,,,,,,,,,,,,,,
1577422528.872802,37.000000,0.000000,4155.897461,4361.538574,4077.948730,4129.743652,4115.897461,0.000000,4.000000,,,,0.000000,4.000000,4.000000,4.000000,4.000000,4.000000,,,,,,,,,,,,,,,,,,,,,,,,,
1577422528.880574,38.000000,0.000000,4170.256348,4391.282227,4081.025635,4142.563965,4130.256348,0.000000,4.000000,,,,0.000000,4.000000,4.000000,4.000000,4.000000,4.000000,,,,,,,,,,,,,,,,,,,,,,,,,
1577422528.888446,39.000000,0.000000,4171.282227,4400.512695,4080.000000,4134.871582,4129.230957,0.000000,4.000000,,,,0.000000,4.000000,4.000000,4.000000,4.000000,4.000000,,,,,,,,,,,,,,,,,,,,,,,,,
1577422528.896318,40.000000,0.000000,4157.436035,4380.512695,4060.512939,4109.230957,4104.615234,0.000000,4.000000,,,,0.000000,4.000000,4.000000,4.000000,4.000000,4.000000,,,,,,,,,,,,,,,,,,,,,,,,,
1577422528.904081,41.000000,0.000000,4167.692383,4378.974121,4071.281982,4111.794922,4109.743652,0.000000,4.000000,,,,0.000000,4.000000,4.000000,4.000000,4.000000,4.000000,,,,,,,,,,,,,,,,,,,,,,,,,
1577422528.911944,42.000000,0.000000,4171.794922,4378.461426,4094.871826,4123.077148,4121.025879,0.000000,4.000000,,,,0.000000,4.000000,4.000000,4.000000,4.000000,4.000000,,,,,,,,,,,,,,,,,,,,,,,,,
1577422528.919807,43.000000,0.000000,4165.128418,4376.410156,4098.461426,4122.563965,4113.846191,0.000000,4.000000,,,,0.000000,4.000000,4.000000,4.000000,4.000000,4.000000,,,,,,,,,,,,,,,,,,,,,,,,,
1577422528.927576,44.000000,0.000000,4168.717773,4392.820313,4095.897461,4120.000000,4114.871582,0.000000,4.000000,,,,0.000000,4.000000,4.000000,4.000000,4.000000,4.000000,,,,,,,,,,,,,,,,,,,,,,,,,
1577422528.935353,45.000000,0.000000,4160.512695,4394.358887,4095.897461,4116.922852,4115.384766,0.000000,4.000000,,,,0.000000,4.000000,4.000000,4.000000,4.000000,4.000000,,,,,,,,,,,,,,,,,,,,,,,,,
1577422528.943230,46.000000,0.000000,4152.820313,4372.820313,4100.512695,4118.461426,4112.307617,0.000000,4.000000,,,,0.000000,4.000000,4.000000,4.000000,4.000000,4.000000,,,,,,,,,,,,,,,,,,,,,,,,,
1577422528.951107,47.000000,0.000000,4166.666504,4368.205078,4111.282227,4129.230957,4125.641113,0.000000,4.000000,,,,0.000000,4.000000,4.000000,4.000000,4.000000,4.000000,8.050072,8.715872,3.618844,1.656079,0.810494,9.000097,2.123975,1.790160,0.896639,1.096686,29.911766,5.732163,2.634356,1.269500,0.804851,2.453316,1.380242,3.285505,1.130930,0.639712,7.016245,10.113361,3.455319,1.745195,0.851445
1577422528.958984,48.000000,0.000000,4181.025879,4394.871582,4130.769043,4144.615234,4141.025879,0.000000,4.000000,,,,0.000000,4.000000,4.000000,4.000000,4.000000,4.000000,,,,,,,,,,,,,,,,,,,,,,,,,
1577422528.966743,49.000000,0.000000,4178.461426,4404.615234,4135.384766,4144.615234,4138.461426,0.000000,4.000000,,,,0.000000,4.000000,4.000000,4.000000,4.000000,4.000000,,,,,,,,,,,,,,,,,,,,,,,,,
1577422528.974510,50.000000,0.000000,4158.461426,4363.589844,4100.000000,4119.487305,4118.461426,0.000000,4.000000,,,,0.000000,4.000000,4.000000,4.000000,4.000000,4.000000,,,,,,,,,,,,,,,,,,,,,,,,,
1577422528.982377,51.000000,0.000000,4145.641113,4349.743652,4075.897461,4109.230957,4106.153809,0.000000,4.000000,,,,0.000000,4.000000,4.000000,4.000000,4.000000,4.000000,,,,,,,,,,,,,,,,,,,,,,,,,
1577422528.990244,52.000000,0.000000,4157.436035,4389.230957,4091.794922,4122.051270,4120.000000,0.000000,4.000000,,,,0.000000,4.000000,4.000000,4.000000,4.000000,4.000000,,,,,,,,,,,,,,,,,,,,,,,,,
1577422528.998002,53.000000,0.000000,4167.179688,4395.897461,4098.461426,4124.615234,4137.948730,0.000000,4.000000,,,,0.000000,4.000000,4.000000,4.000000,4.000000,4.000000,,,,,,,,,,,,,,,,,,,,,,,,,
1577422529.005861,54.000000,0.000000,4163.077148,4368.205078,4084.615479,4113.333496,4135.897461,0.000000,4.000000,,,,0.000000,4.000000,4.000000,4.000000,4.000000,4.000000,,,,,,,,,,,,,,,,,,,,,,,,,
1577422529.013619,55.000000,0.000000,4171.282227,4366.666504,4082.564209,4116.410156,4139.487305,0.000000,4.000000,,,,0.000000,4.000000,4.000000,4.000000,4.000000,4.000000,,,,,,,,,,,,,,,,,,,,,,,,,
1577422529.021476,56.000000,0.000000,4188.205078,4377.436035,4092.820557,4133.333496,4153.333496,0.000000,4.000000,,,,0.000000,4.000000,4.000000,4.000000,4.000000,4.000000,,,,,,,,,,,,,,,,,,,,,,,,,
1577422529.029233,57.000000,0.000000,4170.256348,4360.512695,4084.615479,4122.051270,4136.922852,0.000000,4.000000,,,,0.000000,4.000000,4.000000,4.000000,4.000000,4.000000,,,,,,,,,,,,,,,,,,,,,,,,,
1577422529.037090,58.000000,0.000000,4147.179688,4347.692383,4073.846191,4101.538574,4113.333496,0.000000,4.000000,,,,0.000000,4.000000,4.000000,4.000000,4.000000,4.000000,,,,,,,,,,,,,,,,,,,,,,,,,
1577422529.044846,59.000000,0.000000,4169.230957,4363.077148,4091.281982,4116.922852,4127.179688,0.000000,4.000000,,,,0.000000,4.000000,4.000000,4.000000,4.000000,4.000000,,,,,,,,,,,,,,,,,,,,,,,,,
1577422529.052701,60.000000,0.000000,4176.922852,4357.436035,4102.051270,4127.692383,4135.384766,0.000000,4.000000,,,,0.000000,4.000000,4.000000,4.000000,4.000000,4.000000,,,,,,,,,,,,,,,,,,,,,,,,,
1577422529.060456,61.000000,0.000000,4154.871582,4338.461426,4098.974121,4117.948730,4115.897461,0.000000,4.000000,,,,0.000000,4.000000,4.000000,4.000000,4.000000,4.000000,,,,,,,,,,,,,,,,,,,,,,,,,
1577422529.068311,62.000000,0.000000,4166.666504,4345.128418,4110.769043,4130.256348,4123.589844,0.000000,4.000000,,,,0.000000,4.000000,4.000000,4.000000,4.000000,4.000000,,,,,,,,,,,,,,,,,,,,,,,,,
1577422529.076066,63.000000,0.000000,4185.641113,4344.102539,4118.461426,4144.102539,4141.538574,0.000000,4.000000,,,,0.000000,4.000000,4.000000,4.000000,4.000000,4.000000,8.693455,9.313165,3.860734,1.797378,0.861684,7.354687,2.113845,1.666896,0.950090,1.155677,26.779409,4.451174,2.529926,1.361748,0.784572,2.195561,1.895337,3.456757,1.162900,0.637242,7.457147,11.136523,3.548149,1.901656,0.904880
1577422529.083920,64.000000,0.000000,4161.538574,4324.102539,4104.615234,4122.563965,4117.948730,450.000000,4.000000,,,,0.000000,4.000000,4.000000,4.000000,4.000000,4.000000,,,,,,,,,,,,,,,,,,,,,,,,,
1577422529.091673,65.000000,0.000000,4138.974121,4317.948730,4089.743652,4103.589844,4098.461426,450.000000,4.000000,,,,0.000000,4.000000,4.000000,4.000000,4.000000,4.000000,,,,,,,,,,,,,,,,,,,,,,,,,
1577422529.099527,66.000000,0.000000,4161.025879,4317.948730,4092.820557,4123.077148,4124.615234,16214.000000,4.000000,,,,0.000000,4.000000,4.000000,4.000000,4.000000,4.000000,,,,,,,,,,,,,,,,,,,,,,,,,
1577422529.107279,67.000000,0.000000,4174.871582,4310.769043,4099.487305,4131.282227,4136.410156,450.000000,4.000000,,,,0.000000,4.000000,4.000000,4.000000,4.000000,4.000000,,,,,,,,,,,,,,,,,,,,,,,,,
1577422529.115039,68.000000,0.000000,4159.487305,4312.307617,4093.333252,4111.794922,4116.410156,16183.000000,4.000000,,,,0.000000,4.000000,4.000000,4.000000,4.000000,4.000000,,,,,,,,,,,,,,,,,,,,,,,,,
1577422529.122899,69.000000,0.000000,4165.128418,4314.358887,4099.487305,4110.769043,4120.512695,450.000000,4.000000,,,,0.000000,4.000000,4.000000,4.000000,4.000000,4.000000,,,,,,,,,,,,,,,,,,,,,,,,,
1577422529.130658,70.000000,0.000000,4178.461426,4296.922852,4106.666504,4120.000000,4140.000000,16159.000000,4.000000,,,,0.000000,4.000000,4.000000,4.000000,4.000000,4.000000,,,,,,,,,,,,,,,,,,,,,,,,,
1577422529.138517,71.000000,0.000000,4169.230957,4287.692383,4093.333252,4116.922852,4135.897461,450.000000,4.000000,,,,0.000000,4.000000,4.000000,4.000000,4.000000,4.000000,,,,,,,,,,,,,,,,,,,,,,,,,
1577422529.146277,72.000000,0.000000,4180.512695,4305.641113,4096.922852,4124.102539,4143.077148,450.000000,4.000000,,,,0.000000,4.000000,4.000000,4.000000,4.000000,4.000000,,,,,,,,,,,,,,,,,,,,,,,,,
1577422529.154043,73.000000,0.000000,4201.538574,4311.794922,4116.922852,4134.871582,4163.589844,16164.000000,4.000000,,,,0.000000,4.000000,4.000000,4.000000,4.000000,4.000000,,,,,,,,,,,,,,,,,,,,,,,,,
1577422529.161909,74.000000,0.000000,4188.717773,4290.256348,4115.897461,4130.769043,4154.358887,450.000000,4.000000,,,,0.000000,4.000000,4.000000,4.000000,4.000000,4.000000,,,,,,,,,,,,,,,,,,,,,,,,,
1577422529.169675,75.000000,0.000000,4174.358887,4276.922852,4110.256348,4128.205078,4135.384766,16203.000000,4.000000,,,,0.000000,4.000000,4.000000,4.000000,4.000000,4.000000,,,,,,,,,,,,,,,,,,,,,,,,,
1577422529.177540,76.000000,0.000000,4180.512695,4283.077148,4124.102539,4141.025879,4136.410156,450.000000,4.000000,,,,0.000000,4.000000,4.000000,4.000000,4.000000,4.000000,,,,,,,,,,,,,,,,,,,,,,,,,
1577422529.185305,77.000000,0.000000,4170.256348,4277.436035,4125.128418,4138.461426,4125.641113,450.000000,4.000000,,,,0.000000,4.000000,4.000000,4.000000,4.000000,4.000000,,,,,,,,,,,,,,,,,,,,,,,,,
1577422529.193170,78.000000,0.000000,4146.153809,4253.333496,4101.025879,4108.205078,4101.025879,450.000000,4.000000,,,,0.000000,4.000000,4.000000,4.000000,4.000000,4.000000,,,,,,,,,,,,,,,,,,,,,,,,,
1577422529.200934,79.000000,0.000000,4158.461426,4246.666504,4103.589844,4115.384766,4115.384766,16203.000000,4.000000,,,,0.000000,4.000000,4.000000,4.000000,4.000000,4.000000,9.002792,10.090579,3.728029,1.864149,0.913074,5.932842,2.044549,1.467082,0.987073,1.225848,22.467384,3.537092,2.323672,1.461863,0.749069,1.820369,2.452932,3.284954,1.252390,0.629190,7.923258,11.953095,3.308933,1.997376,0.933863
1577422529.208797,80.000000,0.000000,4177.436035,4249.230957,4111.282227,4136.922852,4136.410156,450.000000,4.000000,,,,0.000000,4.000000,4.000000,4.000000,4.000000,4.000000,,,,,,,,,,,,,,,,,,,,,,,,,
1577422529.216560,81.000000,0.000000,4142.051270,4238.974121,4072.307617,4104.615234,4100.512695,450.000000,4.000000,,,,0.000000,4.000000,4.000000,4.000000,4.000000,4.000000,,,,,,,,,,,,,,,,,,,,,,,,,
1577422529.224330,82.000000,0.000000,4099.487305,4233.846191,4044.615479,4068.205078,4058.461426,450.000000,4.000000,,,,0.000000,4.000000,4.000000,4.000000,4.000000,4.000000,,,,,,,,,,,,,,,,,,,,,,,,,
1577422529.232200,83.000000,0.000000,4113.333496,4229.230957,4063.589844,4072.307617,4068.205078,16203.000000,4.000000,,,,0.000000,4.000000,4.000000,4.000000,4.000000,4.000000,,,,,,,,,,,,,,,,,,,,,,,,,
1577422529.239969,84.000000,0.000000,4140.000000,4214.358887,4057.948730,4088.205078,4091.281982,450.000000,4.000000,,,,0.000000,4.000000,4.000000,4.000000,4.000000,4.000000,,,,,,,,,,,,,,,,,,,,,,,,,
1577422529.247838,85.000000,0.000000,4134.871582,4203.077148,4029.743652,4093.333252,4097.948730,450.000000,4.000000,,,,0.000000,4.000000,4.000000,4.000000,4.000000,4.000000,,,,,,,,,,,,,,,,,,,,,,,,,
1577422529.255608,86.000000,0.000000,4146.666504,4203.077148,4057.948730,4105.128418,4117.948730,450.000000,4.000000,,,,0.000000,4.000000,4.000000,4.000000,4.000000,4.000000,,,,,,,,,,,,,,,,,,,,,,,,,
1577422529.263477,87.000000,0.000000,4180.000000,4212.307617,4105.128418,4129.743652,4150.769043,16203.000000,4.000000,,,,0.000000,4.000000,4.000000,4.000000,4.000000,4.000000,,,,,,,,,,,,,,,,,,,,,,,,,
1577422529.271246,88.000000,0.000000,4195.897461,4234.871582,4105.128418,4144.102539,4168.717773,450.000000,4.000000,,,,0.000000,4.000000,4.000000,4.000000,4.000000,4.000000,,,,,,,,,,,,,,,,,,,,,,,,,
1577422529.279221,89.000000,1.000000,4192.500000,4231.282227,4104.358887,4142.307617,4164.294922,450.000000,4.000000,,,,0.000000,4.000000,4.000000,4.000000,4.000000,4.000000,,,,,,,,,,,,,,,,,,,,,,,,,
1577422529.287097,90.000000,1.000000,4189.102539,4227.692383,4103.589844,4140.512695,4159.871582,450.000000,4.000000,,,,0.000000,4.000000,4.000000,4.000000,4.000000,4.000000,,,,,,,,,,,,,,,,,,,,,,,,,
1577422529.294972,91.000000,1.000000,4185.705078,4224.102539,4102.820313,4138.717773,4155.448730,450.000000,4.000000,,,,0.000000,4.000000,4.000000,4.000000,4.000000,4.000000,,,,,,,,,,,,,,,,,,,,,,,,,
1577422529.302848,92.000000,1.000000,4182.307617,4220.512695,4102.051270,4136.922852,4151.025879,450.000000,4.000000,,,,0.000000,4.000000,4.000000,4.000000,4.000000,4.000000,,,,,,,,,,,,,,,,,,,,,,,,,
1577422529.310724,93.000000,1.000000,4178.910156,4216.922852,4101.282227,4135.128418,4146.602539,450.000000,4.000000,,,,0.000000,4.000000,4.000000,4.000000,4.000000,4.000000,,,,,,,,,,,,,,,,,,,,,,,,,
1577422529.318600,94.000000,1.000000,4175.512695,4213.333496,4100.512695,4133.333496,4142.179688,450.000000,4.000000,,,,0.000000,4.000000,4.000000,4.000000,4.000000,4.000000,,,,,,,,,,,,,,,,,,,,,,,,,
1577422529.326475,95.000000,1.000000,4172.115234,4209.743652,4099.743652,4131.538574,4137.756348,450.000000,4.000000,,,,0.000000,4.000000,4.000000,4.000000,4.000000,4.000000,8.713554,10.625499,3.257084,1.836656,0.971841,4.887308,1.892168,1.236055,1.012457,1.316819,18.177898,3.052789,2.050305,1.549346,0.720158,1.411899,2.946946,2.813965,1.361114,0.627244,8.077209,12.184043,2.816668,2.003093,0.951490
1577422529.334351,96.000000,0.000000,4168.717773,4206.153809,4098.974121,4129.743652,4133.333496,450.000000,4.000000,,,,0.000000,4.000000,4.000000,4.000000,4.000000,4.000000,,,,,,,,,,,,,,,,,,,,,,,,,
1577422529.342227,97.000000,0.000000,4171.282227,4225.128418,4097.948730,4122.563965,4132.820313,450.000000,4.000000,,,,0.000000,4.000000,4.000000,4.000000,4.000000,4.000000,,,,,,,,,,,,,,,,,,,,,,,,,
1577422529.350102,98.000000,0.000000,4177.948730,4226.153809,4101.025879,4118.974121,4139.487305,450.000000,4.000000,,,,0.000000,4.000000,4.000000,4.000000,4.000000,4.000000,,,,,,,,,,,,,,,,,,,,,,,,,
1577422529.357813,99.000000,0.000000,4185.128418,4217.948730,4111.794922,4126.153809,4146.153809,16203.000000,4.000000,,,,0.000000,4.000000,4.000000,4.000000,4.000000,4.000000,,,,,,,,,,,,,,,,,,,,,,,,,
1577422529.365624,100.000000,0.000000,4188.205078,4218.461426,4112.307617,4129.230957,4149.230957,450.000000,4.000000,,,,0.000000,4.000000,4.000000,4.000000,4.000000,4.000000,,,,,,,,,,,,,,,,,,,,,,,,,
1577422529.373334,101.000000,0.000000,4185.641113,4216.922852,4100.000000,4124.102539,4144.615234,450.000000,4.000000,,,,0.000000,4.000000,4.000000,4.000000,4.000000,4.000000,,,,,,,,,,,,,,,,,,,,,,,,,
1577422529.381052,102.000000,0.000000,4173.846191,4193.846191,4089.230713,4122.563965,4134.871582,450.000000,4.000000,,,,0.000000,4.000000,4.000000,4.000000,4.000000,4.000000,,,,,,,,,,,,,,,,,,,,,,,,,
1577422529.388870,103.000000,0.000000,4153.846191,4166.153809,4077.435791,4121.538574,4120.000000,16203.000000,4.000000,,,,0.000000,4.000000,4.000000,4.000000,4.000000,4.000000,,,,,,,,,,,,,,,,,,,,,,,,,
