title:lovei, start timestamp:2019-12-27T07:49:55.797054+03:00, stop timestamp:2019-12-27T07:50:26.512788+03:00, headset type:INSIGHT, headset serial:A2D200FB, headset firmware:930, subject name:Qasim, channels:44, sampling rate:eeg_128;pow_8, samples:3941      , version:2.0,,,,,,,,,,,,,,,,,,,,,,,,,,,,,,,,,,,,,,,,,,,,,
Timestamp,EEG.Counter,EEG.Interpolated,EEG.AF3,EEG.T7,EEG.Pz,EEG.T8,EEG.AF4,EEG.RawCq,EEG.Battery,MarkerIndex,MarkerType,MarkerValueInt,EEG.MarkerHardware,CQ.AF3,CQ.T7,CQ.Pz,CQ.T8,CQ.AF4,MOT.CounterMems,MOT.InterpolatedMems,MOT.Q0,MOT.Q1,MOT.Q2,MOT.Q3,MOT.AccX,MOT.AccY,MOT.AccZ,MOT.MagX,MOT.MagY,MOT.MagZ,POW.AF3.Theta,POW.AF3.Alpha,POW.AF3.BetaL,POW.AF3.BetaH,POW.AF3.Gamma,POW.T7.Theta,POW.T7.Alpha,POW.T7.BetaL,POW.T7.BetaH,POW.T7.Gamma,POW.Pz.Theta,POW.Pz.Alpha,POW.Pz.BetaL,POW.Pz.BetaH,POW.Pz.Gamma,POW.T8.Theta,POW.T8.Alpha,POW.T8.BetaL,POW.T8.BetaH,POW.T8.Gamma,POW.AF4.Theta,POW.AF4.Alpha,POW.AF4.BetaL,POW.AF4.BetaH,POW.AF4.Gamma
1577363420,86,0,3638.461426,4454.871582,4190.769043,3653.333252,4160.512695,450,2,,,,0,1,1,0,1,0,43,0,0.081903,-0.562988,0.401855,0.717529,0.875013,-0.469245,-0.044923,-16.390581,-55.138,52.396732,6.069597,2.863368,2.735808,4.101756,3.435498,36.899311,8.996202,8.379878,22.559273,7.947632,27.201866,5.862707,9.784171,16.094791,8.51536,2.617522,4.642494,2.916038,2.983061,3.641018,11.09847,11.699425,12.918157,17.574711,8.312056
1577363420,87,0,3635.384521,4413.333496,4194.358887,3669.743652,4124.102539,40,2,,,,0,1,1,0,1,0,,,,,,,,,,,,,,,,,,,,,,,,,,,,,,,,,,,,,
1577363420,88,0,3647.179443,4479.487305,4269.230957,3703.589844,4176.410156,450,2,,,,0,1,1,0,1,0,44,0,0.083564,-0.562744,0.401855,0.717529,0.872572,-0.47364,-0.039063,-16.366537,-55.127216,52.480629,,,,,,,,,,,,,,,,,,,,,,,,,
1577363420,89,0,3655.384521,4528.205078,4273.846191,3715.897461,4209.743652,450,2,,,,0,1,1,0,1,0,,,,,,,,,,,,,,,,,,,,,,,,,,,,,,,,,,,,,
1577363420,90,0,3626.666748,4444.615234,4212.820313,3660,4164.102539,450,2,,,,0,1,1,0,1,0,45,0,0.08311,-0.5625,0.401855,0.717773,0.877455,-0.460945,-0.042969,-16.464529,-55.237137,52.556133,,,,,,,,,,,,,,,,,,,,,,,,,
1577363420,91,0,3656.410156,4436.922852,4176.922852,3668.205078,4132.820313,40,2,,,,0,1,1,0,1,0,,,,,,,,,,,,,,,,,,,,,,,,,,,,,,,,,,,,,
1577363420,92,0,3632.307617,4474.871582,4179.487305,3726.153809,4131.794922,450,2,,,,0,1,1,0,1,0,46,0,0.082176,-0.5625,0.401611,0.718018,0.868177,-0.468269,-0.052247,-16.313461,-55.276253,52.56427,,,,,,,,,,,,,,,,,,,,,,,,,
1577363420,93,0,3581.025635,4501.025879,4259.487305,3733.333252,4159.487305,450,2,,,,0,1,1,0,1,0,,,,,,,,,,,,,,,,,,,,,,,,,,,,,,,,,,,,,
1577363420,94,0,3631.281982,4545.128418,4290.769043,3700.512939,4157.94873,450,2,,,,0,1,1,0,1,0,47,0,0.081712,-0.562256,0.401611,0.718262,0.879408,-0.479011,-0.046876,-16.297129,-55.311459,52.631413,,,,,,,,,,,,,,,,,,,,,,,,,
1577363420,95,0,3669.230713,4527.692383,4238.974121,3657.435791,4142.563965,40,2,,,,0,1,1,0,1,0,,,,,,,,,,,,,,,,,,,,,,,,,,,,,,,,,,,,,
1577363420,96,0,3670.256348,4468.205078,4146.153809,3693.333252,4196.410156,450,2,,,,0,1,1,0,1,0,48,0,0.083374,-0.562012,0.401611,0.718262,0.87306,-0.477058,-0.051759,-16.282431,-55.462772,52.51239,,,,,,,,,,,,,,,,,,,,,,,,,
1577363420,97,0,3646.666748,4422.563965,4117.94873,3716.923096,4217.94873,450,2,,,,0,1,1,0,1,0,,,,,,,,,,,,,,,,,,,,,,,,,,,,,,,,,,,,,
1577363420,98,0,3612.307617,4474.871582,4271.282227,3671.794922,4228.205078,450,2,,,,0,1,1,0,1,0,49,0,0.082915,-0.561768,0.401611,0.718506,0.876967,-0.485847,-0.065919,-16.329018,-55.539139,52.405273,,,,,,,,,,,,,,,,,,,,,,,,,
1577363420,99,0,3642.564209,4587.179688,4304.102539,3683.589844,4180.512695,40,2,,,,0,1,1,0,1,0,,,,,,,,,,,,,,,,,,,,,,,,,,,,,,,,,,,,,
1577363420,100,0,3673.846191,4575.384766,4208.205078,3672.307617,4092.820557,450,2,,,,0,1,1,0,1,0,50,0,0.082915,-0.561768,0.401611,0.718506,0.872572,-0.486824,-0.07422,-16.370947,-55.428425,52.428497,,,,,,,,,,,,,,,,,,,,,,,,,
1577363420,101,0,3668.205078,4491.794922,4224.102539,3642.564209,4161.025879,450,2,,,,0,1,1,0,1,0,,,,,,,,,,,,,,,,,,,,,,,,,,,,,,,,,,,,,
1577363420,102,0,3628.205078,4450.256348,4206.666504,3658.974365,4234.871582,450,2,,,,0,1,1,0,1,0,51,0,0.082915,-0.561768,0.401611,0.718506,0.886244,-0.489754,-0.070802,-16.408682,-55.44841,52.449402,7.671505,2.90503,2.327094,3.578403,3.36198,37.34914,10.502476,8.476682,24.912674,7.067395,26.460016,5.8036,8.728971,15.826427,8.333737,2.547452,4.065244,2.520099,3.65913,4.051505,12.394322,10.561264,12.074735,16.535238,8.202394
1577363420,103,0,3620.512939,4473.846191,4166.153809,3649.230713,4195.384766,40,2,,,,0,1,1,0,1,0,,,,,,,,,,,,,,,,,,,,,,,,,,,,,,,,,,,,,
1577363420,104,1,3627.236572,4487.977051,4169.629395,3652.991455,4192.07959,85.555557,2,,,,0,1,1,0,1,0,52,1,0,-0.561768,0.40166,0.718457,0.87931,-0.492097,0,0,0,0,,,,,,,,,,,,,,,,,,,,,,,,,
1577363420,105,1,3633.960205,4502.108398,4173.105469,3656.752197,4188.774902,131.111115,2,,,,0,1,1,0,1,0,,,,,,,,,,,,,,,,,,,,,,,,,,,,,,,,,,,,,
1577363420,106,1,3640.683838,4516.239258,4176.581055,3660.512939,4185.470215,176.666672,2,,,,0,1,1,0,1,0,53,1,0,-0.561768,0.401709,0.718408,0.872377,-0.494441,0,0,0,0,,,,,,,,,,,,,,,,,,,,,,,,,
1577363420,107,1,3647.407471,4530.370605,4180.057129,3664.273438,4182.165039,222.222229,2,,,,0,1,1,0,1,0,,,,,,,,,,,,,,,,,,,,,,,,,,,,,,,,,,,,,
1577363420,108,1,3654.131104,4544.501465,4183.532715,3668.03418,4178.860352,267.777771,2,,,,0,1,1,0,1,0,54,1,0,-0.561768,0.401758,0.718359,0.865443,-0.496785,0,0,0,0,,,,,,,,,,,,,,,,,,,,,,,,,
1577363420,109,1,3660.854736,4558.632324,4187.008789,3671.794922,4175.555664,313.333344,2,,,,0,1,1,0,1,0,,,,,,,,,,,,,,,,,,,,,,,,,,,,,,,,,,,,,
1577363420,110,1,3667.578369,4572.763672,4190.484375,3675.555664,4172.250488,358.888885,2,,,,0,1,1,0,1,0,55,1,0,-0.561768,0.401807,0.718311,0.858509,-0.499129,0,0,0,0,,,,,,,,,,,,,,,,,,,,,,,,,
1577363420,111,1,3674.302002,4586.894531,4193.959961,3679.316162,4168.945801,404.444458,2,,,,0,1,1,0,1,0,,,,,,,,,,,,,,,,,,,,,,,,,,,,,,,,,,,,,
1577363420,112,0,3681.025635,4601.025879,4197.436035,3683.076904,4165.641113,450,2,,,,0,1,1,0,1,0,56,0,0.083842,-0.561768,0.401855,0.718262,0.851575,-0.501472,-0.057618,-16.681906,-55.286953,52.408398,,,,,,,,,,,,,,,,,,,,,,,,,
1577363420,113,0,3700.512939,4510.769043,4204.615234,3633.333252,4163.589844,450,2,,,,0,1,1,0,1,0,,,,,,,,,,,,,,,,,,,,,,,,,,,,,,,,,,,,,
1577363420,114,0,3688.718018,4377.94873,4243.589844,3635.384521,4178.461426,450,2,,,,0,1,1,0,1,0,57,0,0.083842,-0.561768,0.401855,0.718262,0.867201,-0.497078,-0.049317,-16.628731,-55.380901,52.431309,,,,,,,,,,,,,,,,,,,,,,,,,
1577363420,115,0,3623.076904,4369.743652,4150.256348,3671.794922,4148.717773,40,2,,,,0,1,1,0,1,0,,,,,,,,,,,,,,,,,,,,,,,,,,,,,,,,,,,,,
1577363420,116,0,3615.384521,4481.538574,4145.641113,3661.025635,4174.871582,450,2,,,,0,1,1,0,1,0,58,0,0.085462,-0.561523,0.401855,0.718262,0.87013,-0.49659,-0.048341,-16.700502,-55.40564,52.511745,,,,,,,,,,,,,,,,,,,,,,,,,
1577363420,117,0,3681.538574,4587.692383,4226.153809,3656.410156,4197.94873,450,2,,,,0,1,1,0,1,0,,,,,,,,,,,,,,,,,,,,,,,,,,,,,,,,,,,,,
1577363420,118,0,3653.846191,4541.538574,4238.974121,3646.666748,4142.05127,450,2,,,,0,1,1,0,1,0,59,0,0.085462,-0.561523,0.401855,0.718262,0.87013,-0.504891,-0.041016,-16.645468,-55.427906,52.404694,8.717487,2.955945,2.091472,3.505241,3.51731,35.646626,11.894947,8.923178,28.181377,6.942605,23.017185,5.620944,7.187952,15.408815,8.179079,2.628035,3.740676,2.237055,5.022679,4.367694,12.798651,8.855917,10.65233,15.51139,8.664057
1577363420,119,0,3649.743652,4446.153809,4190.769043,3662.05127,4188.205078,40,2,,,,0,1,1,0,1,0,,,,,,,,,,,,,,,,,,,,,,,,,,,,,,,,,,,,,
1577363420,120,0,3680,4434.358887,4135.897461,3673.333252,4240,450,2,,,,0,1,1,0,1,0,60,0,0.084306,-0.561523,0.4021,0.718262,0.861341,-0.494636,-0.050782,-16.65575,-55.567574,52.427975,,,,,,,,,,,,,,,,,,,,,,,,,
1577363421,121,0,3655.897461,4485.128418,4178.974121,3644.615479,4202.05127,450,2,,,,0,1,1,0,1,0,,,,,,,,,,,,,,,,,,,,,,,,,,,,,,,,,,,,,
1577363421,122,0,3653.846191,4472.307617,4235.897461,3651.281982,4132.307617,450,2,,,,0,1,1,0,1,0,61,0,0.084306,-0.561523,0.4021,0.718262,0.856458,-0.498054,-0.038575,-16.784637,-55.394199,52.448933,,,,,,,,,,,,,,,,,,,,,,,,,
1577363421,123,0,3650.256348,4417.436035,4208.205078,3661.538574,4113.846191,40,2,,,,0,1,1,0,1,0,,,,,,,,,,,,,,,,,,,,,,,,,,,,,,,,,,,,,
1577363421,124,0,3680,4470.256348,4173.846191,3672.820557,4220,450,2,,,,0,1,1,0,1,0,62,0,0.085462,-0.561523,0.401855,0.718262,0.87013,-0.504891,-0.041016,-16.781004,-55.477425,52.407974,,,,,,,,,,,,,,,,,,,,,,,,,
1577363421,125,0,3691.281982,4507.179688,4161.538574,3683.589844,4271.282227,450,2,,,,0,1,1,0,1,0,,,,,,,,,,,,,,,,,,,,,,,,,,,,,,,,,,,,,
1577363421,126,0,3641.538574,4456.410156,4217.94873,3660.512939,4191.794922,450,2,,,,0,1,1,0,1,0,63,0,0.084306,-0.561523,0.4021,0.718262,0.856458,-0.498054,-0.038575,-16.897364,-55.313065,52.430931,,,,,,,,,,,,,,,,,,,,,,,,,
1577363421,127,0,3654.358887,4451.282227,4239.487305,3661.025635,4133.846191,228,2,,,,0,1,1,0,1,0,,,,,,,,,,,,,,,,,,,,,,,,,,,,,,,,,,,,,
1577363421,0,0,3672.307617,4456.922852,4153.846191,3652.820557,4120.512695,450,2,,,,0,1,1,0,1,0,0,0,0.085916,-0.561279,0.4021,0.718262,0.880385,-0.489265,-0.033204,-16.882458,-55.404404,52.391773,,,,,,,,,,,,,,,,,,,,,,,,,
1577363421,1,0,3696.410156,4493.846191,4140.512695,3681.025635,4187.179688,450,2,,,,0,1,1,0,1,0,,,,,,,,,,,,,,,,,,,,,,,,,,,,,,,,,,,,,
1577363421,2,0,3711.794922,4536.410156,4168.205078,3690.256348,4168.717773,0,2,,,,0,0,1,0,1,0,1,0,0.085916,-0.561279,0.4021,0.718262,0.871595,-0.487312,-0.042969,-16.869041,-55.307159,52.356533,,,,,,,,,,,,,,,,,,,,,,,,,
1577363421,3,0,3641.025635,4487.179688,4217.436035,3626.153809,4159.487305,450,2,,,,0,0,2,0,1,0,,,,,,,,,,,,,,,,,,,,,,,,,,,,,,,,,,,,,
1577363421,4,0,3644.615479,4412.820313,4226.666504,3655.897461,4275.897461,174,2,,,,0,0,2,0,1,0,2,0,0.086609,-0.561035,0.401855,0.718506,0.865248,-0.488289,-0.042969,-16.976599,-55.279457,52.564079,,,,,,,,,,,,,,,,,,,,,,,,,
1577363421,5,0,3703.076904,4387.179688,4125.128418,3650.769287,4221.538574,450,2,,,,0,0,2,0,1,0,,,,,,,,,,,,,,,,,,,,,,,,,,,,,,,,,,,,,
1577363421,6,0,3697.435791,4500.512695,4146.666504,3600.512939,4136.410156,8,2,,,,0,0,2,0,1,0,3,0,0.087734,-0.561035,0.401611,0.718506,0.875013,-0.495125,-0.04004,-16.774323,-55.134895,52.391975,8.88809,3.040346,2.047826,3.741044,3.831258,32.950497,12.864843,9.602948,31.248568,7.505783,17.970585,5.286553,5.603763,14.893825,8.025854,2.76448,3.710444,2.092767,6.568158,4.476729,12.471902,7.468392,9.184991,14.671855,9.472547
1577363421,7,1,3696.068359,4495.612305,4150.085449,3610.427246,4144.786133,450,2,,,,0,0,2,0,1,0,,,,,,,,,,,,,,,,,,,,,,,,,,,,,,,,,,,,,
1577363421,8,1,3694.700928,4490.712402,4153.504395,3620.341797,4153.162598,450,2,,,,0,0,2,0,1,0,4,1,0,-0.561035,0.401172,0.718701,0.876967,-0.488679,0,0,0,0,,,,,,,,,,,,,,,,,,,,,,,,,
1577363421,9,1,3693.333252,4485.812012,4156.922852,3630.256348,4161.538574,86,2,,,,0,0,2,0,1,0,,,,,,,,,,,,,,,,,,,,,,,,,,,,,,,,,,,,,
1577363421,10,1,3691.96582,4480.911621,4160.341797,3640.170898,4169.914551,450,2,,,,0,0,2,0,1,0,5,1,0,-0.561035,0.400732,0.718897,0.87892,-0.482234,0,0,0,0,,,,,,,,,,,,,,,,,,,,,,,,,
1577363421,11,1,3690.598389,4476.01123,4163.760742,3650.085449,4178.290527,36,2,,,,0,0,2,0,1,0,,,,,,,,,,,,,,,,,,,,,,,,,,,,,,,,,,,,,
1577363421,12,1,3689.230713,4471.111328,4167.179688,3660,4186.666504,450,2,,,,0,0,2,0,1,0,6,1,0,-0.561035,0.400293,0.719092,0.880873,-0.475789,0,0,0,0,,,,,,,,,,,,,,,,,,,,,,,,,
1577363421,13,1,3687.863281,4466.210938,4170.598145,3669.914551,4195.042969,450,2,,,,0,0,2,0,1,0,,,,,,,,,,,,,,,,,,,,,,,,,,,,,,,,,,,,,
1577363421,14,1,3686.495605,4461.310547,4174.01709,3679.829102,4203.418945,450,2,,,,0,0,2,0,1,0,7,1,0,-0.561035,0.399854,0.719287,0.882826,-0.469343,0,0,0,0,,,,,,,,,,,,,,,,,,,,,,,,,
1577363421,15,0,3685.128174,4456.410156,4177.436035,3689.743652,4211.794922,41,2,,,,0,0,2,0,1,0,,,,,,,,,,,,,,,,,,,,,,,,,,,,,,,,,,,,,
1577363421,16,0,3667.179443,4457.436035,4178.974121,3735.897461,4205.641113,0,2,,,,0,0,2,0,1,0,8,0,0.089739,-0.561035,0.399414,0.719482,0.884779,-0.462898,-0.062013,-16.951168,-55.12442,52.356716,,,,,,,,,,,,,,,,,,,,,,,,,
1577363421,17,0,3681.538574,4474.871582,4201.538574,3707.692383,4164.615234,0,2,,,,0,0,2,0,1,0,,,,,,,,,,,,,,,,,,,,,,,,,,,,,,,,,,,,,
1577363421,18,0,3660,4473.846191,4171.282227,3616.923096,4090.256348,0,2,,,,0,0,2,0,1,0,9,0,0.090163,-0.561035,0.398438,0.719971,0.875013,-0.447761,-0.041016,-17.050512,-55.174805,52.265163,,,,,,,,,,,,,,,,,,,,,,,,,
1577363421,19,0,3662.05127,4536.410156,4262.05127,3661.025635,4166.666504,0,2,,,,0,0,2,0,1,0,,,,,,,,,,,,,,,,,,,,,,,,,,,,,,,,,,,,,
1577363421,20,0,3680.512939,4552.820313,4273.333496,3742.564209,4210.769043,0,2,,,,0,0,2,0,1,0,10,0,0.089046,-0.561279,0.397461,0.720459,0.877943,-0.435065,-0.046876,-17.199738,-55.04071,52.302402,,,,,,,,,,,,,,,,,,,,,,,,,
1577363421,21,0,3639.487061,4468.717773,4194.358887,3688.205078,4155.897461,0,2,,,,0,0,2,0,1,0,,,,,,,,,,,,,,,,,,,,,,,,,,,,,,,,,,,,,
1577363421,22,0,3648.718018,4428.205078,4164.615234,3673.333252,4159.487305,0,2,,,,0,0,2,0,1,0,11,0,0.088556,-0.561279,0.39624,0.721191,0.866224,-0.455085,-0.05713,-17.154593,-55.099468,52.216282,8.156175,3.178159,2.13398,4.110003,4.161851,30.227499,13.247945,10.548888,33.372169,8.537378,12.779091,4.838612,4.350747,14.54543,7.959262,2.949195,3.866666,2.028346,7.72007,4.376093,11.87865,7.129143,8.259349,14.313908,10.32389
1577363421,23,0,3655.897461,4389.230957,4171.794922,3678.974365,4134.358887,0,2,,,,0,0,2,0,1,0,,,,,,,,,,,,,,,,,,,,,,,,,,,,,,,,,,,,,
1577363421,24,0,3643.076904,4461.538574,4268.205078,3694.358887,4170.256348,0,2,,,,0,0,2,0,1,0,12,0,0.087387,-0.561523,0.395264,0.72168,0.880873,-0.458991,-0.061524,-17.233595,-55.092533,52.198589,,,,,,,,,,,,,,,,,,,,,,,,,
1577363421,25,0,3667.692383,4601.025879,4300.512695,3733.333252,4175.897461,0,2,,,,0,0,2,0,1,0,,,,,,,,,,,,,,,,,,,,,,,,,,,,,,,,,,,,,
1577363421,26,0,3636.410156,4532.820313,4229.230957,3664.102539,4118.974121,0,2,,,,0,0,2,0,1,0,13,0,0.087764,-0.561523,0.394287,0.722168,0.87892,-0.474617,-0.069337,-17.12525,-55.086292,52.242485,,,,,,,,,,,,,,,,,,,,,,,,,
1577363421,27,1,3639.202393,4532.022949,4227.122559,3663.47583,4123.931641,0,2,,,,0,0,2,0,1,0,,,,,,,,,,,,,,,,,,,,,,,,,,,,,,,,,,,,,
1577363421,28,1,3641.994385,4531.225098,4225.01416,3662.849121,4128.888672,0,2,,,,0,0,2,0,1,0,14,1,0,-0.561621,0.39375,0.722363,0.876576,-0.474128,0,0,0,0,,,,,,,,,,,,,,,,,,,,,,,,,
1577363421,29,1,3644.786377,4530.427246,4222.905762,3662.222168,4133.846191,0,2,,,,0,0,2,0,1,0,,,,,,,,,,,,,,,,,,,,,,,,,,,,,,,,,,,,,
1577363421,30,1,3647.578369,4529.629395,4220.797852,3661.595459,4138.803223,0,2,,,,0,0,2,0,1,0,15,1,0,-0.561719,0.393213,0.722559,0.874232,-0.47364,0,0,0,0,,,,,,,,,,,,,,,,,,,,,,,,,
1577363421,31,1,3650.370361,4528.832031,4218.689453,3660.96875,4143.760742,0,2,,,,0,0,2,0,1,0,,,,,,,,,,,,,,,,,,,,,,,,,,,,,,,,,,,,,
1577363421,32,1,3653.162354,4528.03418,4216.581055,3660.341797,4148.717773,0,2,,,,0,0,2,0,1,0,16,1,0,-0.561816,0.392676,0.722754,0.871888,-0.473152,0,0,0,0,,,,,,,,,,,,,,,,,,,,,,,,,
1577363421,33,1,3655.954346,4527.236328,4214.473145,3659.715088,4153.675293,0,2,,,,0,0,2,0,1,0,,,,,,,,,,,,,,,,,,,,,,,,,,,,,,,,,,,,,
1577363421,34,1,3658.746338,4526.438965,4212.364746,3659.088379,4158.632324,0,2,,,,0,0,2,0,1,0,17,1,0,-0.561914,0.392139,0.722949,0.869545,-0.472663,0,0,0,0,,,,,,,,,,,,,,,,,,,,,,,,,
1577363421,35,0,3661.538574,4525.641113,4210.256348,3658.461426,4163.589844,0,2,,,,0,0,2,0,1,0,,,,,,,,,,,,,,,,,,,,,,,,,,,,,,,,,,,,,
1577363421,36,0,3629.743652,4519.487305,4197.436035,3649.743652,4129.230957,0,2,,,,0,0,2,0,1,0,18,0,0.088617,-0.562012,0.391602,0.723145,0.867201,-0.472175,-0.064454,-17.147371,-55.080677,52.102543,,,,,,,,,,,,,,,,,,,,,,,,,
1577363421,37,0,3608.205078,4501.538574,4226.153809,3652.820557,4132.307617,0,2,,,,0,0,2,0,1,0,,,,,,,,,,,,,,,,,,,,,,,,,,,,,,,,,,,,,
1577363421,38,0,3680.512939,4532.820313,4202.05127,3684.102539,4163.077148,0,2,,,,0,0,2,0,1,0,19,0,0.088781,-0.562012,0.391113,0.723389,0.871595,-0.469245,-0.058595,-17.107464,-55.135441,52.15604,6.842196,3.389909,2.24584,4.491363,4.375366,27.876976,13.154913,11.990494,34.344078,9.795281,8.711679,4.35386,3.63195,14.531569,8.13528,3.339286,4.082745,1.983484,8.055034,4.159156,11.435941,8.081471,8.067057,14.603475,10.975254
1577363421,39,0,3690.769287,4515.897461,4184.615234,3642.05127,4197.436035,0,2,,,,0,0,2,0,1,0,,,,,,,,,,,,,,,,,,,,,,,,,,,,,,,,,,,,,
1577363421,40,0,3674.871826,4443.077148,4184.102539,3642.05127,4188.717773,0,2,,,,0,0,2,0,1,0,20,0,0.087862,-0.562012,0.390869,0.723633,0.89308,-0.472663,-0.082521,-17.191179,-55.00528,52.264004,,,,,,,,,,,,,,,,,,,,,,,,,
1577363421,41,0,3620,4399.487305,4161.538574,3666.153809,4129.743652,0,2,,,,0,0,2,0,1,0,,,,,,,,,,,,,,,,,,,,,,,,,,,,,,,,,,,,,
1577363421,42,0,3660,4496.410156,4218.461426,3678.974365,4168.717773,0,2,,,,0,0,2,0,1,0,21,0,0.087384,-0.562256,0.390625,0.723633,0.888685,-0.485847,-0.073732,-17.146891,-55.007763,52.12191,,,,,,,,,,,,,,,,,,,,,,,,,
1577363421,43,0,3725.641113,4594.358887,4204.615234,3687.179443,4218.974121,0,2,,,,0,0,2,0,1,0,,,,,,,,,,,,,,,,,,,,,,,,,,,,,,,,,,,,,
1577363421,44,0,3647.692383,4515.897461,4207.179688,3631.281982,4177.436035,0,2,,,,0,0,2,0,1,0,22,0,0.089539,-0.562256,0.390137,0.723633,0.868666,-0.485847,-0.061524,-17.166847,-55.069817,51.994022,,,,,,,,,,,,,,,,,,,,,,,,,
1577363421,45,0,3664.102539,4412.820313,4235.384766,3654.358887,4182.563965,0,2,,,,0,0,2,0,1,0,,,,,,,,,,,,,,,,,,,,,,,,,,,,,,,,,,,,,
1577363421,46,0,3707.179443,4376.922852,4126.666504,3672.820557,4145.128418,0,2,,,,0,0,2,0,1,0,23,0,0.089068,-0.5625,0.389893,0.723633,0.884779,-0.481453,-0.066896,-17.184809,-55.065849,51.878929,,,,,,,,,,,,,,,,,,,,,,,,,
1577363421,47,0,3671.281982,4464.102539,4137.436035,3626.153809,4205.128418,0,2,,,,0,0,2,0,1,0,,,,,,,,,,,,,,,,,,,,,,,,,,,,,,,,,,,,,
1577363421,48,0,3687.179443,4555.384766,4224.102539,3654.358887,4218.974121,0,2,,,,0,0,2,0,1,0,24,0,0.087667,-0.562744,0.389404,0.723877,0.879408,-0.49073,-0.061524,-17.260788,-55.122093,51.715527,,,,,,,,,,,,,,,,,,,,,,,,,
1577363421,49,0,3672.820557,4494.358887,4219.487305,3670.256348,4114.358887,0,2,,,,0,0,2,0,1,0,,,,,,,,,,,,,,,,,,,,,,,,,,,,,,,,,,,,,
1577363421,50,0,3675.897461,4471.794922,4194.871582,3699.487061,4220.512695,0,2,,,,0,0,2,0,1,0,25,0,0.090859,-0.562744,0.388672,0.723877,0.87306,-0.491707,-0.042481,-17.209539,-55.172714,51.807724,,,,,,,,,,,,,,,,,,,,,,,,,
1577363421,51,0,3688.718018,4463.589844,4145.641113,3667.179443,4255.384766,0,2,,,,0,0,2,0,1,0,,,,,,,,,,,,,,,,,,,,,,,,,,,,,,,,,,,,,
1577363421,52,0,3642.05127,4443.589844,4187.692383,3600.512939,4147.179688,0,2,,,,0,0,2,0,1,0,26,0,0.089478,-0.562988,0.388184,0.724121,0.879896,-0.492683,-0.061036,-17.402678,-55.218269,51.651443,,,,,,,,,,,,,,,,,,,,,,,,,
1577363421,53,0,3661.538574,4478.974121,4212.307617,3654.358887,4105.641113,0,2,,,,0,0,2,0,1,0,,,,,,,,,,,,,,,,,,,,,,,,,,,,,,,,,,,,,
1577363421,54,0,3681.538574,4472.307617,4180.512695,3665.641113,4110.256348,0,2,,,,0,0,2,0,1,0,27,0,0.087667,-0.562744,0.389404,0.723877,0.879408,-0.49073,-0.061524,-17.456871,-55.259274,51.510792,5.407525,3.641555,2.301627,4.782598,4.396274,25.561108,12.894316,14.225762,34.506195,11.029882,6.513884,3.919738,3.416268,14.781657,8.669679,4.207948,4.306117,1.928152,7.486281,3.971217,11.253869,9.884489,8.423481,15.505612,11.308218
1577363421,55,0,3669.743652,4516.922852,4247.179688,3665.641113,4229.230957,0,2,,,,0,0,2,0,1,0,,,,,,,,,,,,,,,,,,,,,,,,,,,,,,,,,,,,,
1577363421,56,0,3675.897461,4516.410156,4231.282227,3701.538574,4235.384766,0,2,,,,0,0,2,0,1,0,28,0,0.089478,-0.562988,0.388184,0.724121,0.879896,-0.492683,-0.061036,-17.625275,-55.296173,51.384201,,,,,,,,,,,,,,,,,,,,,,,,,
1577363421,57,1,3673.390381,4515.384766,4234.700684,3695.099609,4228.03418,50,2,,,,0,0,2,0,1,0,,,,,,,,,,,,,,,,,,,,,,,,,,,,,,,,,,,,,
1577363421,58,1,3670.883301,4514.358887,4238.119629,3688.660889,4220.683594,100,2,,,,0,0,2,0,1,0,29,1,0,-0.563232,0.387842,0.724072,0.876674,-0.486238,0,0,0,0,,,,,,,,,,,,,,,,,,,,,,,,,
1577363421,59,1,3668.375977,4513.333496,4241.538574,3682.222168,4213.333496,150,2,,,,0,0,2,0,1,0,,,,,,,,,,,,,,,,,,,,,,,,,,,,,,,,,,,,,
1577363421,60,1,3665.868896,4512.307617,4244.957031,3675.783447,4205.98291,200,2,,,,0,0,2,0,1,0,30,1,0,-0.563477,0.3875,0.724023,0.873451,-0.479792,0,0,0,0,,,,,,,,,,,,,,,,,,,,,,,,,
1577363421,61,1,3663.361816,4511.282227,4248.375977,3669.344727,4198.632324,250,2,,,,0,0,2,0,1,0,,,,,,,,,,,,,,,,,,,,,,,,,,,,,,,,,,,,,
1577363421,62,1,3660.854736,4510.256348,4251.794922,3662.906006,4191.282227,300,2,,,,0,0,2,0,1,0,31,1,0,-0.563721,0.387158,0.723975,0.870228,-0.473347,0,0,0,0,,,,,,,,,,,,,,,,,,,,,,,,,
1577363421,63,1,3658.347656,4509.230957,4255.213867,3656.467285,4183.931641,350,2,,,,0,0,2,0,1,0,,,,,,,,,,,,,,,,,,,,,,,,,,,,,,,,,,,,,
1577363421,64,1,3655.840576,4508.205078,4258.632324,3650.028564,4176.581055,450,2,,,,0,0,2,0,1,0,32,1,0,-0.563965,0.386816,0.723926,0.867005,-0.466902,0,0,0,0,,,,,,,,,,,,,,,,,,,,,,,,,
1577363421,65,0,3653.333252,4507.179688,4262.05127,3643.589844,4169.230957,450,2,,,,0,0,2,0,1,0,,,,,,,,,,,,,,,,,,,,,,,,,,,,,,,,,,,,,
1577363421,66,0,3653.333252,4601.025879,4312.307617,3718.461426,4176.410156,41,2,,,,0,0,1,0,1,0,33,0,0.091147,-0.564209,0.386475,0.723877,0.863783,-0.460456,-0.070802,-17.597393,-55.329388,51.33009,,,,,,,,,,,,,,,,,,,,,,,,,
1577363421,67,0,3632.307617,4514.871582,4231.282227,3675.384521,4125.128418,450,2,,,,0,0,1,0,1,0,,,,,,,,,,,,,,,,,,,,,,,,,,,,,,,,,,,,,
1577363421,68,0,3661.538574,4458.974121,4188.717773,3657.435791,4186.666504,102,2,,,,0,0,1,0,1,0,34,0,0.092176,-0.564209,0.38623,0.723877,0.872084,-0.45948,-0.059083,-17.392853,-55.120014,51.341202,,,,,,,,,,,,,,,,,,,,,,,,,
1577363421,69,0,3663.589844,4463.077148,4153.333496,3696.410156,4233.846191,450,2,,,,0,0,1,0,1,0,,,,,,,,,,,,,,,,,,,,,,,,,,,,,,,,,,,,,
1577363421,70,0,3642.564209,4476.922852,4219.487305,3648.718018,4191.282227,6,2,,,,0,0,1,0,1,0,35,0,0.093193,-0.564209,0.385986,0.723877,0.867689,-0.464363,-0.07129,-17.507845,-54.991398,51.3512,4.256158,3.880539,2.281766,4.913047,4.23511,22.856216,12.587628,17.35891,34.361561,12.030217,6.152303,3.56546,3.521893,15.128587,9.484253,5.726476,4.522877,1.852722,6.249496,3.925944,11.085527,11.539359,9.026093,16.631483,11.331602
1577363421,71,0,3681.025635,4520.512695,4268.717773,3657.94873,4164.615234,450,2,,,,0,0,1,0,1,0,,,,,,,,,,,,,,,,,,,,,,,,,,,,,,,,,,,,,
1577363421,72,0,3613.333252,4485.128418,4226.153809,3661.538574,4143.077148,450,2,,,,0,0,1,0,2,0,36,0,0.094198,-0.564209,0.385742,0.723877,0.861341,-0.463386,-0.06836,-17.730967,-54.875641,51.300388,,,,,,,,,,,,,,,,,,,,,,,,,
1577363421,73,0,3588.718018,4466.666504,4229.743652,3643.076904,4145.128418,123,2,,,,0,0,1,0,2,0,,,,,,,,,,,,,,,,,,,,,,,,,,,,,,,,,,,,,
1577363421,74,0,3675.897461,4507.179688,4211.794922,3663.589844,4171.282227,450,2,,,,0,0,1,0,2,0,37,0,0.092848,-0.564453,0.385254,0.724121,0.884779,-0.464851,-0.078614,-17.692516,-54.831272,51.135025,,,,,,,,,,,,,,,,,,,,,,,,,
1577363421,75,0,3685.641113,4516.922852,4187.692383,3652.307617,4192.307617,18,2,,,,0,0,1,0,2,0,,,,,,,,,,,,,,,,,,,,,,,,,,,,,,,,,,,,,
1577363421,76,0,3646.153809,4492.307617,4185.128418,3640,4171.794922,450,2,,,,0,0,1,0,2,0,38,0,0.094269,-0.564697,0.38501,0.723877,0.874037,-0.461433,-0.07422,-17.717726,-54.851162,51.285275,,,,,,,,,,,,,,,,,,,,,,,,,
1577363421,77,0,3581.025635,4461.025879,4181.538574,3632.307617,4122.05127,450,2,,,,0,0,1,0,2,0,,,,,,,,,,,,,,,,,,,,,,,,,,,,,,,,,,,,,
1577363421,78,0,3603.589844,4515.897461,4212.820313,3660,4133.846191,450,2,,,,0,0,1,0,2,0,39,0,0.092914,-0.564941,0.384521,0.724121,0.871595,-0.467292,-0.077638,-17.80023,-54.928875,51.121422,,,,,,,,,,,,,,,,,,,,,,,,,
1577363421,79,0,3691.281982,4579.487305,4198.461426,3689.230713,4173.846191,18,2,,,,0,0,1,0,2,0,,,,,,,,,,,,,,,,,,,,,,,,,,,,,,,,,,,,,
1577363421,80,0,3694.358887,4521.025879,4212.820313,3628.205078,4185.641113,450,2,,,,0,0,1,0,2,0,40,0,0.092972,-0.56543,0.383789,0.724121,0.87306,-0.461433,-0.073732,-17.814667,-54.81937,51.273033,,,,,,,,,,,,,,,,,,,,,,,,,
1577363421,81,0,3673.846191,4417.436035,4221.538574,3617.94873,4178.974121,450,2,,,,0,0,1,0,2,0,,,,,,,,,,,,,,,,,,,,,,,,,,,,,,,,,,,,,
1577363421,82,0,3617.94873,4384.102539,4147.179688,3661.025635,4122.563965,450,2,,,,0,0,1,0,2,0,41,0,0.0935,-0.565674,0.383301,0.724121,0.89015,-0.451667,-0.078614,-18.007107,-54.780632,51.409481,,,,,,,,,,,,,,,,,,,,,,,,,
1577363421,83,0,3641.538574,4501.025879,4171.282227,3672.307617,4171.282227,18,2,,,,0,0,1,0,2,0,,,,,,,,,,,,,,,,,,,,,,,,,,,,,,,,,,,,,
1577363421,84,0,3701.538574,4599.487305,4207.692383,3665.641113,4207.179688,450,2,,,,0,0,1,0,2,0,42,0,0.093544,-0.566162,0.382568,0.724121,0.895033,-0.438483,-0.076173,-18.060673,-54.685951,51.472469,,,,,,,,,,,,,,,,,,,,,,,,,
1577363421,85,1,3694.586914,4581.025879,4208.03418,3665.299072,4202.678223,450,2,,,,0,0,1,0,2,0,,,,,,,,,,,,,,,,,,,,,,,,,,,,,,,,,,,,,
1577363421,86,1,3687.635254,4562.563965,4208.375977,3664.957275,4198.176758,450,2,,,,0,0,1,0,2,0,43,1,0,-0.566699,0.381934,0.72417,0.88058,-0.44737,0,0,0,0,3.513243,4.019076,2.192619,4.844889,3.977535,19.855417,12.226345,20.930933,34.277882,12.696475,6.914197,3.2588,3.671577,15.271253,10.314765,7.757642,4.748735,1.796696,4.774864,4.044631,10.53577,12.157627,9.594203,17.428503,11.147665
1577363421,87,1,3680.683838,4544.102539,4208.717773,3664.615479,4193.675293,450,2,,,,0,0,1,0,2,0,,,,,,,,,,,,,,,,,,,,,,,,,,,,,,,,,,,,,
1577363421,88,1,3673.732178,4525.641113,4209.060059,3664.273438,4189.173828,450,2,,,,0,0,1,0,2,0,44,1,0,-0.567236,0.381299,0.724219,0.866126,-0.456257,0,0,0,0,,,,,,,,,,,,,,,,,,,,,,,,,
1577363421,89,1,3666.780518,4507.179688,4209.401855,3663.931641,4184.672363,450,2,,,,0,0,1,0,2,0,,,,,,,,,,,,,,,,,,,,,,,,,,,,,,,,,,,,,
1577363421,90,1,3659.829102,4488.717773,4209.743652,3663.589844,4180.170898,450,2,,,,0,0,1,0,2,0,45,1,0,-0.567773,0.380664,0.724268,0.851673,-0.465144,0,0,0,0,,,,,,,,,,,,,,,,,,,,,,,,,
1577363421,91,1,3652.877441,4470.256348,4210.085449,3663.247803,4175.669434,450,2,,,,0,0,1,0,2,0,,,,,,,,,,,,,,,,,,,,,,,,,,,,,,,,,,,,,
1577363421,92,1,3645.926025,4451.794922,4210.427246,3662.906006,4171.167969,450,2,,,,0,0,1,0,2,0,46,1,0,-0.568311,0.380029,0.724316,0.83722,-0.474031,0,0,0,0,,,,,,,,,,,,,,,,,,,,,,,,,
1577363421,93,0,3638.974365,4433.333496,4210.769043,3662.564209,4166.666504,450,2,,,,0,0,1,0,2,0,,,,,,,,,,,,,,,,,,,,,,,,,,,,,,,,,,,,,
1577363421,94,0,3638.974365,4425.128418,4214.871582,3654.871826,4149.743652,450,2,,,,0,0,1,0,2,0,47,0,0.088131,-0.568848,0.379395,0.724365,0.822766,-0.482918,-0.054688,-18.049067,-54.660553,51.52916,,,,,,,,,,,,,,,,,,,,,,,,,
1577363421,95,0,3658.974365,4472.820313,4145.128418,3618.974365,4106.153809,18,2,,,,0,0,1,0,2,0,,,,,,,,,,,,,,,,,,,,,,,,,,,,,,,,,,,,,
1577363421,96,0,3662.564209,4536.922852,4249.230957,3620.512939,4171.282227,450,2,,,,0,0,1,0,2,0,48,0,0.088745,-0.569092,0.378418,0.724609,0.840833,-0.471199,-0.07129,-18.098436,-54.757328,51.460548,,,,,,,,,,,,,,,,,,,,,,,,,
1577363423,67,0,4158.461426,4502.563965,3841.025635,4101.025879,3801.025635,450,2,,,,0,0,1,0,2,0,,,,,,,,,,,,,,,,,,,,,,,,,,,,,,,,,,,,,
1577363423,68,0,4264.102539,4573.846191,4009.743652,4215.384766,3981.538574,16129,2,,,,0,0,4,0,2,0,34,0,0.086703,-0.61084,0.350586,0.70459,0.930678,-0.418952,-0.009277,-18.022926,-54.525188,51.606804,,,,,,,,,,,,,,,,,,,,,,,,,
1577363423,69,0,4215.897461,4503.077148,3869.743652,4172.820313,3877.435791,450,2,,,,0,0,4,0,2,0,,,,,,,,,,,,,,,,,,,,,,,,,,,,,,,,,,,,,
1577363423,70,0,4216.410156,4511.794922,3953.333252,4169.230957,3922.564209,16116,2,,,,0,0,4,4,2,0,35,0,0.085966,-0.611084,0.350342,0.70459,0.918471,-0.408698,0.006836,-18.074909,-54.57568,51.53043,,,,,,,,,,,,,,,,,,,,,,,,,
1577363423,71,0,4222.05127,4500.512695,3883.076904,4180,3907.179443,450,2,,,,0,0,4,4,2,0,,,,,,,,,,,,,,,,,,,,,,,,,,,,,,,,,,,,,
1577363423,72,0,4206.153809,4516.410156,3911.794922,4169.743652,3909.743652,450,2,,,,0,0,4,4,2,0,36,0,0.086955,-0.611084,0.350098,0.70459,0.906264,-0.390631,0.005859,-18.121695,-54.561314,51.461693,3.125348,3.96519,2.020341,4.594336,3.741835,17.262495,11.587684,24.065451,34.304264,13.021011,8.109966,2.938871,3.676272,15.004206,10.800503,9.760794,4.939411,1.85719,3.516002,4.260682,9.394586,11.588629,9.967119,17.448584,10.903212
1577363423,73,0,4227.179688,4543.077148,3933.333252,4194.871582,3926.666748,16214,2,,,,0,0,4,4,4,0,,,,,,,,,,,,,,,,,,,,,,,,,,,,,,,,,,,,,
1577363423,74,0,4221.025879,4518.461426,3908.718018,4182.563965,3906.153809,450,2,,,,0,0,4,4,4,4,37,0,0.088898,-0.611084,0.349609,0.70459,0.929702,-0.379889,-0.000977,-18.223618,-54.488564,51.340015,,,,,,,,,,,,,,,,,,,,,,,,,
1577363423,75,0,4209.230957,4518.974121,3915.897461,4162.563965,3906.153809,16236,2,,,,0,0,4,4,4,4,,,,,,,,,,,,,,,,,,,,,,,,,,,,,,,,,,,,,
1577363423,76,0,4224.102539,4563.077148,3914.871826,4182.563965,3912.820557,450,2,,,,0,0,4,4,4,4,38,0,0.087917,-0.611084,0.349365,0.704834,0.917494,-0.400397,-0.01416,-18.255531,-54.423092,51.290318,,,,,,,,,,,,,,,,,,,,,,,,,
1577363423,77,0,4211.794922,4525.641113,3904.615479,4168.717773,3894.358887,450,2,,,,0,0,4,4,4,4,,,,,,,,,,,,,,,,,,,,,,,,,,,,,,,,,,,,,
1577363423,78,0,4202.563965,4495.897461,3930.769287,4156.410156,3904.102539,450,2,,,,0,0,4,4,4,4,39,0,0.089835,-0.611084,0.348877,0.704834,0.930678,-0.378912,-0.004883,-18.284256,-54.483795,51.18578,,,,,,,,,,,,,,,,,,,,,,,,,
1577363423,79,0,4222.563965,4536.922852,3919.487061,4183.589844,3911.281982,16236,2,,,,0,0,4,4,4,4,,,,,,,,,,,,,,,,,,,,,,,,,,,,,,,,,,,,,
1577363423,80,0,4214.871582,4532.820313,3933.846191,4174.358887,3897.94873,450,2,,,,0,0,4,4,4,4,40,0,0.089096,-0.611328,0.348145,0.705078,0.935561,-0.372076,-0.019532,-18.310106,-54.358982,51.031876,,,,,,,,,,,,,,,,,,,,,,,,,
1577363423,81,0,4215.897461,4522.563965,3955.897461,4164.102539,3905.128174,450,2,,,,0,0,4,4,4,4,,,,,,,,,,,,,,,,,,,,,,,,,,,,,,,,,,,,,
1577363423,82,0,4217.436035,4537.436035,3944.615479,4169.230957,3906.153809,450,2,,,,0,0,4,4,4,4,41,0,0.089299,-0.611572,0.347168,0.705322,0.934096,-0.36524,-0.008301,-18.213741,-54.306469,51.072811,,,,,,,,,,,,,,,,,,,,,,,,,
1577363423,83,0,4212.307617,4517.94873,3952.307617,4180,3920.512939,16236,2,,,,0,0,4,4,4,4,,,,,,,,,,,,,,,,,,,,,,,,,,,,,,,,,,,,,
1577363423,84,0,4214.871582,4506.666504,3919.487061,4186.666504,3924.102539,450,2,,,,0,0,4,4,4,4,42,0,0.089017,-0.612305,0.345947,0.705322,0.93312,-0.364263,-0.01709,-18.306459,-54.319019,50.930202,,,,,,,,,,,,,,,,,,,,,,,,,
1577363423,85,0,4212.820313,4542.563965,3936.923096,4177.436035,3923.589844,450,2,,,,0,0,4,4,4,4,,,,,,,,,,,,,,,,,,,,,,,,,,,,,,,,,,,,,
1577363423,86,0,4226.666504,4529.230957,3967.692383,4188.717773,3938.461426,450,2,,,,0,0,4,4,4,4,43,0,0.091308,-0.612793,0.344482,0.705322,0.946303,-0.338872,-0.019532,-18.33009,-54.390129,50.742043,,,,,,,,,,,,,,,,,,,,,,,,,
1577363423,87,0,4211.794922,4487.692383,3937.94873,4179.487305,3915.384521,16236,2,,,,0,0,4,4,4,4,,,,,,,,,,,,,,,,,,,,,,,,,,,,,,,,,,,,,
1577363423,88,0,4201.025879,4529.230957,3955.897461,4167.692383,3914.871826,450,2,,,,0,0,4,4,4,4,44,0,0.090986,-0.613525,0.343262,0.705322,0.929213,-0.364752,-0.019043,-18.351357,-54.334499,50.752144,4.485679,4.23958,2.069218,4.305218,3.682551,15.709106,10.458417,25.846153,34.196934,13.083238,10.660529,2.629288,3.445691,14.360027,10.695371,11.098858,5.384843,2.483174,2.910131,4.51795,8.059191,10.19701,10.082304,16.544674,10.67898
1577363423,89,0,4221.538574,4547.692383,3938.974365,4182.563965,3925.128174,450,2,,,,0,0,4,4,4,4,,,,,,,,,,,,,,,,,,,,,,,,,,,,,,,,,,,,,
1577363423,90,0,4210.256348,4514.358887,3936.923096,4178.461426,3917.94873,450,2,,,,0,0,4,4,4,4,45,0,0.091371,-0.614014,0.342285,0.705322,0.92726,-0.357427,-0.033204,-18.310682,-54.34425,50.70142,,,,,,,,,,,,,,,,,,,,,,,,,
1577363423,91,0,4211.794922,4522.563965,3981.025635,4185.128418,3935.384521,16236,2,,,,0,0,4,4,4,4,,,,,,,,,,,,,,,,,,,,,,,,,,,,,,,,,,,,,
1577363423,92,0,4210.769043,4523.077148,3959.487061,4183.077148,3940,450,2,,,,0,0,4,4,4,4,46,0,0.091981,-0.614746,0.341309,0.705078,0.925795,-0.354009,-0.021485,-18.274075,-54.293205,50.53614,,,,,,,,,,,,,,,,,,,,,,,,,
1577363423,93,0,4205.128418,4517.94873,3961.025635,4171.794922,3949.230713,450,2,,,,0,0,4,4,4,4,,,,,,,,,,,,,,,,,,,,,,,,,,,,,,,,,,,,,
1577363423,94,0,4229.230957,4528.205078,3955.384521,4187.179688,3958.461426,450,2,,,,0,0,4,4,4,4,47,0,0.092334,-0.615234,0.340332,0.705078,0.93312,-0.350591,-0.01416,-18.36076,-54.307083,50.56683,,,,,,,,,,,,,,,,,,,,,,,,,
1577363423,95,0,4223.589844,4508.717773,3951.281982,4182.563965,3961.025635,16236,2,,,,0,0,4,4,4,4,,,,,,,,,,,,,,,,,,,,,,,,,,,,,,,,,,,,,
1577363423,96,0,4227.692383,4503.077148,3978.461426,4191.282227,3987.179443,450,2,,,,0,0,4,4,4,4,48,0,0.094348,-0.615479,0.339844,0.704834,0.938491,-0.334966,-0.033692,-18.37896,-54.319572,50.534637,,,,,,,,,,,,,,,,,,,,,,,,,
1577363423,97,0,4235.384766,4516.922852,3945.128174,4201.025879,3978.461426,450,2,,,,0,0,4,4,4,4,,,,,,,,,,,,,,,,,,,,,,,,,,,,,,,,,,,,,
1577363423,98,0,4214.358887,4509.743652,3954.358887,4181.538574,3970.256348,450,2,,,,0,0,4,4,4,4,49,0,0.094512,-0.615723,0.339355,0.704834,0.939956,-0.317876,-0.020508,-18.455154,-54.271,50.44585,,,,,,,,,,,,,,,,,,,,,,,,,
1577363423,99,0,4221.538574,4503.589844,3975.897461,4191.794922,3987.179443,16236,2,,,,0,0,4,4,4,4,,,,,,,,,,,,,,,,,,,,,,,,,,,,,,,,,,,,,
1577363423,100,0,4222.563965,4528.717773,3958.974365,4193.846191,3988.205078,450,2,,,,0,0,4,4,4,4,50,0,0.092334,-0.615234,0.340332,0.705078,0.93312,-0.350591,-0.01416,-18.463917,-54.346912,50.425755,,,,,,,,,,,,,,,,,,,,,,,,,
1577363423,101,0,4222.563965,4543.077148,3974.871826,4190.256348,4000,450,2,,,,0,0,4,4,4,4,,,,,,,,,,,,,,,,,,,,,,,,,,,,,,,,,,,,,
1577363423,102,0,4226.153809,4511.794922,3953.333252,4187.692383,3993.846191,450,2,,,,0,0,4,4,4,4,51,0,0.094512,-0.615723,0.339355,0.704834,0.939956,-0.317876,-0.020508,-18.531616,-54.295605,50.347855,,,,,,,,,,,,,,,,,,,,,,,,,
1577363423,103,0,4210.769043,4516.922852,3960,4159.487305,3986.153809,16236,2,,,,0,0,4,4,4,4,,,,,,,,,,,,,,,,,,,,,,,,,,,,,,,,,,,,,
1577363423,104,0,4223.589844,4553.846191,3982.05127,4167.692383,3994.358887,450,2,,,,0,0,4,4,4,4,52,0,0.096089,-0.615479,0.339355,0.704834,0.938491,-0.298344,-0.025391,-18.53273,-54.369057,50.337563,14.547964,7.498633,3.546628,4.676146,4.057093,15.420701,9.282845,25.81797,33.657585,12.951299,17.423365,2.842628,3.243649,13.662058,10.004697,16.178236,8.220471,4.755831,3.535784,4.937074,8.671241,8.935519,10.014115,14.960714,10.477475
1577363423,105,0,4227.179688,4518.974121,3962.564209,4167.692383,3977.94873,450,2,,,,0,0,4,4,4,4,,,,,,,,,,,,,,,,,,,,,,,,,,,,,,,,,,,,,
1577363423,106,0,4226.153809,4503.589844,3994.358887,4162.563965,3994.871826,450,2,,,,0,0,4,4,4,4,53,0,0.093882,-0.61499,0.339844,0.705322,0.929213,-0.299809,-0.029297,-18.653364,-54.375351,50.328297,,,,,,,,,,,,,,,,,,,,,,,,,
1577363423,107,0,4246.153809,4535.384766,3990.256348,4194.358887,4013.333252,16236,2,,,,0,0,4,4,4,4,,,,,,,,,,,,,,,,,,,,,,,,,,,,,,,,,,,,,
1577363423,108,0,4236.410156,4523.077148,3983.076904,4197.94873,4002.564209,450,2,,,,0,0,4,4,4,4,54,0,0.092581,-0.614502,0.340576,0.705566,0.971695,-0.311528,-0.026368,-16.847843,-54.381016,50.260143,,,,,,,,,,,,,,,,,,,,,,,,,
1577363423,109,0,4235.897461,4530.256348,4001.538574,4200.512695,4015.897461,450,2,,,,0,0,4,4,4,4,,,,,,,,,,,,,,,,,,,,,,,,,,,,,,,,,,,,,
1577363423,110,0,4239.487305,4547.692383,3966.666748,4192.307617,4004.102539,450,2,,,,0,0,4,4,4,4,55,0,0.091253,-0.614014,0.341309,0.705811,0.952163,-0.329595,-0.039063,-17.196781,-54.326294,50.258617,,,,,,,,,,,,,,,,,,,,,,,,,
1577363423,111,0,4231.794922,4516.410156,3970.256348,4167.179688,4000,16236,2,,,,0,0,4,4,4,4,,,,,,,,,,,,,,,,,,,,,,,,,,,,,,,,,,,,,
1577363423,112,0,4245.641113,4514.871582,3960.512939,4177.436035,4014.871826,450,2,,,,0,0,4,4,4,4,56,0,0.089896,-0.613525,0.342041,0.706055,0.918959,-0.375494,-0.032715,-17.331381,-54.217232,50.197433,,,,,,,,,,,,,,,,,,,,,,,,,
1577363423,113,0,4240,4556.922852,3945.641113,4174.358887,3997.94873,450,2,,,,0,0,4,4,4,4,,,,,,,,,,,,,,,,,,,,,,,,,,,,,,,,,,,,,
1577363423,114,0,4246.153809,4536.410156,3972.307617,4170.769043,4007.692383,450,2,,,,0,0,4,4,4,4,57,0,0.090436,-0.613037,0.342773,0.706055,0.923354,-0.384771,-0.038575,-17.512333,-54.298523,50.321812,,,,,,,,,,,,,,,,,,,,,,,,,
1577363423,115,0,4264.615234,4483.077148,3962.05127,4184.102539,4007.692383,16236,2,,,,0,0,4,4,4,4,,,,,,,,,,,,,,,,,,,,,,,,,,,,,,,,,,,,,
1577363423,116,0,4249.743652,4514.358887,3981.025635,4182.05127,4000.512939,450,2,,,,0,0,4,4,4,4,58,0,0.090964,-0.612549,0.343506,0.706055,0.931655,-0.412604,-0.046876,-15.820915,-54.311871,50.373936,,,,,,,,,,,,,,,,,,,,,,,,,
1577363423,117,0,4243.589844,4539.487305,3986.153809,4186.666504,4007.692383,450,2,,,,0,0,4,4,4,4,,,,,,,,,,,,,,,,,,,,,,,,,,,,,,,,,,,,,
1577363423,118,0,4241.025879,4512.820313,3976.410156,4188.205078,3999.487061,450,2,,,,0,0,4,4,4,4,59,0,0.089147,-0.612549,0.344482,0.705811,0.942397,-0.399908,-0.056153,-16.033285,-54.264065,50.301216,,,,,,,,,,,,,,,,,,,,,,,,,
1577363423,119,0,4255.897461,4513.333496,4009.743652,4191.794922,4028.718018,16236,2,,,,0,0,4,4,4,4,,,,,,,,,,,,,,,,,,,,,,,,,,,,,,,,,,,,,
1577363423,120,0,4263.589844,4514.358887,3978.974365,4185.128418,4027.692383,450,2,,,,0,0,4,4,4,4,60,0,0.090173,-0.612549,0.345215,0.705322,0.928237,-0.371588,-0.031739,-16.403864,-54.340672,50.3554,41.321526,17.50596,8.06282,6.626557,5.093829,15.969317,8.848964,24.196581,32.419567,12.645217,30.095367,4.215077,3.560872,13.266298,8.969442,33.348114,16.596478,9.931276,5.999197,5.760237,13.929116,8.730838,9.956587,13.156419,10.22608
1577363423,121,0,4237.436035,4515.384766,3981.025635,4164.615234,4003.076904,450,2,,,,0,0,4,4,4,4,,,,,,,,,,,,,,,,,,,,,,,,,,,,,,,,,,,,,
1577363424,122,0,4248.717773,4534.871582,4006.666748,4182.05127,4020.512939,450,2,,,,0,0,4,4,4,4,61,0,0.089996,-0.612305,0.346191,0.705078,0.921401,-0.38819,-0.036622,-16.617754,-54.469433,50.344353,,,,,,,,,,,,,,,,,,,,,,,,,
1577363424,123,0,4247.692383,4512.307617,3975.384521,4177.436035,4006.666748,16236,2,,,,0,0,4,4,4,4,,,,,,,,,,,,,,,,,,,,,,,,,,,,,,,,,,,,,
1577363424,124,0,4236.410156,4495.384766,3986.666748,4163.077148,4008.205078,450,2,,,,0,0,4,4,4,4,62,0,0.090029,-0.612305,0.34668,0.704834,0.925795,-0.381353,-0.020508,-16.810255,-54.405872,50.214775,,,,,,,,,,,,,,,,,,,,,,,,,
1577363424,125,0,4249.230957,4508.717773,3972.307617,4180,4013.333252,450,2,,,,0,0,4,4,4,4,,,,,,,,,,,,,,,,,,,,,,,,,,,,,,,,,,,,,
1577363424,126,0,4232.307617,4513.846191,3969.230713,4164.615234,3989.230713,450,2,,,,0,0,4,4,4,4,63,0,0.09192,-0.612305,0.34668,0.70459,0.932143,-0.369635,-0.010742,-15.189045,-54.288853,50.397236,,,,,,,,,,,,,,,,,,,,,,,,,
1577363424,127,0,4230.256348,4530.769043,4001.538574,4152.820313,3995.897461,228,2,,,,0,0,4,4,4,4,,,,,,,,,,,,,,,,,,,,,,,,,,,,,,,,,,,,,
1577363424,0,0,4230.769043,4531.794922,3986.153809,4157.436035,3990.769287,450,2,,,,0,0,4,4,4,4,0,0,0.090279,-0.612549,0.34668,0.70459,0.91017,-0.365728,-0.009277,-15.584231,-54.243351,50.561451,,,,,,,,,,,,,,,,,,,,,,,,,
1577363424,1,0,4224.102539,4518.974121,3995.384521,4164.102539,3997.94873,450,2,,,,0,0,4,4,4,4,,,,,,,,,,,,,,,,,,,,,,,,,,,,,,,,,,,,,
1577363424,2,0,4236.922852,4503.077148,3986.153809,4174.358887,4010.769287,16198,2,,,,0,4,4,4,4,4,1,0,0.092377,-0.612793,0.346191,0.704346,0.913588,-0.364752,-0.019532,-15.760454,-54.381847,50.589611,,,,,,,,,,,,,,,,,,,,,,,,,
1577363424,3,0,4227.692383,4479.487305,3987.692383,4150.256348,4002.05127,450,2,,,,0,4,4,4,4,4,,,,,,,,,,,,,,,,,,,,,,,,,,,,,,,,,,,,,
1577363424,4,0,4239.487305,4511.794922,4015.897461,4161.025879,4032.820557,16109,2,,,,0,4,4,4,4,4,2,0,0.091669,-0.613037,0.345947,0.704346,0.912123,-0.373053,-0.016602,-16.098501,-54.446674,50.555141,,,,,,,,,,,,,,,,,,,,,,,,,
1577363424,5,0,4251.794922,4542.563965,3980,4186.153809,4038.461426,450,2,,,,0,4,4,4,4,4,,,,,,,,,,,,,,,,,,,,,,,,,,,,,,,,,,,,,
1577363424,6,0,4234.871582,4523.589844,3990.256348,4168.205078,4027.179443,16127,2,,,,0,4,4,4,4,4,3,0,0.091197,-0.613525,0.345703,0.704102,0.920913,-0.369146,-0.02295,-16.342926,-54.385391,50.643749,,,,,,,,,,,,,,,,,,,,,,,,,
1577363424,7,0,4245.128418,4519.487305,4009.230713,4169.743652,4037.94873,450,2,,,,0,4,4,4,4,4,,,,,,,,,,,,,,,,,,,,,,,,,,,,,,,,,,,,,
1577363424,8,0,4246.153809,4536.922852,3994.358887,4175.384766,4027.692383,450,2,,,,0,4,4,4,4,4,4,0,0.092357,-0.61377,0.345459,0.703857,0.931655,-0.372564,-0.024903,-16.622726,-54.509682,50.544048,90.433052,36.111443,16.264652,10.5485,6.769675,16.711843,9.687242,21.730721,30.227079,12.094917,49.912498,7.149851,4.694756,13.181256,7.871844,67.69902,31.939213,18.331015,10.441533,7.099273,24.835873,9.93889,10.047438,11.529939,9.831906
1577363424,9,0,4242.05127,4535.384766,4011.794922,4187.179688,4030.256348,16193,2,,,,0,4,4,4,4,4,,,,,,,,,,,,,,,,,,,,,,,,,,,,,,,,,,,,,
1577363424,10,0,4248.717773,4522.563965,4005.128174,4200,4030.256348,450,2,,,,0,4,4,4,4,4,5,0,0.091199,-0.614502,0.345459,0.703369,0.941421,-0.353521,-0.008301,-16.81473,-54.501911,50.573948,,,,,,,,,,,,,,,,,,,,,,,,,
1577363424,11,0,4238.461426,4513.846191,4026.153809,4191.794922,4028.205078,16185,2,,,,0,4,4,4,4,4,,,,,,,,,,,,,,,,,,,,,,,,,,,,,,,,,,,,,
1577363424,12,0,4239.487305,4490.769043,4035.384521,4201.538574,4026.666748,450,2,,,,0,4,4,4,4,4,6,0,0.09095,-0.615234,0.345215,0.702881,0.951186,-0.352544,-0.003906,-17.166979,-54.375286,50.541046,,,,,,,,,,,,,,,,,,,,,,,,,
1577363424,13,0,4236.410156,4502.05127,4006.153809,4188.205078,4000.512939,450,2,,,,0,4,4,4,4,4,,,,,,,,,,,,,,,,,,,,,,,,,,,,,,,,,,,,,
1577363424,14,0,4232.820313,4552.820313,4021.025635,4174.358887,4006.666748,450,2,,,,0,4,4,4,4,4,7,0,0.089723,-0.615967,0.344727,0.702637,0.929702,-0.330571,0.007813,-17.184927,-54.261326,50.631062,,,,,,,,,,,,,,,,,,,,,,,,,
1577363424,15,0,4232.307617,4525.128418,3991.794922,4182.563965,4009.743652,16185,2,,,,0,4,4,4,4,4,,,,,,,,,,,,,,,,,,,,,,,,,,,,,,,,,,,,,
1577363424,16,0,4217.436035,4486.153809,3986.153809,4163.589844,4001.025635,0,2,,,,0,4,4,4,4,4,8,0,0.088469,-0.616699,0.344238,0.702393,0.917494,-0.332036,0.025879,-17.141264,-54.278393,50.592445,,,,,,,,,,,,,,,,,,,,,,,,,
1577363424,17,0,4225.641113,4527.179688,4008.718018,4167.692383,4013.333252,0,2,,,,0,4,4,4,4,4,,,,,,,,,,,,,,,,,,,,,,,,,,,,,,,,,,,,,
1577363424,18,0,4231.282227,4543.589844,3990.256348,4177.94873,4004.102539,0,2,,,,0,4,4,4,4,4,9,0,0.088899,-0.617188,0.34375,0.702148,0.904799,-0.358404,0.019043,-17.34123,-54.41338,50.617508,,,,,,,,,,,,,,,,,,,,,,,,,
1577363424,19,0,4232.820313,4510.769043,4017.94873,4169.743652,4017.435791,0,2,,,,0,4,4,4,4,4,,,,,,,,,,,,,,,,,,,,,,,,,,,,,,,,,,,,,
1577363424,20,0,4235.384766,4510.769043,3996.923096,4165.641113,4017.435791,0,2,,,,0,4,4,4,4,4,10,0,0.090068,-0.617432,0.343506,0.701904,0.91603,-0.358892,0.015625,-17.461384,-54.295612,50.460617,,,,,,,,,,,,,,,,,,,,,,,,,
1577363424,21,0,4215.384766,4526.666504,3977.435791,4158.974121,3992.820557,0,2,,,,0,4,4,4,4,4,,,,,,,,,,,,,,,,,,,,,,,,,,,,,,,,,,,,,
1577363424,22,0,4236.410156,4504.615234,4029.230713,4185.641113,4025.128174,0,2,,,,0,4,4,4,4,4,11,0,0.089322,-0.617676,0.343262,0.701904,0.919448,-0.353521,0.007324,-17.569521,-54.428879,50.498863,,,,,,,,,,,,,,,,,,,,,,,,,
1577363424,23,0,4249.743652,4498.461426,4011.794922,4190.769043,4026.153809,0,2,,,,0,4,4,4,4,4,,,,,,,,,,,,,,,,,,,,,,,,,,,,,,,,,,,,,
1577363424,24,0,4227.179688,4542.563965,3996.410156,4162.05127,4006.666748,0,2,,,,0,4,4,4,4,4,12,0,0.090068,-0.617432,0.343506,0.701904,0.911635,-0.379889,-0.013184,-17.666845,-54.309559,50.413651,153.560013,60.997395,27.039679,15.828098,8.715425,17.069643,11.621704,19.138494,27.008059,11.222895,72.269829,11.398793,6.543244,13.054848,6.890521,115.834702,52.215778,28.725502,16.171291,8.752268,39.199883,12.064961,10.217051,10.202408,9.218777
1577363424,25,0,4231.794922,4531.794922,3999.487061,4167.692383,4016.923096,0,2,,,,0,4,4,4,4,4,,,,,,,,,,,,,,,,,,,,,,,,,,,,,,,,,,,,,
1577363424,26,0,4218.461426,4475.384766,3987.692383,4155.897461,4003.589844,0,2,,,,0,4,4,4,4,4,13,0,0.091034,-0.617432,0.34375,0.70166,0.920424,-0.326665,-0.010742,-15.959976,-54.202171,50.456593,,,,,,,,,,,,,,,,,,,,,,,,,
1577363424,27,0,4213.846191,4512.307617,3992.307617,4141.538574,4013.333252,0,2,,,,0,4,4,4,4,4,,,,,,,,,,,,,,,,,,,,,,,,,,,,,,,,,,,,,
1577363424,28,0,4240,4564.102539,3990.256348,4157.94873,4028.718018,0,2,,,,0,4,4,4,4,4,14,0,0.087026,-0.617188,0.344727,0.701904,0.922866,-0.351568,-0.007813,-16.27807,-54.045704,50.555054,,,,,,,,,,,,,,,,,,,,,,,,,
1577363424,29,0,4242.563965,4534.358887,4025.128174,4163.589844,4028.205078,0,2,,,,0,4,4,4,4,4,,,,,,,,,,,,,,,,,,,,,,,,,,,,,,,,,,,,,
1577363424,30,0,4243.589844,4507.179688,4026.153809,4166.153809,4033.846191,0,2,,,,0,4,4,4,4,4,15,0,0.090068,-0.617432,0.343506,0.701904,0.911635,-0.379889,-0.013184,-16.444725,-54.14415,50.52404,,,,,,,,,,,,,,,,,,,,,,,,,
1577363424,31,0,4225.128418,4511.794922,3989.230713,4146.153809,4013.846191,0,2,,,,0,4,4,4,4,4,,,,,,,,,,,,,,,,,,,,,,,,,,,,,,,,,,,,,
1577363424,32,0,4205.128418,4529.230957,4002.05127,4127.179688,4014.871826,0,2,,,,0,4,4,4,4,4,16,0,0.087026,-0.617188,0.344727,0.701904,0.922866,-0.351568,-0.007813,-16.714344,-53.993484,50.615757,,,,,,,,,,,,,,,,,,,,,,,,,
1577363424,33,0,4214.358887,4535.384766,3989.230713,4147.179688,4025.128174,0,2,,,,0,4,4,4,4,4,,,,,,,,,,,,,,,,,,,,,,,,,,,,,,,,,,,,,
1577363424,34,0,4214.871582,4519.487305,3996.410156,4159.487305,4023.589844,0,2,,,,0,4,4,4,4,4,17,0,0.0864,-0.616455,0.346191,0.701904,0.920424,-0.364263,0.004883,-16.897186,-53.917706,50.459042,,,,,,,,,,,,,,,,,,,,,,,,,
1577363424,35,0,4225.641113,4514.871582,4018.461426,4157.436035,4034.871826,0,2,,,,0,4,4,4,4,4,,,,,,,,,,,,,,,,,,,,,,,,,,,,,,,,,,,,,
1577363424,36,0,4227.179688,4509.230957,4000,4150.769043,4031.281982,0,2,,,,0,4,4,4,4,4,18,0,0.084742,-0.615723,0.3479,0.701904,0.924819,-0.383307,0.001465,-16.942112,-53.909317,50.497444,,,,,,,,,,,,,,,,,,,,,,,,,
1577363424,37,0,4229.230957,4509.743652,4018.974365,4159.487305,4050.256348,0,2,,,,0,4,4,4,4,4,,,,,,,,,,,,,,,,,,,,,,,,,,,,,,,,,,,,,
1577363424,38,0,4234.871582,4515.384766,4003.589844,4164.102539,4047.692383,0,2,,,,0,4,4,4,4,4,19,0,0.084032,-0.61499,0.349365,0.701904,0.919448,-0.383795,-0.010254,-17.102177,-54.081215,50.532005,,,,,,,,,,,,,,,,,,,,,,,,,
1577363424,39,0,4212.820313,4509.230957,3999.487061,4137.94873,4013.333252,0,2,,,,0,4,4,4,4,4,,,,,,,,,,,,,,,,,,,,,,,,,,,,,,,,,,,,,
1577363424,40,0,4230.769043,4515.384766,4042.564209,4152.820313,4032.307617,0,2,,,,0,4,4,4,4,4,20,0,0.083282,-0.614258,0.35083,0.701904,0.915053,-0.40528,0,-17.246237,-53.996662,50.383663,217.868927,85.661568,37.46629,20.963213,10.320271,16.623615,13.736911,16.703947,22.884445,10.027789,92.207214,15.969553,8.603332,12.421259,6.036727,167.172852,71.913864,38.309772,21.701323,10.22547,53.005009,14.051474,10.190873,9.025101,8.297997
1577363424,41,0,4241.025879,4516.410156,4016.923096,4161.025879,4028.718018,0,2,,,,0,4,4,4,4,4,,,,,,,,,,,,,,,,,,,,,,,,,,,,,,,,,,,,,
1577363424,42,0,4204.102539,4498.974121,4018.974365,4128.205078,4012.820557,0,2,,,,0,4,4,4,4,4,21,0,0.081716,-0.61377,0.352051,0.701904,0.917006,-0.424811,-0.016114,-17.256258,-53.980377,50.429604,,,,,,,,,,,,,,,,,,,,,,,,,
1577363424,43,0,4207.179688,4487.179688,4036.410156,4133.846191,4027.692383,0,2,,,,0,4,4,4,4,4,,,,,,,,,,,,,,,,,,,,,,,,,,,,,,,,,,,,,
1577363424,44,0,4228.205078,4503.589844,4023.589844,4143.589844,4026.153809,0,2,,,,0,4,4,4,4,4,22,0,0.083237,-0.613281,0.353516,0.701416,0.905776,-0.437507,-0.013672,-17.265278,-53.905907,50.530766,,,,,,,,,,,,,,,,,,,,,,,,,
1577363424,45,0,4229.743652,4538.974121,4016.923096,4136.922852,4029.743652,0,2,,,,0,4,4,4,4,4,,,,,,,,,,,,,,,,,,,,,,,,,,,,,,,,,,,,,
1577363424,46,0,4214.358887,4537.436035,3990.769287,4125.128418,4013.333252,0,2,,,,0,4,4,4,4,4,23,0,0.08215,-0.613281,0.354736,0.700928,0.911635,-0.441901,-0.004883,-17.333212,-54.01833,50.621811,,,,,,,,,,,,,,,,,,,,,,,,,
1577363424,47,0,4205.641113,4504.615234,4014.871826,4114.358887,4009.230713,0,2,,,,0,4,4,4,4,4,,,,,,,,,,,,,,,,,,,,,,,,,,,,,,,,,,,,,
1577363424,48,0,4225.641113,4500.512695,4026.153809,4134.358887,4031.794922,0,2,,,,0,4,4,4,4,4,24,0,0.083895,-0.613037,0.355713,0.700439,0.912612,-0.427741,-0.006836,-17.334536,-53.999882,50.643936,,,,,,,,,,,,,,,,,,,,,,,,,
1577363424,49,0,4218.461426,4521.538574,4001.025635,4128.717773,4015.384521,0,2,,,,0,4,4,4,4,4,,,,,,,,,,,,,,,,,,,,,,,,,,,,,,,,,,,,,
1577363424,50,0,4218.974121,4531.794922,4023.589844,4123.077148,4031.794922,0,2,,,,0,4,4,4,4,4,25,0,0.083824,-0.613037,0.356689,0.699951,0.928725,-0.445808,0.003906,-17.275913,-53.923458,50.544216,,,,,,,,,,,,,,,,,,,,,,,,,
1577363424,51,0,4245.128418,4504.102539,4017.435791,4142.05127,4052.307617,0,2,,,,0,4,4,4,4,4,,,,,,,,,,,,,,,,,,,,,,,,,,,,,,,,,,,,,
1577363424,52,0,4233.333496,4495.384766,4023.076904,4126.153809,4034.871826,0,2,,,,0,4,4,4,4,4,26,0,0.083034,-0.613281,0.356934,0.699707,0.918959,-0.406744,0.002441,-17.282967,-53.854683,50.514286,,,,,,,,,,,,,,,,,,,,,,,,,
1577363424,53,0,4240.512695,4544.102539,4038.461426,4128.717773,4054.358887,0,2,,,,0,4,4,4,4,4,,,,,,,,,,,,,,,,,,,,,,,,,,,,,,,,,,,,,
1577363424,54,0,4260,4550.256348,4027.179443,4142.563965,4066.666748,0,2,,,,0,4,4,4,4,4,27,0,0.084284,-0.613525,0.357178,0.699219,0.922866,-0.38526,0.02295,-17.289316,-53.732964,50.487347,,,,,,,,,,,,,,,,,,,,,,,,,
1577363424,55,0,4260.512695,4502.563965,4053.846191,4150.769043,4070.256348,0,2,,,,0,4,4,4,4,4,,,,,,,,,,,,,,,,,,,,,,,,,,,,,,,,,,,,,
1577363424,56,0,4257.436035,4488.717773,4023.589844,4161.538574,4057.435791,0,2,,,,0,4,4,4,4,4,28,0,0.085268,-0.613525,0.357422,0.698975,0.891127,-0.376959,0.021485,-17.354845,-53.802868,50.522919,259.199585,102.128098,44.22049,24.180384,10.974745,15.160774,14.875346,14.328775,18.150948,8.615163,101.764626,19.398222,10.127637,11.000295,5.220065,203.258133,84.609505,44.107101,25.230989,10.931667,60.905018,14.842513,9.69072,7.759943,7.036115
1577363424,57,0,4233.333496,4538.461426,4001.538574,4137.94873,4031.794922,0,2,,,,0,4,4,4,4,4,,,,,,,,,,,,,,,,,,,,,,,,,,,,,,,,,,,,,
1577363424,58,0,4237.94873,4558.974121,4035.384521,4140,4049.743652,0,2,,,,0,4,4,4,4,4,29,0,0.085268,-0.613525,0.357422,0.698975,0.905287,-0.360845,0.016114,-17.294191,-53.86578,50.61475,,,,,,,,,,,,,,,,,,,,,,,,,
1577363424,59,0,4261.538574,4501.538574,4031.794922,4161.025879,4053.333252,0,2,,,,0,4,4,4,4,4,,,,,,,,,,,,,,,,,,,,,,,,,,,,,,,,,,,,,
1577363424,60,0,4268.717773,4508.205078,4053.333252,4162.05127,4063.589844,0,2,,,,0,4,4,4,4,4,30,0,0.085268,-0.613525,0.357422,0.698975,0.925307,-0.380377,0.02295,-17.299417,-54.04203,50.75721,,,,,,,,,,,,,,,,,,,,,,,,,
1577363424,61,0,4250.769043,4541.538574,4028.205078,4152.820313,4059.487061,0,2,,,,0,4,4,4,4,4,,,,,,,,,,,,,,,,,,,,,,,,,,,,,,,,,,,,,
1577363424,62,0,4222.05127,4507.179688,4011.794922,4136.922852,4031.281982,0,2,,,,0,4,4,4,4,4,31,0,0.083243,-0.613525,0.357422,0.699219,0.919448,-0.371588,0.007813,-17.363937,-54.140839,50.885426,,,,,,,,,,,,,,,,,,,,,,,,,
1577363424,63,0,4245.128418,4524.615234,4060,4163.077148,4064.615479,0,2,,,,0,4,4,4,4,4,,,,,,,,,,,,,,,,,,,,,,,,,,,,,,,,,,,,,
1577363424,64,0,4246.666504,4561.025879,4037.435791,4174.358887,4063.589844,450,2,,,,0,4,4,4,4,4,32,0,0.084284,-0.613525,0.357178,0.699219,0.921401,-0.368658,0.011719,-17.481819,-54.229771,50.941006,,,,,,,,,,,,,,,,,,,,,,,,,
1577363424,65,0,4212.307617,4514.871582,4044.102539,4154.358887,4033.333252,450,2,,,,0,4,4,4,4,4,,,,,,,,,,,,,,,,,,,,,,,,,,,,,,,,,,,,,
1577363424,66,0,4229.743652,4500.512695,4068.205078,4171.282227,4044.102539,16195,2,,,,0,4,4,4,4,4,33,0,0.08253,-0.61377,0.356689,0.699463,0.922377,-0.38819,0.009766,-17.528099,-54.190178,50.991028,,,,,,,,,,,,,,,,,,,,,,,,,
1577363424,67,0,4235.384766,4544.102539,4047.692383,4174.871582,4040.512939,450,2,,,,0,4,4,4,4,4,,,,,,,,,,,,,,,,,,,,,,,,,,,,,,,,,,,,,
1577363424,68,0,4231.282227,4551.282227,4053.333252,4173.846191,4050.256348,16111,2,,,,0,4,4,4,4,4,34,0,0.079649,-0.614014,0.356445,0.699707,0.926772,-0.384283,0.010254,-17.450119,-54.214355,51.036045,,,,,,,,,,,,,,,,,,,,,,,,,
1577363424,69,0,4241.025879,4519.487305,4042.564209,4182.563965,4054.358887,450,2,,,,0,4,4,4,4,4,,,,,,,,,,,,,,,,,,,,,,,,,,,,,,,,,,,,,
1577363424,70,0,4223.589844,4501.025879,4046.153809,4162.05127,4040.512939,16153,2,,,,0,4,4,4,4,4,35,0,0.07995,-0.614258,0.355957,0.699707,0.905776,-0.392584,0.022461,-17.559383,-54.176304,50.956932,,,,,,,,,,,,,,,,,,,,,,,,,
1577363424,71,0,4229.743652,4504.615234,4048.718018,4163.077148,4052.820557,450,2,,,,0,4,4,4,4,4,,,,,,,,,,,,,,,,,,,,,,,,,,,,,,,,,,,,,
1577363424,72,0,4238.461426,4504.102539,4043.076904,4173.846191,4060,450,2,,,,0,4,4,4,4,4,36,0,0.077002,-0.614502,0.355225,0.700195,0.883803,-0.401373,0.026368,-17.418459,-54.142056,51.00536,267.057556,104.443565,44.876514,24.235577,10.345658,12.749674,14.238167,11.774959,13.254676,7.184441,98.544548,20.417089,10.506169,8.872318,4.342242,213.479782,85.724922,44.059341,25.474771,10.479398,60.625557,14.016179,8.593221,6.298911,5.523034
1577363424,73,0,4240,4519.487305,4075.897461,4174.871582,4078.974365,16211,2,,,,0,4,4,4,4,4,,,,,,,,,,,,,,,,,,,,,,,,,,,,,,,,,,,,,
1577363424,74,0,4251.794922,4511.794922,4055.897461,4176.410156,4084.102539,450,2,,,,0,4,4,4,4,4,37,0,0.078149,-0.614502,0.354492,0.700439,0.879896,-0.414557,0.032227,-17.291628,-54.230865,50.989128,,,,,,,,,,,,,,,,,,,,,,,,,
1577363424,75,0,4237.436035,4498.974121,4052.820557,4160,4066.153809,16203,2,,,,0,4,4,4,4,4,,,,,,,,,,,,,,,,,,,,,,,,,,,,,,,,,,,,,
1577363424,76,0,4244.615234,4531.794922,4075.384521,4167.692383,4075.897461,450,2,,,,0,4,4,4,4,4,38,0,0.079004,-0.614258,0.35376,0.700928,0.893568,-0.411139,-0.004883,-17.476557,-54.370605,51.03434,,,,,,,,,,,,,,,,,,,,,,,,,
1577363424,77,0,4249.743652,4540.512695,4044.102539,4171.282227,4075.897461,450,2,,,,0,4,4,4,4,4,,,,,,,,,,,,,,,,,,,,,,,,,,,,,,,,,,,,,
1577363424,78,0,4234.871582,4509.743652,4059.487061,4157.436035,4082.05127,450,2,,,,0,4,4,4,4,4,39,0,0.07763,-0.614014,0.354004,0.701172,0.889662,-0.421393,-0.001953,-17.343916,-54.316929,51.075027,,,,,,,,,,,,,,,,,,,,,,,,,
1577363424,79,0,4240.512695,4497.436035,4052.820557,4164.615234,4086.153809,16203,2,,,,0,4,4,4,4,4,,,,,,,,,,,,,,,,,,,,,,,,,,,,,,,,,,,,,
1577363424,80,0,4226.666504,4525.641113,4036.410156,4141.538574,4068.205078,450,2,,,,0,4,4,4,4,4,40,0,0.077871,-0.613281,0.354736,0.701416,0.9131,-0.437507,-0.019532,-17.34417,-54.328434,50.992016,,,,,,,,,,,,,,,,,,,,,,,,,
1577363424,81,0,4225.641113,4536.410156,4063.589844,4132.820313,4071.794922,450,2,,,,0,4,4,4,4,4,,,,,,,,,,,,,,,,,,,,,,,,,,,,,,,,,,,,,
1577363424,82,0,4241.025879,4512.820313,4043.076904,4148.717773,4068.205078,450,2,,,,0,4,4,4,4,4,41,0,0.076125,-0.612793,0.355957,0.701416,0.937026,-0.43946,-0.014649,-17.404215,-54.338791,51.036934,,,,,,,,,,,,,,,,,,,,,,,,,
1577363424,83,0,4235.897461,4522.563965,4052.307617,4137.94873,4068.205078,16203,2,,,,0,4,4,4,4,4,,,,,,,,,,,,,,,,,,,,,,,,,,,,,,,,,,,,,
1577363424,84,0,4242.05127,4536.410156,4059.487061,4141.538574,4069.230713,450,2,,,,0,4,4,4,4,4,42,0,0.079613,-0.612061,0.356934,0.701172,0.932631,-0.41944,-0.006836,-17.398439,-54.34811,51.017548,,,,,,,,,,,,,,,,,,,,,,,,,
1577363424,85,0,4241.538574,4519.487305,4043.076904,4148.205078,4062.564209,450,2,,,,0,4,4,4,4,4,,,,,,,,,,,,,,,,,,,,,,,,,,,,,,,,,,,,,
1577363424,86,0,4241.538574,4522.563965,4049.230713,4152.820313,4082.564209,450,2,,,,0,4,4,4,4,4,43,0,0.077871,-0.613281,0.354736,0.701416,0.9131,-0.437507,-0.019532,-17.333426,-54.416313,50.940285,,,,,,,,,,,,,,,,,,,,,,,,,
1577363424,87,0,4236.922852,4506.153809,4012.307617,4143.077148,4066.666748,16203,2,,,,0,4,4,4,4,4,,,,,,,,,,,,,,,,,,,,,,,,,,,,,,,,,,,,,
1577363424,88,0,4232.820313,4480,4034.358887,4134.871582,4065.128174,450,2,,,,0,4,4,4,4,4,44,0,0.079613,-0.612061,0.356934,0.701172,0.932631,-0.41944,-0.006836,-17.334728,-54.417877,50.930561,233.719299,91.70047,39.21558,21.030445,8.555832,9.744389,11.825394,9.011151,8.771582,5.948351,82.13942,18.701172,9.643412,6.471377,3.401411,190.936142,74.852089,38.175083,22.283525,8.88043,51.802528,11.861387,6.978008,4.720226,3.958629
1577363424,89,0,4261.025879,4518.461426,4065.641113,4172.307617,4106.666504,450,2,,,,0,4,4,4,4,4,,,,,,,,,,,,,,,,,,,,,,,,,,,,,,,,,,,,,
1577363424,90,0,4250.256348,4533.846191,4041.025635,4169.743652,4091.281982,450,2,,,,0,4,4,4,4,4,45,0,0.07791,-0.611572,0.357666,0.701416,0.894545,-0.407233,0.008301,-17.276085,-54.479103,50.861996,,,,,,,,,,,,,,,,,,,,,,,,,
1577363424,91,0,4232.820313,4495.897461,4071.281982,4160.512695,4091.794922,16203,2,,,,0,4,4,4,4,4,,,,,,,,,,,,,,,,,,,,,,,,,,,,,,,,,,,,,
1577363424,92,0,4253.333496,4496.410156,4067.179443,4185.641113,4102.05127,450,2,,,,0,4,4,4,4,4,46,0,0.077582,-0.611328,0.358154,0.701416,0.894057,-0.406744,0.006348,-17.283123,-54.474392,50.860104,,,,,,,,,,,,,,,,,,,,,,,,,
1577363424,93,0,4240,4520.512695,4056.410156,4163.589844,4072.307617,450,2,,,,0,4,4,4,4,4,,,,,,,,,,,,,,,,,,,,,,,,,,,,,,,,,,,,,
1577363424,94,0,4233.333496,4515.897461,4072.820557,4147.692383,4071.794922,450,2,,,,0,4,4,4,4,4,47,0,0.076673,-0.610596,0.358643,0.701904,0.897475,-0.399908,-0.025879,-17.289455,-54.410336,50.858398,,,,,,,,,,,,,,,,,,,,,,,,,
1577363424,95,0,4233.333496,4501.538574,4051.281982,4143.589844,4057.94873,16203,2,,,,0,4,4,4,4,4,,,,,,,,,,,,,,,,,,,,,,,,,,,,,,,,,,,,,
1577363424,96,0,4223.077148,4513.333496,4056.923096,4129.230957,4053.846191,450,2,,,,0,4,4,4,4,4,48,0,0.076036,-0.610107,0.359131,0.702148,0.899916,-0.404791,-0.017578,-17.295156,-54.412502,50.737232,,,,,,,,,,,,,,,,,,,,,,,,,
1577363424,97,0,4227.692383,4521.538574,4043.589844,4145.128418,4064.102539,450,2,,,,0,4,4,4,4,4,,,,,,,,,,,,,,,,,,,,,,,,,,,,,,,,,,,,,
1577363424,98,0,4222.563965,4535.384766,4057.94873,4157.436035,4057.435791,450,2,,,,0,4,4,4,4,4,49,0,0.077628,-0.609619,0.359619,0.702148,0.896986,-0.433112,-0.021485,-17.240471,-54.474266,50.747818,,,,,,,,,,,,,,,,,,,,,,,,,
1577363424,99,0,4235.384766,4554.358887,4100,4167.692383,4081.538574,16203,2,,,,0,4,4,4,4,4,,,,,,,,,,,,,,,,,,,,,,,,,,,,,,,,,,,,,
1577363424,100,0,4241.025879,4508.717773,4066.153809,4171.282227,4080.512939,450,2,,,,0,4,4,4,4,4,50,0,0.077281,-0.609375,0.360107,0.702148,0.929702,-0.435554,-0.035645,-17.191254,-54.589668,50.817158,,,,,,,,,,,,,,,,,,,,,,,,,
1577363424,101,0,4236.410156,4484.615234,4075.384521,4169.743652,4084.102539,450,2,,,,0,4,4,4,4,4,,,,,,,,,,,,,,,,,,,,,,,,,,,,,,,,,,,,,
1577363424,102,0,4252.307617,4510.256348,4081.025635,4176.922852,4105.641113,450,2,,,,0,4,4,4,4,4,51,0,0.078353,-0.609375,0.360352,0.701904,0.951186,-0.440925,-0.024903,-17.146959,-54.573898,50.700115,,,,,,,,,,,,,,,,,,,,,,,,,
1577363424,103,0,4235.384766,4501.025879,4065.128174,4159.487305,4089.743652,16203,2,,,,0,4,4,4,4,4,,,,,,,,,,,,,,,,,,,,,,,,,,,,,,,,,,,,,
1577363424,104,0,4241.538574,4494.358887,4090.769287,4165.128418,4100,450,2,,,,0,4,4,4,4,4,52,0,0.07941,-0.609375,0.360596,0.70166,0.913588,-0.427741,-0.023926,-17.107094,-54.499893,50.774227,175.889313,68.440247,29.155548,15.660729,6.141988,6.744341,8.383421,6.204327,5.292298,5.09142,58.732887,14.939739,7.855654,4.288959,2.48468,147.017914,55.777161,28.40457,16.749231,6.564907,38.231815,9.009988,5.050901,3.212173,2.577704
1577363424,105,0,4252.820313,4504.615234,4061.538574,4174.358887,4093.846191,450,2,,,,0,4,4,4,4,4,,,,,,,,,,,,,,,,,,,,,,,,,,,,,,,,,,,,,
1577363424,106,0,4220.512695,4526.153809,4063.076904,4149.230957,4073.846191,450,2,,,,0,4,4,4,4,4,53,0,0.077802,-0.609863,0.360596,0.701416,0.905776,-0.400397,-0.002441,-17.190845,-54.612732,50.721294,,,,,,,,,,,,,,,,,,,,,,,,,
1577363424,107,0,4223.077148,4537.94873,4078.974365,4156.922852,4088.205078,16203,2,,,,0,4,4,4,4,4,,,,,,,,,,,,,,,,,,,,,,,,,,,,,,,,,,,,,
1577363424,108,0,4229.743652,4510.256348,4061.025635,4164.102539,4087.179443,450,2,,,,0,4,4,4,4,4,54,0,0.08025,-0.610107,0.360596,0.700928,0.919936,-0.370123,-0.009766,-17.146591,-54.594658,50.733471,,,,,,,,,,,,,,,,,,,,,,,,,
1577363424,109,0,4233.846191,4508.717773,4087.179443,4166.666504,4103.589844,450,2,,,,0,4,4,4,4,4,,,,,,,,,,,,,,,,,,,,,,,,,,,,,,,,,,,,,
1577363424,110,0,4240.512695,4528.717773,4068.205078,4167.692383,4104.102539,450,2,,,,0,4,4,4,4,4,55,0,0.078652,-0.610596,0.360596,0.700684,0.935073,-0.367193,-0.010254,-17.046946,-54.638206,50.864059,,,,,,,,,,,,,,,,,,,,,,,,,
1577363424,111,0,4218.974121,4521.538574,4064.102539,4143.077148,4084.102539,16203,2,,,,0,4,4,4,4,4,,,,,,,,,,,,,,,,,,,,,,,,,,,,,,,,,,,,,
1577363424,112,0,4230.256348,4521.025879,4090.256348,4162.05127,4100,450,2,,,,0,4,4,4,4,4,56,0,0.077871,-0.61084,0.360352,0.700684,0.917494,-0.361822,0.013184,-17.136713,-54.737213,50.802143,,,,,,,,,,,,,,,,,,,,,,,,,
1577363424,113,0,4241.538574,4525.641113,4075.897461,4174.871582,4103.077148,450,2,,,,0,4,4,4,4,4,,,,,,,,,,,,,,,,,,,,,,,,,,,,,,,,,,,,,
1577363424,114,0,4236.410156,4504.615234,4101.025879,4161.538574,4107.692383,450,2,,,,0,4,4,4,4,4,57,0,0.077364,-0.611328,0.360107,0.700439,0.924819,-0.377935,0.014649,-17.217503,-54.826321,50.866051,,,,,,,,,,,,,,,,,,,,,,,,,
1577363424,115,0,4244.615234,4480.512695,4087.692383,4173.846191,4104.102539,16203,2,,,,0,4,4,4,4,4,,,,,,,,,,,,,,,,,,,,,,,,,,,,,,,,,,,,,
1577363424,116,0,4234.358887,4501.538574,4072.820557,4166.153809,4086.153809,450,2,,,,0,4,4,4,4,4,58,0,0.075471,-0.611572,0.359619,0.700684,0.920913,-0.377447,0.015625,-17.170582,-54.786888,50.923569,,,,,,,,,,,,,,,,,,,,,,,,,
1577363424,117,0,4241.538574,4553.333496,4104.102539,4174.358887,4105.641113,450,2,,,,0,4,4,4,4,4,,,,,,,,,,,,,,,,,,,,,,,,,,,,,,,,,,,,,
1577363424,118,0,4248.205078,4551.282227,4093.333252,4187.692383,4109.743652,450,2,,,,0,4,4,4,4,4,59,0,0.075471,-0.611572,0.359619,0.700684,0.904799,-0.394537,0.005371,-17.128355,-54.990658,50.975334,,,,,,,,,,,,,,,,,,,,,,,,,
1577363424,119,0,4235.897461,4517.436035,4100.512695,4172.307617,4105.128418,16203,2,,,,0,4,4,4,4,4,,,,,,,,,,,,,,,,,,,,,,,,,,,,,,,,,,,,,
1577363424,120,0,4237.436035,4518.461426,4074.358887,4166.666504,4095.384521,450,2,,,,0,4,4,4,4,4,60,0,0.076626,-0.611572,0.359375,0.700684,0.918471,-0.390631,0.015137,-17.20998,-55.05442,51.021919,108.446854,42.490616,18.081438,9.85944,3.800795,4.22579,4.962785,3.753948,3.031751,4.677175,34.745338,10.367014,5.716475,2.659826,1.724194,93.228645,34.873772,17.864985,10.643771,4.184544,23.901714,6.20697,3.190922,1.999713,1.559212
1577363424,121,0,4227.179688,4515.897461,4056.410156,4155.384766,4078.461426,450,2,,,,0,4,4,4,4,4,,,,,,,,,,,,,,,,,,,,,,,,,,,,,,,,,,,,,
1577363425,122,0,4238.461426,4506.153809,4099.487305,4166.666504,4109.230957,450,2,,,,0,4,4,4,4,4,61,0,0.072323,-0.611816,0.359375,0.700928,0.914076,-0.375982,0.015137,-17.163813,-54.932362,51.004036,,,,,,,,,,,,,,,,,,,,,,,,,
1577363425,123,0,4255.384766,4508.717773,4085.641113,4184.615234,4112.820313,16203,2,,,,0,4,4,4,4,4,,,,,,,,,,,,,,,,,,,,,,,,,,,,,,,,,,,,,
1577363425,124,0,4234.871582,4517.436035,4092.820557,4167.692383,4087.179443,450,2,,,,0,4,4,4,4,4,62,0,0.074359,-0.611572,0.359375,0.700928,0.897475,-0.391119,0.013184,-17.062447,-55.061771,50.987938,,,,,,,,,,,,,,,,,,,,,,,,,
1577363425,125,0,4226.666504,4530.256348,4096.410156,4163.077148,4086.666748,450,2,,,,0,4,4,4,4,4,,,,,,,,,,,,,,,,,,,,,,,,,,,,,,,,,,,,,
1577363425,126,0,4218.461426,4526.153809,4073.333252,4155.384766,4071.794922,450,2,,,,0,4,4,4,4,4,63,0,0.07287,-0.611328,0.359619,0.701172,0.886732,-0.409674,0.003906,-17.031031,-54.938976,50.853821,,,,,,,,,,,,,,,,,,,,,,,,,
1577363425,127,0,4214.871582,4515.897461,4095.897461,4149.743652,4081.538574,228,2,,,,0,4,4,4,4,4,,,,,,,,,,,,,,,,,,,,,,,,,,,,,,,,,,,,,
1577363425,0,0,4229.743652,4517.436035,4074.871826,4159.487305,4091.794922,450,2,,,,0,4,4,4,4,4,0,0,0.068904,-0.611084,0.359863,0.70166,0.900893,-0.420905,0.012207,-17.182205,-54.948093,50.792927,,,,,,,,,,,,,,,,,,,,,,,,,
1577363425,1,0,4233.846191,4538.974121,4090.256348,4163.589844,4095.897461,450,2,,,,0,4,4,4,4,4,,,,,,,,,,,,,,,,,,,,,,,,,,,,,,,,,,,,,
1577363425,2,0,4245.641113,4552.307617,4124.615234,4173.846191,4120,16221,2,,,,0,4,4,4,4,4,1,0,0.06908,-0.610352,0.360596,0.701904,0.892592,-0.431647,0.007324,-17.138815,-54.956295,50.738125,,,,,,,,,,,,,,,,,,,,,,,,,
1577363425,3,0,4235.897461,4514.358887,4087.179443,4159.487305,4094.871826,450,2,,,,0,4,4,4,4,4,,,,,,,,,,,,,,,,,,,,,,,,,,,,,,,,,,,,,
1577363425,4,0,4232.307617,4488.717773,4096.410156,4163.589844,4094.871826,16128,2,,,,0,4,4,4,4,4,2,0,0.067953,-0.609619,0.361572,0.702148,0.903334,-0.43946,-0.001953,-17.039948,-54.903866,50.688805,,,,,,,,,,,,,,,,,,,,,,,,,
1577363425,5,0,4252.820313,4503.589844,4100.512695,4193.846191,4114.358887,450,2,,,,0,4,4,4,4,4,,,,,,,,,,,,,,,,,,,,,,,,,,,,,,,,,,,,,
1577363425,6,0,4226.153809,4529.743652,4085.128174,4164.102539,4083.076904,16145,2,,,,0,4,4,4,4,4,3,0,0.068557,-0.608398,0.363037,0.702393,0.896498,-0.460945,-0.021485,-16.891153,-54.976307,50.584599,,,,,,,,,,,,,,,,,,,,,,,,,
1577363425,7,0,4225.128418,4543.077148,4086.666748,4152.307617,4080.512939,450,2,,,,0,4,4,4,4,4,,,,,,,,,,,,,,,,,,,,,,,,,,,,,,,,,,,,,
1577363425,8,0,4241.538574,4517.94873,4073.333252,4172.820313,4080,450,2,,,,0,4,4,4,4,4,4,0,0.068144,-0.607422,0.364746,0.702393,0.904311,-0.486336,-0.030274,-16.757236,-55.101322,50.78989,54.370678,21.114416,9.018209,5.177559,2.072212,2.480861,2.465815,2.088948,1.844657,4.598671,16.553118,6.280948,3.857738,1.700412,1.211992,48.62196,17.85252,9.245255,5.611744,2.327246,13.08794,4.092771,1.823638,1.211872,0.953816
1577363425,9,0,4228.205078,4495.384766,4101.538574,4162.563965,4082.05127,16196,2,,,,0,4,4,4,4,4,,,,,,,,,,,,,,,,,,,,,,,,,,,,,,,,,,,,,
1577363425,10,0,4240.512695,4500.512695,4097.94873,4167.179688,4103.589844,450,2,,,,0,4,4,4,4,4,5,0,0.068016,-0.606689,0.366455,0.702148,0.902358,-0.475593,-0.021973,-16.636713,-54.914757,50.855022,,,,,,,,,,,,,,,,,,,,,,,,,
1577363425,11,0,4240.512695,4528.205078,4087.179443,4171.282227,4107.179688,16199,2,,,,0,4,4,4,4,4,,,,,,,,,,,,,,,,,,,,,,,,,,,,,,,,,,,,,
1577363425,12,0,4250.769043,4547.692383,4121.025879,4178.461426,4135.897461,450,2,,,,0,4,4,4,4,4,6,0,0.070765,-0.606201,0.367676,0.70166,0.908217,-0.478035,-0.025391,-16.588057,-55.045925,50.853828,,,,,,,,,,,,,,,,,,,,,,,,,
1577363425,13,0,4266.153809,4499.487305,4102.563965,4188.717773,4143.589844,450,2,,,,0,4,4,4,4,4,,,,,,,,,,,,,,,,,,,,,,,,,,,,,,,,,,,,,
1577363425,14,0,4254.358887,4481.025879,4113.846191,4178.461426,4135.897461,450,2,,,,0,4,4,4,4,4,7,0,0.068144,-0.607422,0.364746,0.702393,0.904311,-0.486336,-0.030274,-16.484449,-55.163979,51.032196,,,,,,,,,,,,,,,,,,,,,,,,,
1577363425,15,0,4259.487305,4536.410156,4116.410156,4181.025879,4140.512695,16199,2,,,,0,4,4,4,4,4,,,,,,,,,,,,,,,,,,,,,,,,,,,,,,,,,,,,,
1577363425,16,0,4250.769043,4527.692383,4089.743652,4169.743652,4124.102539,0,2,,,,0,4,4,4,4,4,8,0,0.070765,-0.606201,0.367676,0.70166,0.908217,-0.478035,-0.025391,-16.451019,-55.270226,51.013283,,,,,,,,,,,,,,,,,,,,,,,,,
1577363425,17,0,4256.922852,4487.179688,4124.102539,4173.333496,4149.743652,0,2,,,,0,4,4,4,4,4,,,,,,,,,,,,,,,,,,,,,,,,,,,,,,,,,,,,,
1577363425,18,0,4275.897461,4492.820313,4114.358887,4190.256348,4164.102539,0,2,,,,0,4,4,4,4,4,9,0,0.070066,-0.605957,0.369141,0.701172,0.903822,-0.455573,-0.015625,-16.361118,-55.246216,50.996262,,,,,,,,,,,,,,,,,,,,,,,,,
1577363425,19,0,4255.384766,4507.692383,4112.307617,4176.922852,4145.128418,0,2,,,,0,4,4,4,4,4,,,,,,,,,,,,,,,,,,,,,,,,,,,,,,,,,,,,,
1577363425,20,0,4248.205078,4523.077148,4125.641113,4186.153809,4148.717773,0,2,,,,0,4,4,4,4,4,10,0,0.070945,-0.605957,0.370361,0.700439,0.894057,-0.468757,-0.002441,-16.280205,-55.284424,51.040756,,,,,,,,,,,,,,,,,,,,,,,,,
1577363425,21,0,4238.974121,4515.384766,4101.025879,4175.897461,4124.102539,0,2,,,,0,4,4,4,4,4,,,,,,,,,,,,,,,,,,,,,,,,,,,,,,,,,,,,,
1577363425,22,0,4232.307617,4491.794922,4121.025879,4160,4121.538574,0,2,,,,0,4,4,4,4,4,11,0,0.070658,-0.605957,0.371338,0.699951,0.889174,-0.461921,-0.02002,-16.2672,-55.258995,51.080803,,,,,,,,,,,,,,,,,,,,,,,,,
1577363425,23,0,4253.846191,4503.077148,4110.769043,4184.102539,4140.512695,0,2,,,,0,4,4,4,4,4,,,,,,,,,,,,,,,,,,,,,,,,,,,,,,,,,,,,,
1577363425,24,0,4246.666504,4541.025879,4106.666504,4172.820313,4131.282227,0,2,,,,0,4,4,4,4,4,12,0,0.07274,-0.605957,0.372314,0.699219,0.895033,-0.466316,-0.014649,-16.255495,-55.116478,51.236473,19.914339,8.062293,3.508507,2.350966,1.140238,1.573284,1.226327,1.293588,1.409877,4.657452,6.053343,3.473123,2.670116,1.293232,0.95483,19.085453,7.527469,3.919631,2.498165,1.256329,7.113092,2.931244,1.139065,0.799352,0.689684
1577363425,25,0,4231.794922,4537.94873,4122.05127,4153.333496,4128.717773,0,2,,,,0,4,4,4,4,4,,,,,,,,,,,,,,,,,,,,,,,,,,,,,,,,,,,,,
1577363425,26,0,4229.230957,4484.102539,4096.410156,4151.282227,4112.307617,0,2,,,,0,4,4,4,4,4,13,0,0.073674,-0.605957,0.373047,0.69873,0.910658,-0.465339,-0.012696,-16.185144,-55.16766,51.256947,,,,,,,,,,,,,,,,,,,,,,,,,
1577363425,27,0,4242.563965,4493.333496,4124.102539,4162.05127,4124.615234,0,2,,,,0,4,4,4,4,4,,,,,,,,,,,,,,,,,,,,,,,,,,,,,,,,,,,,,
1577363425,28,0,4255.897461,4536.922852,4121.025879,4177.436035,4131.794922,0,2,,,,0,4,4,4,4,4,14,0,0.076094,-0.606201,0.373535,0.697998,0.892592,-0.424811,0.000977,-16.062014,-54.974461,51.33519,,,,,,,,,,,,,,,,,,,,,,,,,
1577363425,29,0,4243.077148,4527.179688,4108.205078,4163.589844,4108.717773,0,2,,,,0,4,4,4,4,4,,,,,,,,,,,,,,,,,,,,,,,,,,,,,,,,,,,,,
1577363425,30,0,4264.615234,4512.820313,4140.512695,4188.205078,4137.94873,0,2,,,,0,4,4,4,4,4,15,0,0.077416,-0.606445,0.373779,0.69751,0.897475,-0.409674,0.005859,-16.130644,-54.98003,51.585052,,,,,,,,,,,,,,,,,,,,,,,,,
1577363425,31,0,4268.717773,4509.743652,4111.794922,4204.102539,4129.230957,0,2,,,,0,4,4,4,4,4,,,,,,,,,,,,,,,,,,,,,,,,,,,,,,,,,,,,,
1577363425,32,0,4236.410156,4515.384766,4118.974121,4174.871582,4104.615234,0,2,,,,0,4,4,4,4,4,16,0,0.078711,-0.606689,0.374023,0.697021,0.912123,-0.381842,0.013184,-16.132593,-54.985039,51.630486,,,,,,,,,,,,,,,,,,,,,,,,,
1577363425,33,0,4249.743652,4513.846191,4127.692383,4184.102539,4129.230957,0,2,,,,0,4,4,4,4,4,,,,,,,,,,,,,,,,,,,,,,,,,,,,,,,,,,,,,
1577363425,34,0,4250.256348,4504.615234,4106.666504,4185.128418,4128.717773,0,2,,,,0,4,4,4,4,4,17,0,0.078266,-0.607178,0.373779,0.696777,0.921889,-0.380865,0.016602,-16.014719,-54.810104,51.671375,,,,,,,,,,,,,,,,,,,,,,,,,
1577363425,35,0,4243.077148,4517.436035,4125.128418,4177.94873,4135.897461,0,2,,,,0,4,4,4,4,4,,,,,,,,,,,,,,,,,,,,,,,,,,,,,,,,,,,,,
1577363425,36,0,4247.692383,4526.666504,4097.436035,4181.025879,4134.358887,0,2,,,,0,4,4,4,4,4,18,0,0.07954,-0.607422,0.374023,0.696289,0.911147,-0.390631,0.021973,-16.147892,-54.772289,51.588543,,,,,,,,,,,,,,,,,,,,,,,,,
1577363425,37,0,4244.615234,4517.436035,4114.358887,4181.025879,4134.871582,0,2,,,,0,4,4,4,4,4,,,,,,,,,,,,,,,,,,,,,,,,,,,,,,,,,,,,,
1577363425,38,0,4267.179688,4517.94873,4151.794922,4206.153809,4167.692383,0,2,,,,0,4,4,4,4,4,19,0,0.07882,-0.607666,0.373779,0.696289,0.915053,-0.378912,0.028321,-16.148117,-54.678444,51.573811,,,,,,,,,,,,,,,,,,,,,,,,,
1577363425,39,0,4252.820313,4520.512695,4124.102539,4194.871582,4151.282227,0,2,,,,0,4,4,4,4,4,,,,,,,,,,,,,,,,,,,,,,,,,,,,,,,,,,,,,
1577363425,40,0,4235.384766,4517.94873,4128.205078,4174.358887,4138.974121,0,2,,,,0,4,4,4,4,4,20,0,0.079093,-0.60791,0.373779,0.696045,0.895521,-0.393561,0.022461,-16.447397,-54.593983,51.500736,6.414071,2.655129,1.208977,1.165646,0.831661,1.295109,0.975307,1.129437,1.398401,4.669174,2.161834,2.005728,2.135601,1.179623,0.874405,6.725442,3.258242,1.594974,1.156017,0.855834,5.069186,2.580873,1.062902,0.642701,0.638716
1577363425,41,0,4263.589844,4516.922852,4118.461426,4199.487305,4158.461426,0,2,,,,0,4,4,4,4,4,,,,,,,,,,,,,,,,,,,,,,,,,,,,,,,,,,,,,
1577363425,42,0,4255.897461,4522.563965,4126.153809,4197.94873,4156.922852,0,2,,,,0,4,4,4,4,4,21,0,0.077194,-0.608154,0.373779,0.696045,0.900404,-0.387701,0.034668,-16.597118,-54.697414,51.434967,,,,,,,,,,,,,,,,,,,,,,,,,
1577363425,43,0,4236.410156,4524.615234,4132.307617,4178.974121,4144.615234,0,2,,,,0,4,4,4,4,4,,,,,,,,,,,,,,,,,,,,,,,,,,,,,,,,,,,,,
1577363425,44,0,4225.128418,4503.077148,4093.333252,4164.615234,4127.692383,0,2,,,,0,4,4,4,4,4,22,0,0.076448,-0.608398,0.373535,0.696045,0.912612,-0.409674,0.026856,-16.552422,-54.551239,51.435593,,,,,,,,,,,,,,,,,,,,,,,,,
1577363425,45,0,4222.563965,4509.743652,4107.179688,4161.025879,4146.153809,0,2,,,,0,4,4,4,4,4,,,,,,,,,,,,,,,,,,,,,,,,,,,,,,,,,,,,,
1577363425,46,0,4231.794922,4517.94873,4092.820557,4172.307617,4148.717773,0,2,,,,0,4,4,4,4,4,23,0,0.076727,-0.608643,0.373535,0.695801,0.897963,-0.417487,0.029297,-16.57201,-54.539314,51.495972,,,,,,,,,,,,,,,,,,,,,,,,,
1577363425,47,0,4212.820313,4500,4090.256348,4162.563965,4123.589844,0,2,,,,0,4,4,4,4,4,,,,,,,,,,,,,,,,,,,,,,,,,,,,,,,,,,,,,
1577363425,48,0,4219.487305,4512.307617,4124.615234,4169.230957,4138.461426,0,2,,,,0,4,4,4,4,4,24,0,0.073704,-0.608887,0.373291,0.696045,0.885756,-0.426276,0.029297,-16.529823,-54.468765,51.490494,,,,,,,,,,,,,,,,,,,,,,,,,
1577363425,49,0,4225.128418,4516.922852,4085.128174,4162.05127,4120.512695,0,2,,,,0,4,4,4,4,4,,,,,,,,,,,,,,,,,,,,,,,,,,,,,,,,,,,,,
1577363425,50,0,4210.769043,4504.102539,4091.794922,4140.512695,4109.743652,0,2,,,,0,4,4,4,4,4,25,0,0.074156,-0.609131,0.372803,0.696045,0.884291,-0.447272,0.035645,-16.432041,-54.465088,51.425751,,,,,,,,,,,,,,,,,,,,,,,,,
1577363425,51,0,4235.897461,4495.384766,4112.820313,4168.205078,4137.94873,0,2,,,,0,4,4,4,4,4,,,,,,,,,,,,,,,,,,,,,,,,,,,,,,,,,,,,,
1577363425,52,0,4236.922852,4492.820313,4097.94873,4167.692383,4130.256348,0,2,,,,0,4,4,4,4,4,26,0,0.074602,-0.609375,0.372314,0.696045,0.884291,-0.431159,0.02295,-16.284222,-54.401962,51.367481,,,,,,,,,,,,,,,,,,,,,,,,,
1577363425,53,0,4234.358887,4533.333496,4114.871582,4160.512695,4135.384766,0,2,,,,0,4,4,4,4,4,,,,,,,,,,,,,,,,,,,,,,,,,,,,,,,,,,,,,
1577363425,54,0,4248.205078,4542.05127,4102.563965,4177.436035,4142.05127,0,2,,,,0,4,4,4,4,4,27,0,0.071777,-0.609863,0.37207,0.696045,0.895521,-0.434577,0.01709,-16.210999,-54.524593,51.255226,,,,,,,,,,,,,,,,,,,,,,,,,
1577363425,55,0,4235.897461,4499.487305,4119.487305,4172.820313,4142.563965,0,2,,,,0,4,4,4,4,4,,,,,,,,,,,,,,,,,,,,,,,,,,,,,,,,,,,,,
1577363425,56,0,4237.94873,4520.512695,4122.563965,4177.436035,4150.769043,0,2,,,,0,4,4,4,4,4,28,0,0.070797,-0.610107,0.372314,0.695801,0.911635,-0.447272,-0.00293,-16.204914,-54.57515,51.393456,3.371678,1.54626,0.696555,0.858181,0.798925,1.279434,1.179193,1.283999,1.568105,4.537263,1.510192,1.423791,1.969335,1.133362,0.860185,3.367731,2.371321,1.050179,0.806609,0.792722,4.82964,2.719711,1.320984,0.613461,0.665296
1577363425,57,0,4235.384766,4549.230957,4084.102539,4158.461426,4130.256348,0,2,,,,0,4,4,4,4,4,,,,,,,,,,,,,,,,,,,,,,,,,,,,,,,,,,,,,
1577363425,58,0,4229.743652,4510.256348,4101.538574,4136.410156,4128.205078,0,2,,,,0,4,4,4,4,4,29,0,0.071903,-0.610107,0.372559,0.695557,0.899916,-0.437507,0.013672,-16.079805,-54.680462,51.398232,,,,,,,,,,,,,,,,,,,,,,,,,
1577363425,59,0,4233.333496,4485.641113,4081.025635,4147.179688,4123.077148,0,2,,,,0,4,4,4,4,4,,,,,,,,,,,,,,,,,,,,,,,,,,,,,,,,,,,,,
1577363425,60,0,4228.717773,4510.256348,4077.94873,4146.666504,4113.333496,0,2,,,,0,4,4,4,4,4,30,0,0.069325,-0.610107,0.373047,0.695557,0.895521,-0.439948,0.017578,-16.027025,-54.775246,51.282898,,,,,,,,,,,,,,,,,,,,,,,,,
1577363425,61,0,4246.153809,4525.128418,4103.589844,4158.974121,4135.384766,0,2,,,,0,4,4,4,4,4,,,,,,,,,,,,,,,,,,,,,,,,,,,,,,,,,,,,,
1577363425,62,0,4247.692383,4522.05127,4078.974365,4162.05127,4121.538574,0,2,,,,0,4,4,4,4,4,31,0,0.069144,-0.610107,0.373535,0.695313,0.880873,-0.448249,0.042969,-15.919706,-54.980183,51.238914,,,,,,,,,,,,,,,,,,,,,,,,,
1577363425,63,0,4239.487305,4537.94873,4105.128418,4163.589844,4115.384766,0,2,,,,0,4,4,4,4,4,,,,,,,,,,,,,,,,,,,,,,,,,,,,,,,,,,,,,
1577363425,64,0,4257.436035,4525.641113,4106.666504,4187.692383,4132.307617,450,2,,,,0,4,4,4,4,4,32,0,0.068657,-0.609863,0.374023,0.695313,0.881849,-0.477058,0.036133,-15.82312,-55.044991,51.259144,,,,,,,,,,,,,,,,,,,,,,,,,
1577363425,65,0,4253.846191,4505.128418,4095.897461,4180.512695,4130.769043,450,2,,,,0,4,4,4,4,4,,,,,,,,,,,,,,,,,,,,,,,,,,,,,,,,,,,,,
1577363425,66,0,4250.769043,4525.128418,4113.846191,4176.922852,4144.615234,16198,2,,,,0,4,4,4,4,4,33,0,0.068998,-0.609375,0.374756,0.695313,0.884779,-0.491218,0.025879,-15.855824,-54.923874,51.217537,,,,,,,,,,,,,,,,,,,,,,,,,
1577363425,67,0,4245.128418,4517.94873,4084.615479,4175.384766,4126.153809,450,2,,,,0,4,4,4,4,4,,,,,,,,,,,,,,,,,,,,,,,,,,,,,,,,,,,,,
1577363425,68,0,4224.615234,4489.230957,4090.256348,4156.922852,4110.769043,16118,2,,,,0,4,4,4,4,4,34,0,0.069628,-0.609131,0.375488,0.695068,0.911147,-0.482429,0.018555,-15.945071,-54.994316,51.299721,,,,,,,,,,,,,,,,,,,,,,,,,
1577363425,69,0,4230.256348,4496.922852,4093.333252,4170.769043,4128.205078,450,2,,,,0,4,4,4,4,4,,,,,,,,,,,,,,,,,,,,,,,,,,,,,,,,,,,,,
1577363425,70,0,4229.230957,4509.230957,4097.94873,4176.922852,4125.128418,16122,2,,,,0,4,4,4,4,4,35,0,0.067577,-0.608887,0.376709,0.694824,0.903334,-0.471199,0.019043,-16.085209,-54.938084,51.373684,,,,,,,,,,,,,,,,,,,,,,,,,
1577363425,71,0,4231.794922,4516.922852,4127.179688,4170.769043,4138.461426,450,2,,,,0,4,4,4,4,4,,,,,,,,,,,,,,,,,,,,,,,,,,,,,,,,,,,,,
1577363425,72,0,4230.769043,4514.358887,4090.256348,4168.205078,4127.692383,450,2,,,,0,4,4,4,4,4,36,0,0.068998,-0.609375,0.374756,0.695313,0.884779,-0.491218,0.025879,-15.972073,-54.887474,51.500069,3.027936,1.607193,0.672281,0.761143,0.779257,1.221377,1.450455,1.563844,1.792472,4.286549,1.407982,1.229392,1.883597,1.042974,0.836183,3.022535,2.383261,1.1192,0.72185,0.787153,4.88839,2.980525,1.625586,0.629097,0.682037
1577363425,73,0,4217.436035,4514.358887,4099.487305,4166.153809,4116.410156,16175,2,,,,0,4,4,4,4,4,,,,,,,,,,,,,,,,,,,,,,,,,,,,,,,,,,,,,
1577363425,74,0,4241.025879,4531.282227,4111.794922,4178.461426,4143.077148,450,2,,,,0,4,4,4,4,4,37,0,0.067577,-0.608887,0.376709,0.694824,0.903334,-0.471199,0.019043,-16.10951,-54.841923,51.553997,,,,,,,,,,,,,,,,,,,,,,,,,
1577363425,75,0,4239.487305,4516.410156,4080.512939,4164.615234,4133.846191,16179,2,,,,0,4,4,4,4,4,,,,,,,,,,,,,,,,,,,,,,,,,,,,,,,,,,,,,
1577363425,76,0,4234.871582,4489.743652,4109.743652,4162.05127,4136.410156,450,2,,,,0,4,4,4,4,4,38,0,0.070129,-0.608398,0.37793,0.694336,0.881849,-0.480964,0.016114,-15.993944,-54.80093,51.66235,,,,,,,,,,,,,,,,,,,,,,,,,
1577363425,77,0,4242.05127,4498.974121,4092.820557,4174.871582,4129.743652,450,2,,,,0,4,4,4,4,4,,,,,,,,,,,,,,,,,,,,,,,,,,,,,,,,,,,,,
1577363425,78,0,4212.820313,4532.307617,4081.538574,4152.307617,4104.615234,450,2,,,,0,4,4,4,4,4,39,0,0.07179,-0.608154,0.378906,0.693848,0.890639,-0.483894,0.018555,-16.009565,-54.644405,51.640236,,,,,,,,,,,,,,,,,,,,,,,,,
1577363425,79,0,4229.230957,4517.94873,4116.922852,4169.743652,4128.717773,16179,2,,,,0,4,4,4,4,4,,,,,,,,,,,,,,,,,,,,,,,,,,,,,,,,,,,,,
1577363425,80,0,4241.538574,4473.333496,4106.666504,4189.230957,4128.717773,450,2,,,,0,4,4,4,4,4,40,0,0.072633,-0.608154,0.379639,0.693359,0.887221,-0.460945,0.022461,-16.083439,-54.623161,51.739964,,,,,,,,,,,,,,,,,,,,,,,,,
1577363425,81,0,4222.563965,4511.282227,4116.410156,4171.794922,4124.615234,450,2,,,,0,4,4,4,4,4,,,,,,,,,,,,,,,,,,,,,,,,,,,,,,,,,,,,,
1577363425,82,0,4229.743652,4540,4096.410156,4168.717773,4128.205078,450,2,,,,0,4,4,4,4,4,41,0,0.075941,-0.608154,0.379883,0.692871,0.917006,-0.4336,0.014649,-16.030294,-54.604046,51.82972,,,,,,,,,,,,,,,,,,,,,,,,,
1577363425,83,0,4225.128418,4505.641113,4090.769287,4159.487305,4122.563965,16179,2,,,,0,4,4,4,4,4,,,,,,,,,,,,,,,,,,,,,,,,,,,,,,,,,,,,,
1577363425,84,0,4236.410156,4513.333496,4123.589844,4171.282227,4148.205078,450,2,,,,0,4,4,4,4,4,42,0,0.077207,-0.608398,0.380127,0.692383,0.920913,-0.384283,0.02002,-15.922648,-54.527023,52.030132,,,,,,,,,,,,,,,,,,,,,,,,,
1577363425,85,0,4250.256348,4531.794922,4109.230957,4178.461426,4147.179688,450,2,,,,0,4,4,4,4,4,,,,,,,,,,,,,,,,,,,,,,,,,,,,,,,,,,,,,
1577363425,86,0,4247.179688,4522.563965,4127.179688,4171.794922,4144.615234,450,2,,,,0,4,4,4,4,4,43,0,0.077471,-0.608643,0.380127,0.692139,0.908705,-0.381842,0.032715,-15.825768,-54.338074,52.031055,,,,,,,,,,,,,,,,,,,,,,,,,
1577363425,87,0,4249.743652,4510.769043,4115.384766,4182.563965,4148.205078,16179,2,,,,0,4,4,4,4,4,,,,,,,,,,,,,,,,,,,,,,,,,,,,,,,,,,,,,
1577363425,88,0,4225.641113,4506.666504,4088.205078,4153.846191,4120.512695,450,2,,,,0,4,4,4,4,4,44,0,0.075796,-0.609131,0.380127,0.691895,0.911147,-0.378424,0.035157,-15.858206,-54.40728,52.091702,2.732073,1.732905,0.68221,0.672046,0.719151,1.076719,1.655986,1.878232,2.013285,3.994616,1.233516,1.175554,1.773546,0.913131,0.787917,2.74145,2.388656,1.292798,0.648532,0.770765,5.009209,3.188105,1.88794,0.671173,0.675156
1577363425,89,0,4226.153809,4520,4113.846191,4147.179688,4124.102539,450,2,,,,0,4,4,4,4,4,,,,,,,,,,,,,,,,,,,,,,,,,,,,,,,,,,,,,
1577363425,90,0,4254.871582,4526.153809,4102.05127,4177.436035,4134.871582,450,2,,,,0,4,4,4,4,4,45,0,0.079173,-0.609131,0.379883,0.69165,0.885267,-0.391608,0.026368,-15.947216,-54.290119,52.146282,,,,,,,,,,,,,,,,,,,,,,,,,
1577363425,91,0,4259.487305,4518.974121,4121.538574,4181.025879,4145.641113,16179,2,,,,0,4,4,4,4,4,,,,,,,,,,,,,,,,,,,,,,,,,,,,,,,,,,,,,
1577363425,92,0,4257.94873,4518.974121,4126.153809,4183.589844,4150.256348,450,2,,,,0,4,4,4,4,4,46,0,0.077485,-0.609375,0.379395,0.691895,0.897963,-0.395026,0.027832,-15.967509,-54.36412,52.075779,,,,,,,,,,,,,,,,,,,,,,,,,
1577363425,93,0,4241.025879,4523.077148,4105.128418,4171.282227,4128.205078,450,2,,,,0,4,4,4,4,4,,,,,,,,,,,,,,,,,,,,,,,,,,,,,,,,,,,,,
1577363425,94,0,4235.897461,4516.410156,4133.333496,4170.256348,4142.563965,450,2,,,,0,4,4,4,4,4,47,0,0.077952,-0.609619,0.378906,0.691895,0.904799,-0.387213,0.033692,-15.985773,-54.370907,52.13195,,,,,,,,,,,,,,,,,,,,,,,,,
1577363425,95,0,4236.922852,4486.666504,4106.153809,4174.358887,4144.102539,16179,2,,,,0,4,4,4,4,4,,,,,,,,,,,,,,,,,,,,,,,,,,,,,,,,,,,,,
1577363425,96,0,4217.436035,4492.307617,4106.666504,4148.205078,4124.615234,450,2,,,,0,4,4,4,4,4,48,0,0.077225,-0.609863,0.378662,0.691895,0.916518,-0.413092,0.026368,-16.002211,-54.3172,52.242325,,,,,,,,,,,,,,,,,,,,,,,,,
1577363425,97,0,4230.256348,4549.230957,4136.410156,4161.025879,4135.897461,450,2,,,,0,4,4,4,4,4,,,,,,,,,,,,,,,,,,,,,,,,,,,,,,,,,,,,,
1577363425,98,0,4241.538574,4543.077148,4124.102539,4182.563965,4138.461426,450,2,,,,0,4,4,4,4,4,49,0,0.073266,-0.610352,0.378662,0.691895,0.935561,-0.427253,0.027344,-16.017004,-54.388493,52.162212,,,,,,,,,,,,,,,,,,,,,,,,,
1577363425,99,0,4234.871582,4494.358887,4139.487305,4176.410156,4147.179688,16179,2,,,,0,4,4,4,4,4,,,,,,,,,,,,,,,,,,,,,,,,,,,,,,,,,,,,,
1577363425,100,0,4220.512695,4502.563965,4103.077148,4162.05127,4125.641113,450,2,,,,0,4,4,4,4,4,50,0,0.072489,-0.610596,0.378418,0.691895,0.911147,-0.415534,0.042969,-16.030319,-54.452656,52.269558,,,,,,,,,,,,,,,,,,,,,,,,,
1577363425,101,0,4192.307617,4533.333496,4095.897461,4144.102539,4093.846191,450,2,,,,0,4,4,4,4,4,,,,,,,,,,,,,,,,,,,,,,,,,,,,,,,,,,,,,
1577363425,102,0,4211.282227,4525.641113,4138.461426,4160.512695,4130.256348,450,2,,,,0,4,4,4,4,4,51,0,0.070905,-0.611084,0.37793,0.691895,0.886244,-0.426276,0.0542,-16.161932,-54.510406,52.306355,,,,,,,,,,,,,,,,,,,,,,,,,
1577363425,103,0,4221.025879,4496.410156,4110.256348,4158.461426,4131.794922,16179,2,,,,0,4,4,4,4,4,,,,,,,,,,,,,,,,,,,,,,,,,,,,,,,,,,,,,
1577363425,104,0,4206.153809,4506.666504,4110.256348,4137.436035,4113.333496,450,2,,,,0,4,4,4,4,4,52,0,0.071122,-0.611084,0.377441,0.692139,0.877455,-0.432624,0.051759,-16.100939,-54.442749,52.279655,2.47472,1.848303,0.690836,0.60393,0.645693,0.894202,1.717356,2.127051,2.15942,3.73761,1.140027,1.232701,1.631698,0.782964,0.728423,2.557784,2.312082,1.479203,0.578198,0.756151,5.530196,3.248226,2.067082,0.726789,0.660704
1577363425,105,0,4224.102539,4523.077148,4106.666504,4152.820313,4127.179688,450,2,,,,0,4,4,4,4,4,,,,,,,,,,,,,,,,,,,,,,,,,,,,,,,,,,,,,
1577363425,106,0,4217.94873,4511.794922,4105.128418,4147.692383,4123.077148,450,2,,,,0,4,4,4,4,4,53,0,0.069212,-0.611328,0.376953,0.692383,0.879896,-0.457038,0.050294,-16.10586,-54.501488,52.375259,,,,,,,,,,,,,,,,,,,,,,,,,
1577363425,107,0,4233.333496,4521.025879,4142.563965,4160.512695,4146.153809,16179,2,,,,0,4,4,4,4,4,,,,,,,,,,,,,,,,,,,,,,,,,,,,,,,,,,,,,
1577363425,108,0,4253.846191,4519.487305,4113.846191,4181.025879,4155.384766,450,2,,,,0,4,4,4,4,4,54,0,0.067796,-0.611084,0.376709,0.692871,0.863294,-0.459968,0.038575,-16.110289,-54.494537,52.341671,,,,,,,,,,,,,,,,,,,,,,,,,
1577363425,109,0,4229.743652,4503.077148,4110.256348,4152.820313,4142.05127,450,2,,,,0,4,4,4,4,4,,,,,,,,,,,,,,,,,,,,,,,,,,,,,,,,,,,,,
1577363425,110,0,4236.410156,4496.410156,4120,4148.205078,4150.769043,450,2,,,,0,4,4,4,4,4,55,0,0.0675,-0.61084,0.376709,0.693115,0.883314,-0.477058,0.024414,-15.994644,-54.60791,52.371254,,,,,,,,,,,,,,,,,,,,,,,,,
1577363425,111,0,4229.230957,4485.128418,4106.666504,4149.743652,4140,16179,2,,,,0,4,4,4,4,4,,,,,,,,,,,,,,,,,,,,,,,,,,,,,,,,,,,,,
1577363425,112,0,4211.794922,4503.077148,4121.538574,4137.436035,4137.436035,450,2,,,,0,4,4,4,4,4,56,0,0.068341,-0.610596,0.376953,0.693115,0.896986,-0.462409,0.020508,-15.890564,-54.470688,52.278252,,,,,,,,,,,,,,,,,,,,,,,,,
1577363425,113,0,4221.025879,4531.794922,4096.922852,4138.974121,4134.358887,450,2,,,,0,4,4,4,4,4,,,,,,,,,,,,,,,,,,,,,,,,,,,,,,,,,,,,,
1577363425,114,0,4215.897461,4533.846191,4111.794922,4135.897461,4134.871582,450,2,,,,0,4,4,4,4,4,57,0,0.06917,-0.610352,0.377197,0.693115,0.897963,-0.456062,0.010254,-15.856707,-54.466816,52.314178,,,,,,,,,,,,,,,,,,,,,,,,,
1577363425,115,0,4212.820313,4516.410156,4127.179688,4131.282227,4138.974121,16179,2,,,,0,4,4,4,4,4,,,,,,,,,,,,,,,,,,,,,,,,,,,,,,,,,,,,,
1577363425,116,0,4207.692383,4480,4097.436035,4117.94873,4122.563965,450,2,,,,0,4,4,4,4,4,58,0,0.0673,-0.610107,0.37793,0.693115,0.887221,-0.45069,0.028321,-15.826236,-54.343704,52.406326,,,,,,,,,,,,,,,,,,,,,,,,,
1577363425,117,0,4220,4483.589844,4126.666504,4130.256348,4146.153809,450,2,,,,0,4,4,4,4,4,,,,,,,,,,,,,,,,,,,,,,,,,,,,,,,,,,,,,
1577363425,118,0,4232.820313,4531.282227,4109.743652,4143.077148,4153.333496,450,2,,,,0,4,4,4,4,4,59,0,0.066767,-0.609863,0.378418,0.693115,0.897475,-0.45655,0.02002,-15.679181,-54.412346,52.549076,,,,,,,,,,,,,,,,,,,,,,,,,
1577363425,119,0,4196.410156,4522.05127,4083.589844,4100,4120.512695,16179,2,,,,0,4,4,4,4,4,,,,,,,,,,,,,,,,,,,,,,,,,,,,,,,,,,,,,
1577363425,120,0,4192.820313,4476.922852,4097.94873,4104.615234,4127.692383,450,2,,,,0,4,4,4,4,4,60,0,0.068733,-0.609619,0.378906,0.692871,0.901381,-0.465339,0.020996,-15.786093,-54.533939,52.378475,2.412372,1.974886,0.696385,0.568208,0.584167,0.740622,1.624141,2.253799,2.161178,3.55742,1.024596,1.361772,1.458597,0.683085,0.671127,2.507275,2.195852,1.628538,0.526568,0.749389,6.108078,3.098382,2.131166,0.774232,0.653802
1577363426,121,0,4224.615234,4492.820313,4095.897461,4147.692383,4140,450,2,,,,0,4,4,4,4,4,,,,,,,,,,,,,,,,,,,,,,,,,,,,,,,,,,,,,
1577363426,122,0,4241.538574,4544.102539,4142.563965,4164.615234,4162.05127,450,2,,,,0,4,4,4,4,4,61,0,0.0685,-0.609619,0.379395,0.692627,0.897475,-0.467292,0.021485,-15.762683,-54.523746,52.404381,,,,,,,,,,,,,,,,,,,,,,,,,
1577363426,123,0,4249.230957,4519.487305,4138.461426,4177.436035,4170.256348,16179,2,,,,0,4,4,4,4,4,,,,,,,,,,,,,,,,,,,,,,,,,,,,,,,,,,,,,
1577363426,124,0,4225.128418,4472.307617,4109.230957,4156.922852,4142.05127,450,2,,,,0,4,4,4,4,4,62,0,0.067964,-0.609375,0.379883,0.692627,0.882338,-0.468269,0.032227,-15.80143,-54.454754,52.367878,,,,,,,,,,,,,,,,,,,,,,,,,
1577363426,125,0,4211.794922,4512.307617,4124.615234,4148.205078,4145.641113,450,2,,,,0,4,4,4,4,4,,,,,,,,,,,,,,,,,,,,,,,,,,,,,,,,,,,,,
1577363426,126,0,4210.769043,4544.102539,4103.589844,4149.230957,4134.871582,450,2,,,,0,4,4,4,4,4,63,0,0.06854,-0.609131,0.380615,0.692383,0.884779,-0.466316,0.007324,-15.836302,-54.512291,52.275211,,,,,,,,,,,,,,,,,,,,,,,,,
1577363426,127,0,4197.94873,4505.128418,4117.94873,4126.666504,4120.512695,228,2,,,,0,4,4,4,4,4,,,,,,,,,,,,,,,,,,,,,,,,,,,,,,,,,,,,,
1577363426,0,0,4209.230957,4482.563965,4121.538574,4136.922852,4133.333496,450,2,,,,0,4,4,4,4,4,0,0,0.0685,-0.609619,0.379395,0.692627,0.897475,-0.467292,0.021485,-15.807871,-54.384632,52.191814,,,,,,,,,,,,,,,,,,,,,,,,,
1577363426,1,0,4207.179688,4511.794922,4097.94873,4135.897461,4118.974121,450,2,,,,0,4,4,4,4,4,,,,,,,,,,,,,,,,,,,,,,,,,,,,,,,,,,,,,
1577363426,2,0,4212.307617,4535.384766,4125.641113,4130.769043,4129.743652,16180,2,,,,0,4,4,4,4,4,1,0,0.06854,-0.609131,0.380615,0.692383,0.884779,-0.466316,0.007324,-15.842099,-54.449181,52.116753,,,,,,,,,,,,,,,,,,,,,,,,,
1577363426,3,0,4223.589844,4506.666504,4109.230957,4139.487305,4137.94873,450,2,,,,0,4,4,4,4,4,,,,,,,,,,,,,,,,,,,,,,,,,,,,,,,,,,,,,
1577363426,4,0,4208.717773,4495.384766,4114.358887,4132.820313,4128.205078,16091,2,,,,0,4,4,4,4,4,2,0,0.068292,-0.609131,0.381104,0.692139,0.891615,-0.464363,0.021485,-15.872904,-54.507275,52.168831,,,,,,,,,,,,,,,,,,,,,,,,,
1577363426,5,0,4210.769043,4520.512695,4123.077148,4135.384766,4136.922852,450,2,,,,0,4,4,4,4,4,,,,,,,,,,,,,,,,,,,,,,,,,,,,,,,,,,,,,
1577363426,6,0,4206.153809,4508.205078,4091.794922,4125.128418,4118.974121,16130,2,,,,0,4,4,4,4,4,3,0,0.07019,-0.608887,0.381592,0.691895,0.880385,-0.45069,0.023926,-15.840813,-54.499748,52.096069,,,,,,,,,,,,,,,,,,,,,,,,,
1577363426,7,0,4224.102539,4508.717773,4131.282227,4140,4142.05127,450,2,,,,0,4,4,4,4,4,,,,,,,,,,,,,,,,,,,,,,,,,,,,,,,,,,,,,
1577363426,8,0,4256.410156,4526.666504,4135.384766,4173.333496,4170.769043,450,2,,,,0,4,4,4,4,4,4,0,0.069939,-0.608887,0.38208,0.69165,0.904799,-0.440436,0.01416,-15.752116,-54.552788,52.090397,2.59033,2.109864,0.694352,0.570695,0.547285,0.669487,1.409946,2.260971,2.004077,3.456372,0.957706,1.525403,1.277964,0.634035,0.624868,2.546054,2.080746,1.71787,0.512335,0.748293,6.536786,2.751755,2.072065,0.7973,0.661653
1577363426,9,0,4236.410156,4521.025879,4121.025879,4153.333496,4154.358887,16198,2,,,,0,4,4,4,4,4,,,,,,,,,,,,,,,,,,,,,,,,,,,,,,,,,,,,,
1577363426,10,0,4235.384766,4515.897461,4134.358887,4147.179688,4170.769043,450,2,,,,0,4,4,4,4,4,5,0,0.073074,-0.608643,0.382324,0.691406,0.895033,-0.437018,0.019532,-15.732103,-54.421074,52.204926,,,,,,,,,,,,,,,,,,,,,,,,,
1577363426,11,0,4242.05127,4494.358887,4124.615234,4156.922852,4174.871582,16167,2,,,,0,4,4,4,4,4,,,,,,,,,,,,,,,,,,,,,,,,,,,,,,,,,,,,,
1577363426,12,0,4237.94873,4497.436035,4148.205078,4154.358887,4173.846191,450,2,,,,0,4,4,4,4,4,6,0,0.071011,-0.608887,0.382324,0.691406,0.898451,-0.426276,0.036622,-15.594462,-54.541798,52.308002,,,,,,,,,,,,,,,,,,,,,,,,,
1577363426,13,0,4242.563965,4527.179688,4122.563965,4149.230957,4167.692383,450,2,,,,0,4,4,4,4,4,,,,,,,,,,,,,,,,,,,,,,,,,,,,,,,,,,,,,
1577363426,14,0,4218.974121,4511.282227,4110.769043,4126.666504,4146.666504,450,2,,,,0,4,4,4,4,4,7,0,0.073349,-0.608887,0.382324,0.691162,0.881361,-0.433112,0.040528,-15.590216,-54.530815,52.340954,,,,,,,,,,,,,,,,,,,,,,,,,
1577363426,15,0,4229.230957,4493.333496,4147.692383,4143.589844,4170.256348,16167,2,,,,0,4,4,4,4,4,,,,,,,,,,,,,,,,,,,,,,,,,,,,,,,,,,,,,
1577363426,16,0,4251.794922,4518.974121,4128.717773,4165.128418,4181.538574,0,2,,,,0,4,4,4,4,4,8,0,0.07259,-0.609131,0.38208,0.691162,0.887709,-0.425299,0.040528,-15.706024,-54.461117,52.310795,,,,,,,,,,,,,,,,,,,,,,,,,
1577363426,17,0,4235.384766,4542.563965,4140.512695,4143.077148,4180,0,2,,,,0,4,4,4,4,4,,,,,,,,,,,,,,,,,,,,,,,,,,,,,,,,,,,,,
1577363426,18,0,4241.538574,4506.666504,4133.333496,4140,4184.102539,0,2,,,,0,4,4,4,4,4,9,0,0.071822,-0.609375,0.381836,0.691162,0.903822,-0.41944,0.040528,-15.630806,-54.338573,52.164021,,,,,,,,,,,,,,,,,,,,,,,,,
1577363426,19,0,4250.769043,4489.230957,4126.666504,4145.128418,4182.563965,0,2,,,,0,4,4,4,4,4,,,,,,,,,,,,,,,,,,,,,,,,,,,,,,,,,,,,,
1577363426,20,0,4256.922852,4523.589844,4168.717773,4157.436035,4205.641113,0,2,,,,0,4,4,4,4,4,10,0,0.072342,-0.609619,0.381348,0.691162,0.897963,-0.420905,0.045411,-15.742556,-54.467545,52.09174,,,,,,,,,,,,,,,,,,,,,,,,,
1577363426,21,0,4249.230957,4512.820313,4126.153809,4155.897461,4190.769043,0,2,,,,0,4,4,4,4,4,,,,,,,,,,,,,,,,,,,,,,,,,,,,,,,,,,,,,
1577363426,22,0,4235.384766,4510.256348,4126.153809,4141.025879,4180.512695,0,2,,,,0,4,4,4,4,4,11,0,0.071288,-0.609619,0.381104,0.691406,0.906264,-0.434577,0.03711,-15.723499,-54.583618,52.14632,,,,,,,,,,,,,,,,,,,,,,,,,
1577363426,23,0,4262.05127,4540,4167.692383,4170.256348,4211.282227,0,2,,,,0,4,4,4,4,4,,,,,,,,,,,,,,,,,,,,,,,,,,,,,,,,,,,,,
1577363426,24,0,4244.615234,4507.692383,4138.461426,4159.487305,4188.717773,0,2,,,,0,4,4,4,4,4,12,0,0.071807,-0.609863,0.380615,0.691406,0.885756,-0.430182,0.035157,-15.526903,-54.628269,52.075809,2.933037,2.249115,0.690021,0.620526,0.534784,0.673898,1.144375,2.195564,1.74921,3.416857,0.86365,1.658321,1.127061,0.648456,0.59653,2.589522,2.01102,1.736708,0.55739,0.749977,6.44945,2.325544,1.907083,0.796454,0.683293
1577363426,25,0,4217.94873,4486.666504,4138.974121,4135.897461,4167.179688,0,2,,,,0,4,4,4,4,4,,,,,,,,,,,,,,,,,,,,,,,,,,,,,,,,,,,,,
1577363426,26,0,4244.615234,4506.666504,4126.666504,4157.436035,4169.230957,0,2,,,,0,4,4,4,4,4,13,0,0.071258,-0.610107,0.379883,0.69165,0.901381,-0.428717,0.033692,-15.589228,-54.548828,52.072163,,,,,,,,,,,,,,,,,,,,,,,,,
1577363426,27,0,4244.615234,4487.692383,4124.615234,4146.153809,4162.05127,0,2,,,,0,4,4,4,4,4,,,,,,,,,,,,,,,,,,,,,,,,,,,,,,,,,,,,,
1577363426,28,0,4231.282227,4476.922852,4135.384766,4132.820313,4158.461426,0,2,,,,0,4,4,4,4,4,14,0,0.069374,-0.610352,0.379395,0.691895,0.900404,-0.432624,0.039551,-15.585505,-54.477325,52.068886,,,,,,,,,,,,,,,,,,,,,,,,,
1577363426,29,0,4222.563965,4520,4110.256348,4130.256348,4142.563965,0,2,,,,0,4,4,4,4,4,,,,,,,,,,,,,,,,,,,,,,,,,,,,,,,,,,,,,
1577363426,30,0,4222.563965,4538.461426,4127.692383,4133.333496,4154.358887,0,2,,,,0,4,4,4,4,4,15,0,0.069607,-0.610352,0.378906,0.692139,0.886244,-0.435554,0.047364,-15.582153,-54.592422,52.125748,,,,,,,,,,,,,,,,,,,,,,,,,
1577363426,31,0,4234.871582,4494.358887,4115.384766,4145.641113,4162.563965,0,2,,,,0,4,4,4,4,4,,,,,,,,,,,,,,,,,,,,,,,,,,,,,,,,,,,,,
1577363426,32,0,4225.128418,4473.333496,4114.871582,4131.282227,4143.589844,0,2,,,,0,4,4,4,4,4,16,0,0.069834,-0.610352,0.378418,0.692383,0.887709,-0.456062,0.040528,-15.579138,-54.516563,52.176926,,,,,,,,,,,,,,,,,,,,,,,,,
1577363426,33,0,4236.922852,4525.128418,4148.717773,4141.538574,4149.743652,0,2,,,,0,4,4,4,4,4,,,,,,,,,,,,,,,,,,,,,,,,,,,,,,,,,,,,,
1577363426,34,0,4246.666504,4542.563965,4125.128418,4157.436035,4137.94873,0,2,,,,0,4,4,4,4,4,17,0,0.068727,-0.610352,0.378174,0.692627,0.883803,-0.462898,0.041016,-15.696054,-54.567921,52.16317,,,,,,,,,,,,,,,,,,,,,,,,,
1577363426,35,0,4234.358887,4503.589844,4144.102539,4150.256348,4130.256348,0,2,,,,0,4,4,4,4,4,,,,,,,,,,,,,,,,,,,,,,,,,,,,,,,,,,,,,
1577363426,36,0,4247.179688,4488.205078,4153.333496,4168.205078,4146.153809,0,2,,,,0,4,4,4,4,4,18,0,0.071362,-0.610352,0.377686,0.692627,0.881361,-0.447761,0.039551,-15.801279,-54.494511,52.210606,,,,,,,,,,,,,,,,,,,,,,,,,
1577363426,37,0,4239.487305,4513.846191,4142.05127,4168.205078,4140.512695,0,2,,,,0,4,4,4,4,4,,,,,,,,,,,,,,,,,,,,,,,,,,,,,,,,,,,,,
1577363426,38,0,4233.846191,4521.538574,4152.307617,4162.563965,4150.256348,0,2,,,,0,4,4,4,4,4,19,0,0.071362,-0.610352,0.377686,0.692627,0.889662,-0.445319,0.024903,-15.716536,-54.488258,52.253296,,,,,,,,,,,,,,,,,,,,,,,,,
1577363426,39,0,4242.563965,4492.307617,4110.769043,4161.025879,4140,0,2,,,,0,4,4,4,4,4,,,,,,,,,,,,,,,,,,,,,,,,,,,,,,,,,,,,,
1577363426,40,0,4237.94873,4516.410156,4126.153809,4150.769043,4133.846191,0,2,,,,0,4,4,4,4,4,20,0,0.072153,-0.610107,0.37793,0.692627,0.908705,-0.428717,0.013672,-15.819712,-54.482632,52.291721,3.31567,2.40169,0.696868,0.734696,0.540948,0.703723,0.906124,2.106705,1.506724,3.433824,0.764173,1.711311,1.02835,0.727355,0.591372,2.531481,2.062011,1.681315,0.680012,0.757198,5.926434,1.985079,1.677938,0.792059,0.711816
1577363426,41,0,4251.282227,4548.205078,4146.153809,4167.179688,4160,0,2,,,,0,4,4,4,4,4,,,,,,,,,,,,,,,,,,,,,,,,,,,,,,,,,,,,,
1577363426,42,0,4230.769043,4486.666504,4116.922852,4160.512695,4138.461426,0,2,,,,0,4,4,4,4,4,21,0,0.071936,-0.610107,0.378418,0.692383,0.902358,-0.427253,0.019532,-15.79294,-54.417751,52.146854,,,,,,,,,,,,,,,,,,,,,,,,,
1577363426,43,0,4203.077148,4468.205078,4131.794922,4142.563965,4119.487305,0,2,,,,0,4,4,4,4,4,,,,,,,,,,,,,,,,,,,,,,,,,,,,,,,,,,,,,
1577363426,44,0,4208.205078,4524.102539,4109.230957,4148.205078,4119.487305,0,2,,,,0,4,4,4,4,4,22,0,0.073762,-0.609863,0.378906,0.692139,0.915053,-0.423835,0.019043,-15.948292,-54.419174,52.136105,,,,,,,,,,,,,,,,,,,,,,,,,
1577363426,45,0,4201.538574,4529.743652,4112.307617,4143.077148,4118.974121,0,2,,,,0,4,4,4,4,4,,,,,,,,,,,,,,,,,,,,,,,,,,,,,,,,,,,,,
1577363426,46,0,4201.538574,4483.589844,4145.128418,4148.717773,4129.230957,0,2,,,,0,4,4,4,4,4,23,0,0.074791,-0.609863,0.37915,0.691895,0.907729,-0.399908,0.030762,-15.729216,-54.48027,52.066616,,,,,,,,,,,,,,,,,,,,,,,,,
1577363426,47,0,4185.128418,4461.025879,4113.333496,4143.589844,4106.153809,0,2,,,,0,4,4,4,4,4,,,,,,,,,,,,,,,,,,,,,,,,,,,,,,,,,,,,,
1577363426,48,0,4184.615234,4513.333496,4113.333496,4146.153809,4118.461426,0,2,,,,0,4,4,4,4,4,24,0,0.076018,-0.609863,0.378906,0.691895,0.880873,-0.40528,0.04004,-15.711493,-54.595074,52.183521,,,,,,,,,,,,,,,,,,,,,,,,,
1577363426,49,0,4218.974121,4548.717773,4115.897461,4174.358887,4152.307617,0,2,,,,0,4,4,4,4,4,,,,,,,,,,,,,,,,,,,,,,,,,,,,,,,,,,,,,
1577363426,50,0,4204.102539,4497.94873,4126.153809,4163.077148,4139.487305,0,2,,,,0,4,4,4,4,4,25,0,0.073762,-0.609863,0.378906,0.692139,0.885267,-0.401862,0.028809,-15.87499,-54.578762,52.169106,,,,,,,,,,,,,,,,,,,,,,,,,
1577363426,51,0,4197.94873,4476.410156,4141.538574,4156.922852,4139.487305,0,2,,,,0,4,4,4,4,4,,,,,,,,,,,,,,,,,,,,,,,,,,,,,,,,,,,,,
1577363426,52,0,4215.897461,4501.538574,4122.05127,4165.641113,4144.615234,0,2,,,,0,4,4,4,4,4,26,0,0.072993,-0.609375,0.379395,0.692383,0.901381,-0.406256,0.025879,-15.782875,-54.564087,51.91687,,,,,,,,,,,,,,,,,,,,,,,,,
1577363426,53,0,4221.025879,4523.077148,4153.846191,4165.641113,4164.102539,0,2,,,,0,4,4,4,4,4,,,,,,,,,,,,,,,,,,,,,,,,,,,,,,,,,,,,,
1577363426,54,0,4229.743652,4535.897461,4136.922852,4175.897461,4171.794922,0,2,,,,0,4,4,4,4,4,27,0,0.072977,-0.608643,0.380127,0.692627,0.911635,-0.430182,0.024903,-15.819603,-54.491058,51.929119,,,,,,,,,,,,,,,,,,,,,,,,,
1577363426,55,0,4199.487305,4501.538574,4091.281982,4142.05127,4132.307617,0,2,,,,0,4,4,4,4,4,,,,,,,,,,,,,,,,,,,,,,,,,,,,,,,,,,,,,
1577363426,56,0,4177.94873,4474.358887,4104.102539,4114.871582,4124.615234,0,2,,,,0,4,4,4,4,4,28,0,0.073762,-0.609863,0.378906,0.692139,0.885267,-0.401862,0.028809,-15.972288,-54.485153,51.940147,3.577703,2.590021,0.721895,0.920111,0.562627,0.694405,0.739323,2.000731,1.376048,3.514158,0.641611,1.673611,0.960202,0.85783,0.613134,2.349845,2.29396,1.552728,0.877797,0.777845,5.08085,1.881345,1.436426,0.808082,0.739478
1577363426,57,0,4198.461426,4513.846191,4088.718018,4133.333496,4137.94873,0,2,,,,0,4,4,4,4,4,,,,,,,,,,,,,,,,,,,,,,,,,,,,,,,,,,,,,
1577363426,58,0,4236.410156,4543.077148,4131.794922,4165.641113,4180,0,2,,,,0,4,4,4,4,4,29,0,0.072977,-0.608643,0.380127,0.692627,0.911635,-0.430182,0.024903,-15.990074,-54.420021,51.950069,,,,,,,,,,,,,,,,,,,,,,,,,
1577363426,59,0,4261.538574,4502.563965,4160,4192.820313,4207.179688,0,2,,,,0,4,4,4,4,4,,,,,,,,,,,,,,,,,,,,,,,,,,,,,,,,,,,,,
1577363426,60,0,4227.179688,4487.179688,4124.615234,4165.128418,4165.641113,0,2,,,,0,4,4,4,4,4,30,0,0.071947,-0.608154,0.381104,0.692627,0.901869,-0.455085,0.03125,-16.125711,-54.361401,52.018814,,,,,,,,,,,,,,,,,,,,,,,,,
1577363426,61,0,4224.615234,4545.641113,4141.538574,4158.974121,4173.846191,0,2,,,,0,4,4,4,4,4,,,,,,,,,,,,,,,,,,,,,,,,,,,,,,,,,,,,,
1577363426,62,0,4248.717773,4537.94873,4124.615234,4181.538574,4186.153809,0,2,,,,0,4,4,4,4,4,31,0,0.073185,-0.607422,0.381592,0.692871,0.878431,-0.455573,0.03711,-16.128157,-54.547905,52.02087,,,,,,,,,,,,,,,,,,,,,,,,,
1577363426,63,0,4222.05127,4486.153809,4125.128418,4152.820313,4155.384766,0,2,,,,0,4,4,4,4,4,,,,,,,,,,,,,,,,,,,,,,,,,,,,,,,,,,,,,
1577363426,64,0,4227.179688,4508.205078,4138.974121,4149.230957,4161.538574,450,2,,,,0,4,4,4,4,4,32,0,0.071609,-0.607178,0.381836,0.693115,0.887709,-0.466804,0.019532,-16.010725,-54.596127,51.903088,,,,,,,,,,,,,,,,,,,,,,,,,
1577363426,65,0,4238.974121,4534.871582,4096.410156,4149.743652,4147.692383,450,2,,,,0,4,4,4,4,4,,,,,,,,,,,,,,,,,,,,,,,,,,,,,,,,,,,,,
1577363426,66,0,4222.563965,4508.717773,4107.692383,4132.820313,4136.410156,16218,2,,,,0,4,4,4,4,4,33,0,0.070294,-0.607178,0.38208,0.693115,0.891127,-0.475593,0.020508,-16.024668,-54.63953,51.976532,,,,,,,,,,,,,,,,,,,,,,,,,
1577363426,67,0,4222.563965,4473.333496,4104.102539,4137.436035,4140,450,2,,,,0,4,4,4,4,4,,,,,,,,,,,,,,,,,,,,,,,,,,,,,,,,,,,,,
1577363426,68,0,4208.717773,4498.974121,4097.436035,4123.077148,4122.563965,16129,2,,,,0,4,4,4,4,4,34,0,0.071366,-0.607178,0.382324,0.692871,0.907729,-0.473152,0.013672,-16.097031,-54.738403,52.042629,,,,,,,,,,,,,,,,,,,,,,,,,
1577363426,69,0,4208.205078,4551.794922,4116.922852,4127.179688,4134.871582,450,2,,,,0,4,4,4,4,4,,,,,,,,,,,,,,,,,,,,,,,,,,,,,,,,,,,,,
1577363426,70,0,4216.922852,4518.461426,4100,4142.563965,4133.846191,16148,2,,,,0,4,4,4,4,4,35,0,0.070045,-0.607178,0.382568,0.692871,0.917494,-0.452155,0.02295,-16.042526,-54.947025,52.161934,,,,,,,,,,,,,,,,,,,,,,,,,
1577363426,71,0,4211.282227,4481.025879,4117.94873,4133.333496,4132.820313,450,2,,,,0,4,4,4,4,4,,,,,,,,,,,,,,,,,,,,,,,,,,,,,,,,,,,,,
1577363426,72,0,4227.692383,4524.102539,4113.333496,4149.230957,4155.384766,450,2,,,,0,4,4,4,4,4,36,0,0.072419,-0.607178,0.382568,0.692627,0.890639,-0.457527,0.036133,-15.993474,-54.77589,52.089863,3.633041,2.822542,0.768744,1.151903,0.601617,0.634142,0.643946,1.850651,1.399996,3.68442,0.543889,1.583383,0.897102,1.003715,0.660444,2.071268,2.708104,1.36901,1.108485,0.816675,4.281481,2.049428,1.233084,0.855297,0.762178
1577363426,73,0,4236.410156,4537.94873,4112.820313,4164.615234,4155.897461,16208,2,,,,0,4,4,4,4,4,,,,,,,,,,,,,,,,,,,,,,,,,,,,,,,,,,,,,
1577363426,74,0,4231.282227,4511.282227,4139.487305,4162.563965,4161.538574,450,2,,,,0,4,4,4,4,4,37,0,0.070342,-0.607422,0.382568,0.692627,0.874037,-0.446296,0.030274,-15.949326,-54.621868,52.14463,,,,,,,,,,,,,,,,,,,,,,,,,
1577363426,75,0,4220,4510.256348,4102.05127,4146.153809,4147.179688,16190,2,,,,0,4,4,4,4,4,,,,,,,,,,,,,,,,,,,,,,,,,,,,,,,,,,,,,
1577363426,76,0,4208.717773,4498.461426,4116.922852,4134.871582,4137.94873,450,2,,,,0,4,4,4,4,4,38,0,0.071657,-0.607422,0.382324,0.692627,0.892103,-0.44239,0.043946,-15.849777,-54.303802,52.074287,,,,,,,,,,,,,,,,,,,,,,,,,
1577363426,77,0,4215.384766,4478.461426,4129.743652,4147.692383,4142.563965,450,2,,,,0,4,4,4,4,4,,,,,,,,,,,,,,,,,,,,,,,,,,,,,,,,,,,,,
1577363426,78,0,4204.615234,4515.384766,4111.794922,4143.589844,4129.230957,450,2,,,,0,4,4,4,4,4,39,0,0.069807,-0.607666,0.381836,0.692871,0.887221,-0.445319,0.038575,-15.700369,-54.376434,52.070797,,,,,,,,,,,,,,,,,,,,,,,,,
1577363426,79,0,4216.410156,4547.692383,4143.077148,4148.205078,4154.871582,16190,2,,,,0,4,4,4,4,4,,,,,,,,,,,,,,,,,,,,,,,,,,,,,,,,,,,,,
1577363426,80,0,4227.692383,4493.333496,4125.641113,4150.769043,4158.974121,450,2,,,,0,4,4,4,4,4,40,0,0.069258,-0.60791,0.381104,0.693115,0.884779,-0.44239,0.036133,-15.805161,-54.441807,52.187283,,,,,,,,,,,,,,,,,,,,,,,,,
1577363426,81,0,4208.717773,4485.641113,4131.282227,4133.846191,4155.384766,450,2,,,,0,4,4,4,4,4,,,,,,,,,,,,,,,,,,,,,,,,,,,,,,,,,,,,,
1577363426,82,0,4227.692383,4531.282227,4143.589844,4149.743652,4180,450,2,,,,0,4,4,4,4,4,41,0,0.071893,-0.60791,0.380615,0.693115,0.90724,-0.440925,0.038575,-15.660214,-54.381008,52.232307,,,,,,,,,,,,,,,,,,,,,,,,,
1577363426,83,0,4215.897461,4506.153809,4100,4135.897461,4157.436035,16190,2,,,,0,4,4,4,4,4,,,,,,,,,,,,,,,,,,,,,,,,,,,,,,,,,,,,,
1577363426,84,0,4198.461426,4499.487305,4113.846191,4122.563965,4152.820313,450,2,,,,0,4,4,4,4,4,42,0,0.070033,-0.608154,0.380127,0.693359,0.898451,-0.451667,0.046876,-15.589577,-54.32629,52.272827,,,,,,,,,,,,,,,,,,,,,,,,,
1577363426,85,0,4232.307617,4529.230957,4117.436035,4160.512695,4174.871582,450,2,,,,0,4,4,4,4,4,,,,,,,,,,,,,,,,,,,,,,,,,,,,,,,,,,,,,
1577363426,86,0,4231.282227,4499.487305,4121.025879,4160.512695,4178.974121,450,2,,,,0,4,4,4,4,4,43,0,0.071345,-0.608154,0.379883,0.693359,0.886732,-0.441413,0.038087,-15.585819,-54.157413,52.249481,,,,,,,,,,,,,,,,,,,,,,,,,
1577363426,87,0,4229.230957,4486.153809,4131.794922,4147.692383,4192.307617,16190,2,,,,0,4,4,4,4,4,,,,,,,,,,,,,,,,,,,,,,,,,,,,,,,,,,,,,
1577363426,88,0,4237.436035,4509.743652,4110.769043,4148.205078,4188.205078,450,2,,,,0,4,4,4,4,4,44,0,0.070785,-0.608398,0.37915,0.693604,0.887221,-0.430671,0.03418,-15.582437,-54.125053,52.22847,3.553362,3.070511,0.839541,1.379242,0.661918,0.548127,0.599137,1.634601,1.544479,3.993982,0.492696,1.510582,0.846562,1.1242,0.725021,1.767275,3.262557,1.172211,1.310535,0.870237,3.779693,2.404809,1.113197,0.927596,0.784027
1577363426,89,0,4237.436035,4516.410156,4143.077148,4152.307617,4191.282227,450,2,,,,0,4,4,4,4,4,,,,,,,,,,,,,,,,,,,,,,,,,,,,,,,,,,,,,
1577363426,90,0,4246.666504,4517.436035,4135.384766,4164.615234,4189.743652,450,2,,,,0,4,4,4,4,4,45,0,0.071005,-0.608398,0.378662,0.693848,0.870619,-0.432135,0.042481,-15.519577,-54.215565,52.269375,,,,,,,,,,,,,,,,,,,,,,,,,
1577363426,91,0,4233.333496,4520,4114.871582,4147.692383,4167.179688,16190,2,,,,0,4,4,4,4,4,,,,,,,,,,,,,,,,,,,,,,,,,,,,,,,,,,,,,
1577363426,92,0,4232.307617,4518.461426,4137.94873,4153.333496,4176.410156,450,2,,,,0,4,4,4,4,4,46,0,0.070129,-0.608398,0.37793,0.694336,0.891127,-0.426276,0.026368,-15.522819,-54.057758,52.246376,,,,,,,,,,,,,,,,,,,,,,,,,
1577363426,93,0,4229.230957,4507.179688,4106.666504,4157.436035,4173.846191,450,2,,,,0,4,4,4,4,4,,,,,,,,,,,,,,,,,,,,,,,,,,,,,,,,,,,,,
1577363426,94,0,4216.922852,4512.820313,4117.436035,4136.410156,4169.230957,450,2,,,,0,4,4,4,4,4,47,0,0.070341,-0.608398,0.377441,0.69458,0.885756,-0.41651,0.019043,-15.585552,-53.975552,52.225674,,,,,,,,,,,,,,,,,,,,,,,,,
1577363426,95,0,4237.436035,4505.128418,4128.205078,4150.256348,4176.922852,16190,2,,,,0,4,4,4,4,4,,,,,,,,,,,,,,,,,,,,,,,,,,,,,,,,,,,,,
1577363426,96,0,4235.897461,4485.128418,4108.205078,4142.563965,4162.563965,450,2,,,,0,4,4,4,4,4,48,0,0.07004,-0.608154,0.377441,0.694824,0.896986,-0.416999,0.013672,-15.642012,-54.081009,52.147228,,,,,,,,,,,,,,,,,,,,,,,,,
1577363426,97,0,4240.512695,4528.717773,4143.077148,4146.666504,4185.128418,450,2,,,,0,4,4,4,4,4,,,,,,,,,,,,,,,,,,,,,,,,,,,,,,,,,,,,,
1577363426,98,0,4253.333496,4538.461426,4127.179688,4163.077148,4188.205078,450,2,,,,0,4,4,4,4,4,49,0,0.069737,-0.60791,0.377441,0.695068,0.881849,-0.430671,0.012207,-15.692825,-54.116108,52.076626,,,,,,,,,,,,,,,,,,,,,,,,,
1577363426,99,0,4223.077148,4493.333496,4111.282227,4128.205078,4149.230957,16190,2,,,,0,4,4,4,4,4,,,,,,,,,,,,,,,,,,,,,,,,,,,,,,,,,,,,,
1577363426,100,0,4216.410156,4513.333496,4112.307617,4122.05127,4142.563965,450,2,,,,0,4,4,4,4,4,50,0,0.068908,-0.607422,0.37793,0.695313,0.903822,-0.438483,0.023438,-15.738558,-54.147694,51.95327,,,,,,,,,,,,,,,,,,,,,,,,,
1577363426,101,0,4209.230957,4545.641113,4083.076904,4111.794922,4124.615234,450,2,,,,0,4,4,4,4,4,,,,,,,,,,,,,,,,,,,,,,,,,,,,,,,,,,,,,
1577363426,102,0,4200.512695,4508.205078,4095.897461,4093.846191,4116.922852,450,2,,,,0,4,4,4,4,4,51,0,0.068876,-0.606689,0.378662,0.695557,0.891127,-0.441901,0.024903,-15.719901,-54.116306,51.96188,,,,,,,,,,,,,,,,,,,,,,,,,
1577363426,103,0,4231.282227,4486.666504,4098.974121,4129.743652,4134.358887,16190,2,,,,0,4,4,4,4,4,,,,,,,,,,,,,,,,,,,,,,,,,,,,,,,,,,,,,
1577363426,104,0,4252.820313,4514.358887,4130.769043,4166.153809,4161.538574,450,2,,,,0,4,4,4,4,4,52,0,0.068827,-0.605957,0.379395,0.695801,0.882826,-0.471199,0.007324,-15.643295,-54.028244,52.149075,3.50032,3.286222,0.927956,1.554002,0.744864,0.494314,0.577629,1.37083,1.717618,4.483343,0.532703,1.533086,0.860657,1.200048,0.79294,1.535276,3.891539,1.024611,1.437625,0.928585,3.813118,2.845035,1.119463,1.010021,0.814921
1577363426,105,0,4268.205078,4516.922852,4153.846191,4183.077148,4193.846191,450,2,,,,0,4,4,4,4,4,,,,,,,,,,,,,,,,,,,,,,,,,,,,,,,,,,,,,
1577363426,106,0,4258.461426,4508.205078,4120,4173.333496,4172.307617,450,2,,,,0,4,4,4,4,4,53,0,0.07119,-0.605225,0.380127,0.695801,0.877455,-0.500496,-0.003906,-15.753796,-54.188248,52.018475,,,,,,,,,,,,,,,,,,,,,,,,,
1577363426,107,0,4244.102539,4529.743652,4147.179688,4161.538574,4169.230957,16190,2,,,,0,4,4,4,4,4,,,,,,,,,,,,,,,,,,,,,,,,,,,,,,,,,,,,,
1577363426,108,0,4254.871582,4518.461426,4135.384766,4161.538574,4180.512695,450,2,,,,0,4,4,4,4,4,54,0,0.071196,-0.604736,0.381348,0.695557,0.87306,-0.530282,0.009277,-15.733616,-54.212624,52.020565,,,,,,,,,,,,,,,,,,,,,,,,,
1577363426,109,0,4238.974121,4491.794922,4114.871582,4135.384766,4152.820313,450,2,,,,0,4,4,4,4,4,,,,,,,,,,,,,,,,,,,,,,,,,,,,,,,,,,,,,
1577363426,110,0,4235.897461,4518.974121,4142.05127,4133.333496,4157.436035,450,2,,,,0,4,4,4,4,4,55,0,0.073524,-0.604248,0.382568,0.695068,0.873549,-0.539559,-0.013184,-15.655639,-54.354191,51.962627,,,,,,,,,,,,,,,,,,,,,,,,,
1577363426,111,0,4234.358887,4507.179688,4114.871582,4143.589844,4157.94873,16190,2,,,,0,4,4,4,4,4,,,,,,,,,,,,,,,,,,,,,,,,,,,,,,,,,,,,,
1577363426,112,0,4221.538574,4476.410156,4130.769043,4138.974121,4160,450,2,,,,0,4,4,4,4,4,56,0,0.075041,-0.604004,0.383545,0.69458,0.888197,-0.508309,0.013672,-15.70509,-54.421783,51.85067,,,,,,,,,,,,,,,,,,,,,,,,,
1577363426,113,0,4228.717773,4509.743652,4133.333496,4142.563965,4166.153809,450,2,,,,0,4,4,4,4,4,,,,,,,,,,,,,,,,,,,,,,,,,,,,,,,,,,,,,
1577363426,114,0,4201.025879,4513.333496,4098.974121,4115.384766,4137.94873,450,2,,,,0,4,4,4,4,4,57,0,0.071196,-0.604736,0.381348,0.695557,0.87306,-0.530282,0.009277,-15.749596,-54.362988,51.869541,,,,,,,,,,,,,,,,,,,,,,,,,
1577363426,115,0,4206.666504,4495.897461,4124.102539,4116.410156,4159.487305,16190,2,,,,0,4,4,4,4,4,,,,,,,,,,,,,,,,,,,,,,,,,,,,,,,,,,,,,
1577363426,116,0,4246.666504,4510.769043,4121.025879,4149.743652,4184.615234,450,2,,,,0,4,4,4,4,4,58,0,0.075041,-0.604004,0.383545,0.69458,0.888197,-0.508309,0.013672,-15.789651,-54.429703,51.766891,,,,,,,,,,,,,,,,,,,,,,,,,
1577363426,117,0,4240,4525.641113,4135.897461,4143.589844,4180.512695,450,2,,,,0,4,4,4,4,4,,,,,,,,,,,,,,,,,,,,,,,,,,,,,,,,,,,,,
1577363426,118,0,4243.589844,4514.358887,4149.743652,4152.307617,4190.769043,450,2,,,,0,4,4,4,4,4,59,0,0.076045,-0.604004,0.383789,0.694336,0.896498,-0.503914,0.011231,-15.70607,-54.489746,51.973587,,,,,,,,,,,,,,,,,,,,,,,,,
1577363426,119,0,4240.512695,4502.563965,4131.794922,4160,4179.487305,16190,2,,,,0,4,4,4,4,4,,,,,,,,,,,,,,,,,,,,,,,,,,,,,,,,,,,,,
1577363426,120,0,4225.128418,4508.205078,4151.794922,4152.307617,4180,450,2,,,,0,4,4,4,4,4,60,0,0.078749,-0.604248,0.383301,0.694092,0.884291,-0.463386,0.026856,-15.810293,-54.424156,51.920349,3.609968,3.428146,1.037916,1.65668,0.841504,0.507397,0.561255,1.116223,1.823568,5.135108,0.674102,1.69011,0.996003,1.238155,0.847712,1.444961,4.520876,0.96825,1.478238,0.977544,4.395763,3.283318,1.275559,1.090997,0.859107
1577363427,121,0,4237.94873,4499.487305,4136.922852,4154.871582,4191.794922,450,2,,,,0,4,4,4,4,4,,,,,,,,,,,,,,,,,,,,,,,,,,,,,,,,,,,,,
1577363427,122,0,4249.230957,4507.692383,4150.769043,4149.743652,4206.666504,450,2,,,,0,4,4,4,4,4,61,0,0.080014,-0.60498,0.382324,0.693848,0.915053,-0.433112,0.011231,-15.784463,-54.484753,52.111698,,,,,,,,,,,,,,,,,,,,,,,,,
1577363427,123,0,4241.538574,4526.153809,4164.615234,4144.102539,4207.179688,16190,2,,,,0,4,4,4,4,4,,,,,,,,,,,,,,,,,,,,,,,,,,,,,,,,,,,,,
1577363427,124,0,4221.025879,4500.512695,4128.717773,4129.743652,4171.794922,450,2,,,,0,4,4,4,4,4,62,0,0.080296,-0.605713,0.381104,0.693848,0.920913,-0.391119,0.002441,-15.761216,-54.479477,52.224094,,,,,,,,,,,,,,,,,,,,,,,,,
1577363427,125,0,4236.410156,4495.384766,4157.94873,4143.077148,4188.717773,450,2,,,,0,4,4,4,4,4,,,,,,,,,,,,,,,,,,,,,,,,,,,,,,,,,,,,,
1577363427,126,0,4251.794922,4507.179688,4148.205078,4161.538574,4206.153809,450,2,,,,0,4,4,4,4,4,63,0,0.081497,-0.606445,0.380127,0.693604,0.903822,-0.381842,0.014649,-15.859925,-54.414913,52.145809,,,,,,,,,,,,,,,,,,,,,,,,,
1577363427,127,0,4210.256348,4504.615234,4124.615234,4125.128418,4170.769043,228,2,,,,0,4,4,4,4,4,,,,,,,,,,,,,,,,,,,,,,,,,,,,,,,,,,,,,
1577363427,0,0,4210.256348,4525.641113,4144.615234,4129.230957,4164.615234,450,2,,,,0,4,4,4,4,4,0,0,0.082212,-0.606934,0.379639,0.693359,0.895033,-0.389166,0.021973,-15.948763,-54.476433,52.194981,,,,,,,,,,,,,,,,,,,,,,,,,
1577363427,1,0,4243.077148,4529.743652,4128.205078,4157.94873,4178.461426,450,2,,,,0,4,4,4,4,4,,,,,,,,,,,,,,,,,,,,,,,,,,,,,,,,,,,,,
1577363427,2,0,4241.025879,4515.384766,4147.179688,4148.205078,4189.230957,16211,2,,,,0,4,4,4,4,4,1,0,0.083774,-0.607178,0.378906,0.693359,0.883314,-0.389166,0.021485,-16.088531,-54.412174,52.179417,,,,,,,,,,,,,,,,,,,,,,,,,
1577363427,3,0,4240,4519.487305,4149.230957,4151.282227,4181.538574,450,2,,,,0,4,4,4,4,4,,,,,,,,,,,,,,,,,,,,,,,,,,,,,,,,,,,,,
1577363427,4,0,4234.358887,4506.153809,4145.641113,4147.179688,4169.743652,16132,2,,,,0,4,4,4,4,4,2,0,0.08464,-0.607666,0.37793,0.693359,0.901869,-0.393072,0.021973,-16.094694,-54.294525,52.105598,,,,,,,,,,,,,,,,,,,,,,,,,
1577363427,5,0,4234.871582,4495.897461,4168.205078,4144.615234,4187.179688,450,2,,,,0,4,4,4,4,4,,,,,,,,,,,,,,,,,,,,,,,,,,,,,,,,,,,,,
1577363427,6,0,4220.512695,4523.077148,4121.025879,4136.922852,4163.589844,16129,2,,,,0,4,4,4,4,4,3,0,0.085484,-0.608154,0.376953,0.693359,0.898939,-0.372564,0.027344,-16.040424,-54.30827,52.039158,,,,,,,,,,,,,,,,,,,,,,,,,
1577363427,7,0,4201.025879,4543.077148,4123.077148,4118.974121,4145.641113,450,2,,,,0,4,4,4,4,4,,,,,,,,,,,,,,,,,,,,,,,,,,,,,,,,,,,,,
1577363427,8,0,4217.436035,4506.153809,4138.461426,4130.769043,4164.102539,450,2,,,,0,4,4,4,4,4,4,0,0.084991,-0.608398,0.376221,0.693604,0.924331,-0.379889,0.019043,-15.991581,-54.260826,52.218628,3.933113,3.480759,1.176317,1.703674,0.931371,0.583257,0.543937,0.953404,1.813132,5.850426,0.912056,1.964634,1.267998,1.262448,0.873741,1.519816,5.08697,1.014951,1.465903,1.003816,5.427104,3.671968,1.583392,1.178944,0.910252
1577363427,9,0,4201.025879,4496.410156,4121.025879,4121.025879,4150.769043,16185,2,,,,0,4,4,4,4,4,,,,,,,,,,,,,,,,,,,,,,,,,,,,,,,,,,,,,
1577363427,10,0,4201.025879,4539.487305,4157.94873,4127.179688,4167.179688,450,2,,,,0,4,4,4,4,4,5,0,0.083395,-0.608643,0.375732,0.693848,0.946792,-0.38819,0.006348,-16.186884,-54.218124,52.200699,,,,,,,,,,,,,,,,,,,,,,,,,
1577363427,11,0,4231.794922,4515.384766,4143.589844,4152.820313,4182.05127,16187,2,,,,0,4,4,4,4,4,,,,,,,,,,,,,,,,,,,,,,,,,,,,,,,,,,,,,
1577363427,12,0,4220,4474.871582,4138.461426,4131.794922,4168.205078,450,2,,,,0,4,4,4,4,4,6,0,0.083811,-0.608887,0.375244,0.693848,0.949722,-0.357916,0.016602,-16.362656,-54.119881,52.184566,,,,,,,,,,,,,,,,,,,,,,,,,
1577363427,13,0,4223.077148,4522.05127,4151.282227,4125.641113,4176.922852,450,2,,,,0,4,4,4,4,4,,,,,,,,,,,,,,,,,,,,,,,,,,,,,,,,,,,,,
1577363427,14,0,4222.563965,4547.692383,4127.692383,4132.307617,4169.230957,450,2,,,,0,4,4,4,4,4,7,0,0.082435,-0.609375,0.374756,0.693848,0.924331,-0.36524,0.012696,-16.40122,-54.210907,52.229862,,,,,,,,,,,,,,,,,,,,,,,,,
1577363427,15,0,4205.641113,4516.922852,4160.512695,4134.358887,4167.692383,16187,2,,,,0,4,4,4,4,4,,,,,,,,,,,,,,,,,,,,,,,,,,,,,,,,,,,,,
1577363427,16,0,4195.384766,4490.769043,4138.974121,4132.820313,4155.384766,0,2,,,,0,4,4,4,4,4,8,0,0.082598,-0.609375,0.374268,0.694092,0.909194,-0.397467,0.006348,-16.555559,-54.173199,52.210812,,,,,,,,,,,,,,,,,,,,,,,,,
1577363427,17,0,4178.974121,4498.461426,4111.282227,4116.410156,4142.563965,0,2,,,,0,4,4,4,4,4,,,,,,,,,,,,,,,,,,,,,,,,,,,,,,,,,,,,,
1577363427,18,0,4203.077148,4531.794922,4141.538574,4133.333496,4177.94873,0,2,,,,0,4,4,4,4,4,9,0,0.079543,-0.609375,0.374023,0.69458,0.857923,-0.417975,0.021973,-16.574835,-54.199078,52.133854,,,,,,,,,,,,,,,,,,,,,,,,,
1577363427,19,0,4189.230957,4499.487305,4106.153809,4119.487305,4153.846191,0,2,,,,0,4,4,4,4,4,,,,,,,,,,,,,,,,,,,,,,,,,,,,,,,,,,,,,
1577363427,20,0,4142.05127,4466.153809,4090.256348,4077.435791,4115.384766,0,2,,,,0,4,4,4,4,4,10,0,0.082251,-0.608887,0.373779,0.694824,0.884779,-0.452155,0.018555,-16.711811,-54.341999,52.124405,,,,,,,,,,,,,,,,,,,,,,,,,
1577363427,21,0,4178.974121,4520.512695,4103.077148,4116.922852,4151.282227,0,2,,,,0,4,4,4,4,4,,,,,,,,,,,,,,,,,,,,,,,,,,,,,,,,,,,,,
1577363427,22,0,4214.358887,4529.230957,4125.641113,4151.794922,4186.666504,0,2,,,,0,4,4,4,4,4,11,0,0.080874,-0.608643,0.374023,0.695068,0.906752,-0.434089,0.018067,-16.655645,-54.231365,52.115902,,,,,,,,,,,,,,,,,,,,,,,,,
1577363427,23,0,4216.922852,4486.666504,4149.230957,4145.641113,4196.922852,0,2,,,,0,4,4,4,4,4,,,,,,,,,,,,,,,,,,,,,,,,,,,,,,,,,,,,,
1577363427,24,0,4210.769043,4502.05127,4105.128418,4132.820313,4169.743652,0,2,,,,0,4,4,4,4,4,12,0,0.080451,-0.608398,0.374512,0.695068,0.905776,-0.408698,0.023926,-16.664911,-54.251427,52.048431,4.376205,3.469608,1.348022,1.730962,0.991311,0.672863,0.51736,0.932759,1.699646,6.461871,1.191637,2.304163,1.642464,1.29589,0.860837,1.732634,5.57171,1.156842,1.463584,1.001085,6.754747,4.006787,2.021049,1.285219,0.953495
1577363427,25,0,4190.256348,4542.563965,4115.897461,4114.358887,4156.922852,0,2,,,,0,4,4,4,4,4,,,,,,,,,,,,,,,,,,,,,,,,,,,,,,,,,,,,,
1577363427,26,0,4203.077148,4510.769043,4137.94873,4126.666504,4173.846191,0,2,,,,0,4,4,4,4,4,13,0,0.078598,-0.60791,0.375244,0.695313,0.906752,-0.423835,0.016114,-16.733067,-54.149853,52.047527,,,,,,,,,,,,,,,,,,,,,,,,,
1577363427,27,0,4205.641113,4476.922852,4115.897461,4122.563965,4158.461426,0,2,,,,0,4,4,4,4,4,,,,,,,,,,,,,,,,,,,,,,,,,,,,,,,,,,,,,
1577363427,28,0,4195.897461,4522.563965,4125.641113,4112.307617,4158.461426,0,2,,,,0,4,4,4,4,4,14,0,0.080027,-0.607422,0.375732,0.695313,0.892103,-0.424323,0.014649,-16.674774,-54.297695,51.986897,,,,,,,,,,,,,,,,,,,,,,,,,
1577363427,29,0,4190.769043,4530.769043,4091.281982,4111.794922,4152.307617,0,2,,,,0,4,4,4,4,4,,,,,,,,,,,,,,,,,,,,,,,,,,,,,,,,,,,,,
1577363427,30,0,4187.179688,4483.589844,4103.077148,4101.025879,4152.307617,0,2,,,,0,4,4,4,4,4,15,0,0.079313,-0.606934,0.376221,0.695557,0.871595,-0.430671,0.011719,-16.50268,-54.191494,52.051956,,,,,,,,,,,,,,,,,,,,,,,,,
1577363427,31,0,4216.922852,4477.94873,4142.563965,4123.589844,4183.589844,0,2,,,,0,4,4,4,4,4,,,,,,,,,,,,,,,,,,,,,,,,,,,,,,,,,,,,,
1577363427,32,0,4197.94873,4498.974121,4097.94873,4103.589844,4155.897461,0,2,,,,0,4,4,4,4,4,16,0,0.077868,-0.606689,0.376465,0.695801,0.87306,-0.435065,0.012207,-16.347797,-54.095913,51.871254,,,,,,,,,,,,,,,,,,,,,,,,,
1577363427,33,0,4182.563965,4530.256348,4102.563965,4088.718018,4153.333496,0,2,,,,0,4,4,4,4,4,,,,,,,,,,,,,,,,,,,,,,,,,,,,,,,,,,,,,
1577363427,34,0,4227.692383,4538.974121,4121.025879,4142.563965,4189.230957,0,2,,,,0,4,4,4,4,4,17,0,0.076393,-0.606445,0.376709,0.696045,0.902846,-0.449714,0.016602,-16.268217,-54.189335,51.828247,,,,,,,,,,,,,,,,,,,,,,,,,
1577363427,35,0,4215.897461,4490.256348,4123.589844,4137.94873,4171.794922,0,2,,,,0,4,4,4,4,4,,,,,,,,,,,,,,,,,,,,,,,,,,,,,,,,,,,,,
1577363427,36,0,4197.94873,4479.487305,4131.794922,4122.563965,4161.025879,0,2,,,,0,4,4,4,4,4,18,0,0.075179,-0.606445,0.376953,0.696045,0.909194,-0.45362,0.011231,-16.196594,-54.393047,51.909176,,,,,,,,,,,,,,,,,,,,,,,,,
1577363427,37,0,4229.230957,4528.205078,4133.846191,4152.820313,4173.846191,0,2,,,,0,4,4,4,4,4,,,,,,,,,,,,,,,,,,,,,,,,,,,,,,,,,,,,,
1577363427,38,0,4243.077148,4533.333496,4173.846191,4165.641113,4200,0,2,,,,0,4,4,4,4,4,19,0,0.075179,-0.606445,0.376953,0.696045,0.888685,-0.458015,0.020996,-16.132135,-54.337124,51.98201,,,,,,,,,,,,,,,,,,,,,,,,,
1577363427,39,0,4226.666504,4497.436035,4142.563965,4149.743652,4191.794922,0,2,,,,0,4,4,4,4,4,,,,,,,,,,,,,,,,,,,,,,,,,,,,,,,,,,,,,
1577363427,40,0,4208.205078,4493.846191,4119.487305,4127.179688,4163.077148,0,2,,,,0,4,4,4,4,4,20,0,0.074135,-0.606445,0.376709,0.696289,0.886244,-0.474128,-0.009277,-16.19375,-54.46624,52.047562,4.803961,3.487744,1.536465,1.762648,1.0129,0.723062,0.480515,1.029801,1.535727,6.796829,1.445368,2.644984,2.031224,1.339859,0.809161,1.992826,6.003481,1.355589,1.523045,0.976247,8.008361,4.338571,2.514102,1.407623,0.979455
1577363427,41,0,4218.461426,4521.538574,4159.487305,4140,4189.743652,0,2,,,,0,4,4,4,4,4,,,,,,,,,,,,,,,,,,,,,,,,,,,,,,,,,,,,,
1577363427,42,0,4217.436035,4524.102539,4125.641113,4149.230957,4186.666504,0,2,,,,0,4,4,4,4,4,21,0,0.075179,-0.606445,0.376953,0.696045,0.909194,-0.45362,0.011231,-16.309021,-54.283367,51.986927,,,,,,,,,,,,,,,,,,,,,,,,,
1577363427,43,0,4203.589844,4507.692383,4125.128418,4135.897461,4176.410156,0,2,,,,0,4,4,4,4,4,,,,,,,,,,,,,,,,,,,,,,,,,,,,,,,,,,,,,
1577363427,44,0,4214.358887,4487.179688,4131.282227,4137.94873,4196.922852,0,2,,,,0,4,4,4,4,4,22,0,0.074135,-0.606445,0.376709,0.696289,0.886244,-0.474128,-0.009277,-16.352949,-54.417862,52.051987,,,,,,,,,,,,,,,,,,,,,,,,,
