title:h3, start timestamp:2019-12-27T07:17:08.346973+03:00, stop timestamp:2019-12-27T07:17:39.457198+03:00, headset type:INSIGHT, headset serial:A2D200FB, headset firmware:930, subject name:Qasim, channels:75, sampling rate:eeg_128;pm_0.1;pow_8, samples:3990      , version:2.0
Timestamp,EEG.Counter,EEG.Interpolated,EEG.AF3,EEG.T7,EEG.Pz,EEG.T8,EEG.AF4,EEG.RawCq,EEG.Battery,MarkerIndex,MarkerType,MarkerValueInt,EEG.MarkerHardware,CQ.AF3,CQ.T7,CQ.Pz,CQ.T8,CQ.AF4,PM.Engagement.IsActive,PM.Engagement.Scaled,PM.Engagement.Raw,PM.Engagement.Min,PM.Engagement.Max,PM.Excitement.IsActive,PM.Excitement.Scaled,PM.Excitement.Raw,PM.Excitement.Min,PM.Excitement.Max,PM.LongTermExcitement,PM.Stress.IsActive,PM.Stress.Scaled,PM.Stress.Raw,PM.Stress.Min,PM.Stress.Max,PM.Relaxation.IsActive,PM.Relaxation.Scaled,PM.Relaxation.Raw,PM.Relaxation.Min,PM.Relaxation.Max,PM.Interest.IsActive,PM.Interest.Scaled,PM.Interest.Raw,PM.Interest.Min,PM.Interest.Max,PM.Focus.IsActive,PM.Focus.Scaled,PM.Focus.Raw,PM.Focus.Min,PM.Focus.Max,POW.AF3.Theta,POW.AF3.Alpha,POW.AF3.BetaL,POW.AF3.BetaH,POW.AF3.Gamma,POW.T7.Theta,POW.T7.Alpha,POW.T7.BetaL,POW.T7.BetaH,POW.T7.Gamma,POW.Pz.Theta,POW.Pz.Alpha,POW.Pz.BetaL,POW.Pz.BetaH,POW.Pz.Gamma,POW.T8.Theta,POW.T8.Alpha,POW.T8.BetaL,POW.T8.BetaH,POW.T8.Gamma,POW.AF4.Theta,POW.AF4.Alpha,POW.AF4.BetaL,POW.AF4.BetaH,POW.AF4.Gamma
1577420228.346973,91.000000,0.000000,4186.666504,4331.282227,4104.615234,4101.025879,4183.077148,16224.000000,4.000000,,,,0.000000,4.000000,4.000000,4.000000,4.000000,4.000000,,,,,,,,,,,,,,,,,,,,,,,,,,,,,,,,,,,,,,,,,,,,,,,,,,,,,,,,
1577420228.354869,92.000000,0.000000,4194.358887,4306.666504,4110.769043,4178.974121,4191.794922,450.000000,4.000000,,,,0.000000,4.000000,4.000000,4.000000,4.000000,4.000000,,,,,,,,,,,,,,,,,,,,,,,,,,,,,,,,,,,,,,,,,,,,,,,,,,,,,,,,
1577420228.362766,93.000000,0.000000,4205.128418,4284.102539,4112.307617,4141.538574,4187.692383,450.000000,4.000000,,,,0.000000,4.000000,4.000000,4.000000,4.000000,4.000000,,,,,,,,,,,,,,,,,,,,,,,,,,,,,,,,,,,,,,,,,,,,,,,,,,,,,,,,
1577420228.370562,94.000000,0.000000,4201.025879,4295.384766,4098.461426,4127.692383,4185.641113,450.000000,4.000000,,,,0.000000,4.000000,4.000000,4.000000,4.000000,4.000000,,,,,,,,,,,,,,,,,,,,,,,,,,,,,,,,,,,,,,,,,,,,,,,,,,,,,,,,
1577420228.378459,95.000000,0.000000,4182.563965,4324.615234,4078.974365,4144.102539,4176.922852,16224.000000,4.000000,,,,0.000000,4.000000,4.000000,4.000000,4.000000,4.000000,,,,,,,,,,,,,,,,,,,,,,,,,,,,,,,,,,,,,,,,,,,,,,,,,,,,,,,,
1577420228.386255,96.000000,0.000000,4158.974121,4317.948730,4054.358887,4086.153809,4153.846191,450.000000,4.000000,,,,0.000000,4.000000,4.000000,4.000000,4.000000,4.000000,,,,,,,,,,,,,,,,,,,,,,,,,,,,,,,,,,,,,,,,,,,,,,,,,,,,,,,,
1577420228.394152,97.000000,0.000000,4174.358887,4297.948730,4068.205078,4105.128418,4166.666504,450.000000,4.000000,,,,0.000000,4.000000,4.000000,4.000000,4.000000,4.000000,,,,,,,,,,,,,,,,,,,,,,,,,,,,,,,,,,,,,,,,,,,,,,,,,,,,,,,,
1577420228.401948,98.000000,0.000000,4180.512695,4278.974121,4080.512939,4097.948730,4179.487305,450.000000,4.000000,,,,0.000000,4.000000,4.000000,4.000000,4.000000,4.000000,,,,,,,,,,,,,,,,,,,,,,,,,,,,,,,,,,,,,,,,,,,,,,,,,,,,,,,,
1577420228.409845,99.000000,0.000000,4155.384766,4280.512695,4061.025635,4062.051270,4168.717773,16224.000000,4.000000,,,,0.000000,4.000000,4.000000,4.000000,4.000000,4.000000,,,,,,,,,,,,,,,,,,,,,,,,,,,,,,,,,,,,,,,,,,,,,,,,,,,,,,,,
1577420228.417641,100.000000,0.000000,4160.512695,4304.615234,4058.461426,4145.128418,4178.974121,450.000000,4.000000,,,,0.000000,4.000000,4.000000,4.000000,4.000000,4.000000,,,,,,,,,,,,,,,,,,,,,,,,,,,,,,,,3.895345,4.308981,1.737820,2.970864,1.441839,0.820046,1.159188,0.950652,1.269422,1.240607,2.776649,1.562146,1.531900,2.401691,1.324173,3.343060,4.173925,4.728997,4.532104,5.675271,3.536387,4.797203,1.974259,1.889270,1.315905
1577420228.425538,101.000000,0.000000,4183.589844,4300.512695,4070.256348,4136.922852,4203.077148,450.000000,4.000000,,,,0.000000,4.000000,4.000000,4.000000,4.000000,4.000000,,,,,,,,,,,,,,,,,,,,,,,,,,,,,,,,,,,,,,,,,,,,,,,,,,,,,,,,
1577420228.433334,102.000000,0.000000,4204.615234,4295.384766,4084.615479,4089.743652,4219.487305,450.000000,4.000000,,,,0.000000,4.000000,4.000000,4.000000,4.000000,4.000000,,,,,,,,,,,,,,,,,,,,,,,,,,,,,,,,,,,,,,,,,,,,,,,,,,,,,,,,
1577420228.441231,103.000000,0.000000,4194.358887,4300.000000,4075.384521,4134.358887,4208.205078,16224.000000,4.000000,,,,0.000000,4.000000,4.000000,4.000000,4.000000,4.000000,,,,,,,,,,,,,,,,,,,,,,,,,,,,,,,,,,,,,,,,,,,,,,,,,,,,,,,,
1577420228.449027,104.000000,0.000000,4169.743652,4290.256348,4050.769287,4113.333496,4185.641113,450.000000,4.000000,,,,0.000000,4.000000,4.000000,4.000000,4.000000,4.000000,,,,,,,,,,,,,,,,,,,,,,,,,,,,,,,,,,,,,,,,,,,,,,,,,,,,,,,,
1577420228.456924,105.000000,0.000000,4184.102539,4295.897461,4063.589844,4078.461426,4195.897461,450.000000,4.000000,,,,0.000000,4.000000,4.000000,4.000000,4.000000,4.000000,,,,,,,,,,,,,,,,,,,,,,,,,,,,,,,,,,,,,,,,,,,,,,,,,,,,,,,,
1577420228.464720,106.000000,0.000000,4193.846191,4294.871582,4082.051270,4108.205078,4213.333496,450.000000,4.000000,,,,0.000000,4.000000,4.000000,4.000000,4.000000,4.000000,,,,,,,,,,,,,,,,,,,,,,,,,,,,,,,,,,,,,,,,,,,,,,,,,,,,,,,,
1577420228.472616,107.000000,0.000000,4191.282227,4289.230957,4079.487061,4100.000000,4221.538574,16224.000000,4.000000,,,,0.000000,4.000000,4.000000,4.000000,4.000000,4.000000,,,,,,,,,,,,,,,,,,,,,,,,,,,,,,,,,,,,,,,,,,,,,,,,,,,,,,,,
1577420228.480413,108.000000,0.000000,4194.871582,4308.717773,4068.205078,4105.641113,4222.563965,450.000000,4.000000,,,,0.000000,4.000000,4.000000,4.000000,4.000000,4.000000,,,,,,,,,,,,,,,,,,,,,,,,,,,,,,,,,,,,,,,,,,,,,,,,,,,,,,,,
1577420228.488309,109.000000,0.000000,4195.897461,4320.512695,4062.564209,4116.410156,4222.051270,450.000000,4.000000,,,,0.000000,4.000000,4.000000,4.000000,4.000000,4.000000,,,,,,,,,,,,,,,,,,,,,,,,,,,,,,,,,,,,,,,,,,,,,,,,,,,,,,,,
1577420228.496106,110.000000,0.000000,4192.307617,4293.846191,4070.769287,4021.538574,4223.589844,450.000000,4.000000,,,,0.000000,4.000000,4.000000,4.000000,4.000000,4.000000,,,,,,,,,,,,,,,,,,,,,,,,,,,,,,,,,,,,,,,,,,,,,,,,,,,,,,,,
1577420228.504002,111.000000,0.000000,4177.436035,4270.769043,4060.000000,4009.230713,4212.307617,16224.000000,4.000000,,,,0.000000,4.000000,4.000000,4.000000,4.000000,4.000000,,,,,,,,,,,,,,,,,,,,,,,,,,,,,,,,,,,,,,,,,,,,,,,,,,,,,,,,
1577420228.511799,112.000000,0.000000,4194.358887,4301.538574,4056.410156,4124.615234,4218.974121,450.000000,4.000000,,,,0.000000,4.000000,4.000000,4.000000,4.000000,4.000000,,,,,,,,,,,,,,,,,,,,,,,,,,,,,,,,,,,,,,,,,,,,,,,,,,,,,,,,
1577420228.519695,113.000000,0.000000,4210.256348,4286.666504,4057.435791,4080.512939,4222.051270,450.000000,4.000000,,,,0.000000,4.000000,4.000000,4.000000,4.000000,4.000000,,,,,,,,,,,,,,,,,,,,,,,,,,,,,,,,,,,,,,,,,,,,,,,,,,,,,,,,
1577420228.527492,114.000000,0.000000,4164.615234,4226.666504,4022.051270,3961.538574,4185.641113,450.000000,4.000000,,,,0.000000,4.000000,4.000000,4.000000,4.000000,4.000000,,,,,,,,,,,,,,,,,,,,,,,,,,,,,,,,,,,,,,,,,,,,,,,,,,,,,,,,
1577420228.535388,115.000000,0.000000,4139.487305,4249.230957,4012.820557,4012.307617,4171.282227,16224.000000,4.000000,,,,0.000000,4.000000,4.000000,4.000000,4.000000,4.000000,,,,,,,,,,,,,,,,,,,,,,,,,,,,,,,,,,,,,,,,,,,,,,,,,,,,,,,,
1577420228.543285,116.000000,0.000000,4149.743652,4276.922852,4034.871826,4042.564209,4175.384766,450.000000,4.000000,,,,0.000000,4.000000,4.000000,4.000000,4.000000,4.000000,,,,,,,,,,,,,,,,,,,,,,,,,,,,,,,,3.577427,4.302470,1.884905,3.011782,1.404096,0.763805,1.184281,0.895969,1.108073,1.256345,2.467678,1.920065,1.405411,2.405426,1.247826,3.660985,5.735868,4.799132,5.618442,6.747737,3.988025,5.098774,2.047519,1.851459,1.209616
1577420228.551081,117.000000,0.000000,4158.461426,4270.256348,4051.794922,3985.128174,4190.769043,450.000000,4.000000,,,,0.000000,4.000000,4.000000,4.000000,4.000000,4.000000,,,,,,,,,,,,,,,,,,,,,,,,,,,,,,,,,,,,,,,,,,,,,,,,,,,,,,,,
1577420228.558978,118.000000,0.000000,4172.820313,4278.461426,4057.435791,3975.384521,4210.256348,450.000000,4.000000,,,,0.000000,4.000000,4.000000,4.000000,4.000000,4.000000,,,,,,,,,,,,,,,,,,,,,,,,,,,,,,,,,,,,,,,,,,,,,,,,,,,,,,,,
1577420228.566774,119.000000,0.000000,4178.461426,4278.461426,4047.179443,3990.256348,4198.974121,16224.000000,4.000000,,,,0.000000,4.000000,4.000000,4.000000,4.000000,4.000000,,,,,,,,,,,,,,,,,,,,,,,,,,,,,,,,,,,,,,,,,,,,,,,,,,,,,,,,
1577420228.574671,120.000000,0.000000,4185.128418,4271.794922,4060.000000,4004.102539,4208.205078,450.000000,4.000000,,,,0.000000,4.000000,4.000000,4.000000,4.000000,4.000000,,,,,,,,,,,,,,,,,,,,,,,,,,,,,,,,,,,,,,,,,,,,,,,,,,,,,,,,
1577420228.582467,121.000000,0.000000,4183.077148,4271.794922,4062.051270,4013.333252,4226.153809,450.000000,4.000000,,,,0.000000,4.000000,4.000000,4.000000,4.000000,4.000000,,,,,,,,,,,,,,,,,,,,,,,,,,,,,,,,,,,,,,,,,,,,,,,,,,,,,,,,
1577420228.590364,122.000000,0.000000,4182.563965,4289.743652,4054.358887,4022.564209,4228.205078,450.000000,4.000000,,,,0.000000,4.000000,4.000000,4.000000,4.000000,4.000000,,,,,,,,,,,,,,,,,,,,,,,,,,,,,,,,,,,,,,,,,,,,,,,,,,,,,,,,
1577420228.598160,123.000000,0.000000,4210.769043,4311.794922,4078.461426,3968.205078,4245.641113,16224.000000,4.000000,,,,0.000000,4.000000,4.000000,4.000000,4.000000,4.000000,,,,,,,,,,,,,,,,,,,,,,,,,,,,,,,,,,,,,,,,,,,,,,,,,,,,,,,,
1577420228.606057,124.000000,0.000000,4213.846191,4293.846191,4070.256348,3906.153809,4242.051270,450.000000,4.000000,,,,0.000000,4.000000,4.000000,4.000000,4.000000,4.000000,,,,,,,,,,,,,,,,,,,,,,,,,,,,,,,,,,,,,,,,,,,,,,,,,,,,,,,,
1577420228.613853,125.000000,0.000000,4197.436035,4270.256348,4048.718018,3997.948730,4221.025879,450.000000,4.000000,,,,0.000000,4.000000,4.000000,4.000000,4.000000,4.000000,,,,,,,,,,,,,,,,,,,,,,,,,,,,,,,,,,,,,,,,,,,,,,,,,,,,,,,,
1577420228.621749,126.000000,0.000000,4192.820313,4264.102539,4048.205078,4073.846191,4212.820313,450.000000,4.000000,,,,0.000000,4.000000,4.000000,4.000000,4.000000,4.000000,,,,,,,,,,,,,,,,,,,,,,,,,,,,,,,,,,,,,,,,,,,,,,,,,,,,,,,,
1577420228.629546,127.000000,0.000000,4183.589844,4266.153809,4040.000000,3977.948730,4210.256348,236.000000,4.000000,,,,0.000000,4.000000,4.000000,4.000000,4.000000,4.000000,,,,,,,,,,,,,,,,,,,,,,,,,,,,,,,,,,,,,,,,,,,,,,,,,,,,,,,,
1577420228.637442,0.000000,0.000000,4186.153809,4294.358887,4044.615479,3950.256348,4224.102539,450.000000,4.000000,,,,0.000000,4.000000,4.000000,4.000000,4.000000,4.000000,,,,,,,,,,,,,,,,,,,,,,,,,,,,,,,,,,,,,,,,,,,,,,,,,,,,,,,,
1577420228.645239,1.000000,0.000000,4197.948730,4294.871582,4053.846191,4005.641113,4236.410156,450.000000,4.000000,,,,0.000000,4.000000,4.000000,4.000000,4.000000,4.000000,,,,,,,,,,,,,,,,,,,,,,,,,,,,,,,,,,,,,,,,,,,,,,,,,,,,,,,,
1577420228.653135,2.000000,0.000000,4208.717773,4258.974121,4053.333252,3961.025635,4241.025879,16188.000000,4.000000,,,,0.000000,4.000000,4.000000,4.000000,4.000000,4.000000,,,,,,,,,,,,,,,,,,,,,,,,,,,,,,,,,,,,,,,,,,,,,,,,,,,,,,,,
1577420228.660932,3.000000,0.000000,4202.051270,4261.025879,4042.051270,3920.000000,4226.153809,450.000000,4.000000,,,,0.000000,4.000000,4.000000,4.000000,4.000000,4.000000,,,,,,,,,,,,,,,,,,,,,,,,,,,,,,,,,,,,,,,,,,,,,,,,,,,,,,,,
1577420228.668828,4.000000,0.000000,4182.563965,4297.436035,4029.230713,3955.897461,4202.563965,16166.000000,4.000000,,,,0.000000,4.000000,4.000000,4.000000,4.000000,4.000000,,,,,,,,,,,,,,,,,,,,,,,,,,,,,,,,3.329843,4.301042,2.169641,2.984950,1.401130,0.777991,1.400461,0.839581,1.077534,1.273971,2.243569,2.331909,1.316976,2.307945,1.184596,3.871237,7.266752,4.866395,6.907432,7.826836,4.377212,5.189747,2.245933,1.816539,1.153905
1577420228.676625,5.000000,0.000000,4209.743652,4312.307617,4054.358887,3956.923096,4231.282227,450.000000,4.000000,,,,0.000000,4.000000,4.000000,4.000000,4.000000,4.000000,,,,,,,,,,,,,,,,,,,,,,,,,,,,,,,,,,,,,,,,,,,,,,,,,,,,,,,,
1577420228.684521,6.000000,0.000000,4242.563965,4294.871582,4081.538574,3957.435791,4267.692383,16180.000000,4.000000,,,,0.000000,4.000000,4.000000,4.000000,4.000000,4.000000,,,,,,,,,,,,,,,,,,,,,,,,,,,,,,,,,,,,,,,,,,,,,,,,,,,,,,,,
1577420228.692318,7.000000,0.000000,4246.153809,4302.563965,4077.435791,4038.974365,4269.230957,450.000000,4.000000,,,,0.000000,4.000000,4.000000,4.000000,4.000000,4.000000,,,,,,,,,,,,,,,,,,,,,,,,,,,,,,,,,,,,,,,,,,,,,,,,,,,,,,,,
1577420228.700214,8.000000,0.000000,4238.461426,4308.717773,4059.487061,4035.384521,4252.307617,450.000000,4.000000,,,,0.000000,4.000000,4.000000,4.000000,4.000000,4.000000,,,,,,,,,,,,,,,,,,,,,,,,,,,,,,,,,,,,,,,,,,,,,,,,,,,,,,,,
1577420228.708111,9.000000,0.000000,4230.256348,4283.589844,4042.564209,3954.871826,4234.358887,16165.000000,4.000000,,,,0.000000,4.000000,4.000000,4.000000,4.000000,4.000000,,,,,,,,,,,,,,,,,,,,,,,,,,,,,,,,,,,,,,,,,,,,,,,,,,,,,,,,
1577420228.715907,10.000000,0.000000,4242.051270,4296.922852,4050.769287,3976.410156,4247.692383,450.000000,4.000000,,,,0.000000,4.000000,4.000000,4.000000,4.000000,4.000000,,,,,,,,,,,,,,,,,,,,,,,,,,,,,,,,,,,,,,,,,,,,,,,,,,,,,,,,
1577420228.723704,11.000000,0.000000,4235.897461,4318.974121,4047.692383,3987.692383,4254.871582,16208.000000,4.000000,,,,0.000000,4.000000,4.000000,4.000000,4.000000,4.000000,,,,,,,,,,,,,,,,,,,,,,,,,,,,,,,,,,,,,,,,,,,,,,,,,,,,,,,,
1577420228.731400,12.000000,0.000000,4226.666504,4298.461426,4035.897461,3969.230713,4251.282227,450.000000,4.000000,,,,0.000000,4.000000,4.000000,4.000000,4.000000,4.000000,,,,,,,,,,,,,,,,,,,,,,,,,,,,,,,,,,,,,,,,,,,,,,,,,,,,,,,,
1577420228.739197,13.000000,0.000000,4254.358887,4285.128418,4047.692383,4036.923096,4264.615234,450.000000,4.000000,,,,0.000000,4.000000,4.000000,4.000000,4.000000,4.000000,,,,,,,,,,,,,,,,,,,,,,,,,,,,,,,,,,,,,,,,,,,,,,,,,,,,,,,,
1577420228.746893,14.000000,0.000000,4262.051270,4314.358887,4042.051270,4073.846191,4261.025879,450.000000,4.000000,,,,0.000000,4.000000,4.000000,4.000000,4.000000,4.000000,,,,,,,,,,,,,,,,,,,,,,,,,,,,,,,,,,,,,,,,,,,,,,,,,,,,,,,,
1577420228.754690,15.000000,0.000000,4245.128418,4320.000000,4021.025635,3925.641113,4256.922852,16208.000000,4.000000,,,,0.000000,4.000000,4.000000,4.000000,4.000000,4.000000,,,,,,,,,,,,,,,,,,,,,,,,,,,,,,,,,,,,,,,,,,,,,,,,,,,,,,,,
1577420228.762387,16.000000,0.000000,4238.461426,4278.461426,4010.256348,3873.846191,4251.794922,0.000000,4.000000,,,,0.000000,4.000000,4.000000,4.000000,4.000000,4.000000,,,,,,,,,,,,,,,,,,,,,,,,,,,,,,,,,,,,,,,,,,,,,,,,,,,,,,,,
1577420228.770183,17.000000,0.000000,4242.051270,4280.512695,4008.205078,4027.179443,4236.922852,0.000000,4.000000,,,,0.000000,4.000000,4.000000,4.000000,4.000000,4.000000,,,,,,,,,,,,,,,,,,,,,,,,,,,,,,,,,,,,,,,,,,,,,,,,,,,,,,,,
1577420228.777880,18.000000,0.000000,4246.153809,4305.641113,4012.820557,4042.564209,4233.846191,0.000000,4.000000,,,,0.000000,4.000000,4.000000,4.000000,4.000000,4.000000,,,,,,,,,,,,,,,,,,,,,,,,,,,,,,,,,,,,,,,,,,,,,,,,,,,,,,,,
1577420228.785676,19.000000,0.000000,4240.000000,4288.205078,4015.897461,3937.435791,4229.230957,0.000000,4.000000,,,,0.000000,4.000000,4.000000,4.000000,4.000000,4.000000,,,,,,,,,,,,,,,,,,,,,,,,,,,,,,,,,,,,,,,,,,,,,,,,,,,,,,,,
1577420228.793373,20.000000,0.000000,4246.153809,4285.641113,4023.589844,3966.666748,4244.102539,0.000000,4.000000,,,,0.000000,4.000000,4.000000,4.000000,4.000000,4.000000,,,,,,,,,,,,,,,,,,,,,,,,,,,,,,,,3.186807,4.306708,2.532019,2.901843,1.432575,0.816451,1.802967,0.776074,1.146717,1.322555,2.176718,2.759258,1.319357,2.123587,1.129954,3.918784,8.374404,4.874329,8.259356,8.823942,4.597538,4.991655,2.534355,1.791894,1.136779
1577420228.801169,21.000000,0.000000,4248.717773,4314.871582,4020.000000,3977.435791,4254.871582,0.000000,4.000000,,,,0.000000,4.000000,4.000000,4.000000,4.000000,4.000000,,,,,,,,,,,,,,,,,,,,,,,,,,,,,,,,,,,,,,,,,,,,,,,,,,,,,,,,
1577420228.808866,22.000000,0.000000,4244.615234,4321.538574,4014.871826,3897.435791,4242.051270,0.000000,4.000000,,,,0.000000,4.000000,4.000000,4.000000,4.000000,4.000000,,,,,,,,,,,,,,,,,,,,,,,,,,,,,,,,,,,,,,,,,,,,,,,,,,,,,,,,
1577420228.816762,23.000000,0.000000,4263.589844,4326.666504,4040.000000,3961.538574,4244.615234,0.000000,4.000000,,,,0.000000,4.000000,4.000000,4.000000,4.000000,4.000000,,,,,,,,,,,,,,,,,,,,,,,,,,,,,,,,,,,,,,,,,,,,,,,,,,,,,,,,
1577420228.824559,24.000000,0.000000,4271.794922,4330.256348,4063.589844,4043.076904,4252.307617,0.000000,4.000000,,,,0.000000,4.000000,4.000000,4.000000,4.000000,4.000000,,,,,,,,,,,,,,,,,,,,,,,,,,,,,,,,,,,,,,,,,,,,,,,,,,,,,,,,
1577420228.832455,25.000000,0.000000,4278.974121,4328.205078,4070.769287,4012.307617,4268.205078,0.000000,4.000000,,,,0.000000,4.000000,4.000000,4.000000,4.000000,4.000000,,,,,,,,,,,,,,,,,,,,,,,,,,,,,,,,,,,,,,,,,,,,,,,,,,,,,,,,
1577420228.840252,26.000000,0.000000,4281.025879,4322.051270,4056.923096,4010.769287,4274.871582,0.000000,4.000000,,,,0.000000,4.000000,4.000000,4.000000,4.000000,4.000000,,,,,,,,,,,,,,,,,,,,,,,,,,,,,,,,,,,,,,,,,,,,,,,,,,,,,,,,
1577420228.848148,27.000000,0.000000,4261.025879,4298.974121,4029.743652,4008.718018,4268.205078,0.000000,4.000000,,,,0.000000,4.000000,4.000000,4.000000,4.000000,4.000000,,,,,,,,,,,,,,,,,,,,,,,,,,,,,,,,,,,,,,,,,,,,,,,,,,,,,,,,
1577420228.855945,28.000000,0.000000,4288.205078,4317.948730,4038.461426,4017.948730,4300.000000,0.000000,4.000000,,,,0.000000,4.000000,4.000000,4.000000,4.000000,4.000000,,,,,,,,,,,,,,,,,,,,,,,,,,,,,,,,,,,,,,,,,,,,,,,,,,,,,,,,
1577420228.863841,29.000000,0.000000,4322.563965,4345.641113,4049.743652,4010.769287,4315.384766,0.000000,4.000000,,,,0.000000,4.000000,4.000000,4.000000,4.000000,4.000000,,,,,,,,,,,,,,,,,,,,,,,,,,,,,,,,,,,,,,,,,,,,,,,,,,,,,,,,
1577420228.871638,30.000000,0.000000,4315.384766,4335.384766,4052.307617,3985.128174,4291.794922,0.000000,4.000000,,,,0.000000,4.000000,4.000000,4.000000,4.000000,4.000000,,,,,,,,,,,,,,,,,,,,,,,,,,,,,,,,,,,,,,,,,,,,,,,,,,,,,,,,
1577420228.879534,31.000000,0.000000,4321.538574,4335.384766,4075.384521,3996.923096,4295.897461,0.000000,4.000000,,,,0.000000,4.000000,4.000000,4.000000,4.000000,4.000000,,,,,,,,,,,,,,,,,,,,,,,,,,,,,,,,,,,,,,,,,,,,,,,,,,,,,,,,
1577420228.887331,32.000000,0.000000,4324.615234,4343.077148,4077.435791,4087.179443,4311.282227,0.000000,4.000000,,,,0.000000,4.000000,4.000000,4.000000,4.000000,4.000000,,,,,,,,,,,,,,,,,,,,,,,,,,,,,,,,,,,,,,,,,,,,,,,,,,,,,,,,
1577420228.895227,33.000000,0.000000,4304.102539,4343.589844,4058.974365,4102.563965,4307.179688,0.000000,4.000000,,,,0.000000,4.000000,4.000000,4.000000,4.000000,4.000000,,,,,,,,,,,,,,,,,,,,,,,,,,,,,,,,,,,,,,,,,,,,,,,,,,,,,,,,
1577420228.903024,34.000000,0.000000,4290.256348,4330.769043,4049.743652,3981.538574,4293.333496,0.000000,4.000000,,,,0.000000,4.000000,4.000000,4.000000,4.000000,4.000000,,,,,,,,,,,,,,,,,,,,,,,,,,,,,,,,,,,,,,,,,,,,,,,,,,,,,,,,
1577420228.910920,35.000000,0.000000,4296.922852,4324.102539,4052.307617,3984.102539,4289.230957,0.000000,4.000000,,,,0.000000,4.000000,4.000000,4.000000,4.000000,4.000000,,,,,,,,,,,,,,,,,,,,,,,,,,,,,,,,,,,,,,,,,,,,,,,,,,,,,,,,
1577420228.918717,36.000000,0.000000,4324.102539,4341.538574,4073.333252,4087.692383,4304.615234,0.000000,4.000000,,,,0.000000,4.000000,4.000000,4.000000,4.000000,4.000000,,,,,,,,,,,,,,,,,,,,,,,,,,,,,,,,3.185194,4.341412,2.840572,2.771060,1.482960,0.846299,2.335009,0.710473,1.288785,1.428990,2.245021,3.190549,1.409516,1.892420,1.078481,3.894936,8.851596,4.850233,9.472919,9.824619,4.755823,4.579249,2.830642,1.773696,1.131380
1577420228.926413,37.000000,0.000000,4324.615234,4340.512695,4087.179443,4074.358887,4299.487305,0.000000,4.000000,,,,0.000000,4.000000,4.000000,4.000000,4.000000,4.000000,,,,,,,,,,,,,,,,,,,,,,,,,,,,,,,,,,,,,,,,,,,,,,,,,,,,,,,,
1577420228.934210,38.000000,0.000000,4308.205078,4337.948730,4088.205078,4061.538574,4287.692383,0.000000,4.000000,,,,0.000000,4.000000,4.000000,4.000000,4.000000,4.000000,,,,,,,,,,,,,,,,,,,,,,,,,,,,,,,,,,,,,,,,,,,,,,,,,,,,,,,,
1577420228.941907,39.000000,0.000000,4306.153809,4350.256348,4081.025635,4081.538574,4282.563965,0.000000,4.000000,,,,0.000000,4.000000,4.000000,4.000000,4.000000,4.000000,,,,,,,,,,,,,,,,,,,,,,,,,,,,,,,,,,,,,,,,,,,,,,,,,,,,,,,,
1577420228.949703,40.000000,0.000000,4312.307617,4349.230957,4072.820557,4034.358887,4276.410156,0.000000,4.000000,,,,0.000000,4.000000,4.000000,4.000000,4.000000,4.000000,,,,,,,,,,,,,,,,,,,,,,,,,,,,,,,,,,,,,,,,,,,,,,,,,,,,,,,,
1577420228.957400,41.000000,0.000000,4328.205078,4331.282227,4085.128174,4030.256348,4283.589844,0.000000,4.000000,,,,0.000000,4.000000,4.000000,4.000000,4.000000,4.000000,,,,,,,,,,,,,,,,,,,,,,,,,,,,,,,,,,,,,,,,,,,,,,,,,,,,,,,,
1577420228.965296,42.000000,0.000000,4307.692383,4310.769043,4087.692383,4067.179443,4271.794922,0.000000,4.000000,,,,0.000000,4.000000,4.000000,4.000000,4.000000,4.000000,,,,,,,,,,,,,,,,,,,,,,,,,,,,,,,,,,,,,,,,,,,,,,,,,,,,,,,,
1577420228.973093,43.000000,0.000000,4300.000000,4333.846191,4087.692383,4051.281982,4262.051270,0.000000,4.000000,,,,0.000000,4.000000,4.000000,4.000000,4.000000,4.000000,,,,,,,,,,,,,,,,,,,,,,,,,,,,,,,,,,,,,,,,,,,,,,,,,,,,,,,,
1577420228.980989,44.000000,0.000000,4332.820313,4374.871582,4103.077148,4103.077148,4277.948730,0.000000,4.000000,,,,0.000000,4.000000,4.000000,4.000000,4.000000,4.000000,,,,,,,,,,,,,,,,,,,,,,,,,,,,,,,,,,,,,,,,,,,,,,,,,,,,,,,,
1577420228.988786,45.000000,0.000000,4331.794922,4364.102539,4113.846191,4185.128418,4281.538574,0.000000,4.000000,,,,0.000000,4.000000,4.000000,4.000000,4.000000,4.000000,,,,,,,,,,,,,,,,,,,,,,,,,,,,,,,,,,,,,,,,,,,,,,,,,,,,,,,,
1577420228.996682,46.000000,0.000000,4318.974121,4337.948730,4116.410156,4118.461426,4278.974121,0.000000,4.000000,,,,0.000000,4.000000,4.000000,4.000000,4.000000,4.000000,,,,,,,,,,,,,,,,,,,,,,,,,,,,,,,,,,,,,,,,,,,,,,,,,,,,,,,,
1577420229.004479,47.000000,0.000000,4314.871582,4328.717773,4101.025879,3983.076904,4275.384766,0.000000,4.000000,,,,0.000000,4.000000,4.000000,4.000000,4.000000,4.000000,,,,,,,,,,,,,,,,,,,,,,,,,,,,,,,,,,,,,,,,,,,,,,,,,,,,,,,,
1577420229.012375,48.000000,0.000000,4319.487305,4336.410156,4106.153809,4029.743652,4285.128418,0.000000,4.000000,,,,0.000000,4.000000,4.000000,4.000000,4.000000,4.000000,,,,,,,,,,,,,,,,,,,,,,,,,,,,,,,,,,,,,,,,,,,,,,,,,,,,,,,,
1577420229.020171,49.000000,0.000000,4310.769043,4341.025879,4114.358887,4135.384766,4280.000000,0.000000,4.000000,,,,0.000000,4.000000,4.000000,4.000000,4.000000,4.000000,,,,,,,,,,,,,,,,,,,,,,,,,,,,,,,,,,,,,,,,,,,,,,,,,,,,,,,,
1577420229.028068,50.000000,0.000000,4287.179688,4342.563965,4092.820557,4110.769043,4243.589844,0.000000,4.000000,,,,0.000000,4.000000,4.000000,4.000000,4.000000,4.000000,,,,,,,,,,,,,,,,,,,,,,,,,,,,,,,,,,,,,,,,,,,,,,,,,,,,,,,,
1577420229.035864,51.000000,0.000000,4312.820313,4357.948730,4112.307617,4065.128174,4250.769043,0.000000,4.000000,,,,0.000000,4.000000,4.000000,4.000000,4.000000,4.000000,,,,,,,,,,,,,,,,,,,,,,,,,,,,,,,,,,,,,,,,,,,,,,,,,,,,,,,,
1577420229.043761,52.000000,0.000000,4324.615234,4326.666504,4123.589844,4062.051270,4266.153809,0.000000,4.000000,,,,0.000000,4.000000,4.000000,4.000000,4.000000,4.000000,,,,,,,,,,,,,,,,,,,,,,,,,,,,,,,,3.367127,4.451772,2.976077,2.600682,1.526239,0.879993,2.918183,0.669932,1.481664,1.601004,2.451898,3.658820,1.563343,1.667130,1.029489,4.023625,8.730844,4.922958,10.415169,11.046728,4.943708,4.150851,3.054815,1.763603,1.113527
1577420229.051658,53.000000,0.000000,4281.538574,4302.051270,4087.692383,4081.538574,4250.769043,0.000000,4.000000,,,,0.000000,4.000000,4.000000,4.000000,4.000000,4.000000,,,,,,,,,,,,,,,,,,,,,,,,,,,,,,,,,,,,,,,,,,,,,,,,,,,,,,,,
1577420229.059454,54.000000,0.000000,4286.666504,4356.922852,4096.922852,4097.948730,4263.589844,0.000000,4.000000,,,,0.000000,4.000000,4.000000,4.000000,4.000000,4.000000,,,,,,,,,,,,,,,,,,,,,,,,,,,,,,,,,,,,,,,,,,,,,,,,,,,,,,,,
1577420229.067251,55.000000,0.000000,4328.205078,4372.307617,4121.538574,4128.205078,4285.128418,0.000000,4.000000,,,,0.000000,4.000000,4.000000,4.000000,4.000000,4.000000,,,,,,,,,,,,,,,,,,,,,,,,,,,,,,,,,,,,,,,,,,,,,,,,,,,,,,,,
1577420229.075048,56.000000,0.000000,4336.922852,4331.282227,4117.948730,4126.153809,4280.000000,0.000000,4.000000,,,,0.000000,4.000000,4.000000,4.000000,4.000000,4.000000,,,,,,,,,,,,,,,,,,,,,,,,,,,,,,,,,,,,,,,,,,,,,,,,,,,,,,,,
1577420229.082944,57.000000,0.000000,4310.769043,4329.230957,4106.666504,4083.589844,4260.512695,0.000000,4.000000,,,,0.000000,4.000000,4.000000,4.000000,4.000000,4.000000,,,,,,,,,,,,,,,,,,,,,,,,,,,,,,,,,,,,,,,,,,,,,,,,,,,,,,,,
1577420229.090741,58.000000,0.000000,4294.871582,4364.615234,4109.230957,4100.000000,4257.948730,0.000000,4.000000,,,,0.000000,4.000000,4.000000,4.000000,4.000000,4.000000,,,,,,,,,,,,,,,,,,,,,,,,,,,,,,,,,,,,,,,,,,,,,,,,,,,,,,,,
1577420229.098637,59.000000,0.000000,4324.102539,4382.563965,4134.358887,4148.717773,4281.025879,0.000000,4.000000,,,,0.000000,4.000000,4.000000,4.000000,4.000000,4.000000,,,,,,,,,,,,,,,,,,,,,,,,,,,,,,,,,,,,,,,,,,,,,,,,,,,,,,,,
1577420229.106434,60.000000,0.000000,4324.615234,4347.179688,4130.769043,4148.205078,4277.948730,0.000000,4.000000,,,,0.000000,4.000000,4.000000,4.000000,4.000000,4.000000,,,,,,,,,,,,,,,,,,,,,,,,,,,,,,,,,,,,,,,,,,,,,,,,,,,,,,,,
1577420229.114330,61.000000,0.000000,4308.205078,4329.743652,4118.461426,4111.282227,4269.230957,0.000000,4.000000,,,,0.000000,4.000000,4.000000,4.000000,4.000000,4.000000,,,,,,,,,,,,,,,,,,,,,,,,,,,,,,,,,,,,,,,,,,,,,,,,,,,,,,,,
1577420229.122227,62.000000,0.000000,4310.256348,4336.410156,4126.153809,4103.589844,4258.974121,0.000000,4.000000,,,,0.000000,4.000000,4.000000,4.000000,4.000000,4.000000,,,,,,,,,,,,,,,,,,,,,,,,,,,,,,,,,,,,,,,,,,,,,,,,,,,,,,,,
1577420229.130023,63.000000,0.000000,4284.102539,4304.102539,4108.205078,4123.077148,4232.820313,0.000000,4.000000,,,,0.000000,4.000000,4.000000,4.000000,4.000000,4.000000,,,,,,,,,,,,,,,,,,,,,,,,,,,,,,,,,,,,,,,,,,,,,,,,,,,,,,,,
1577420229.137920,64.000000,0.000000,4300.512695,4310.769043,4124.615234,4152.820313,4258.461426,450.000000,4.000000,,,,0.000000,4.000000,4.000000,4.000000,4.000000,4.000000,,,,,,,,,,,,,,,,,,,,,,,,,,,,,,,,,,,,,,,,,,,,,,,,,,,,,,,,
1577420229.145716,65.000000,0.000000,4330.769043,4336.922852,4160.000000,4143.077148,4277.948730,450.000000,4.000000,,,,0.000000,4.000000,4.000000,4.000000,4.000000,4.000000,,,,,,,,,,,,,,,,,,,,,,,,,,,,,,,,,,,,,,,,,,,,,,,,,,,,,,,,
1577420229.153613,66.000000,0.000000,4306.666504,4325.128418,4151.794922,4096.410156,4258.461426,16191.000000,4.000000,,,,0.000000,4.000000,4.000000,4.000000,4.000000,4.000000,,,,,,,,,,,,,,,,,,,,,,,,,,,,,,,,,,,,,,,,,,,,,,,,,,,,,,,,
1577420229.161409,67.000000,0.000000,4298.461426,4324.102539,4148.717773,4099.487305,4255.384766,450.000000,4.000000,,,,0.000000,4.000000,4.000000,4.000000,4.000000,4.000000,,,,,,,,,,,,,,,,,,,,,,,,,,,,,,,,,,,,,,,,,,,,,,,,,,,,,,,,
1577420229.169306,68.000000,0.000000,4295.384766,4303.589844,4140.512695,4136.410156,4251.282227,16201.000000,4.000000,,,,0.000000,4.000000,4.000000,4.000000,4.000000,4.000000,,,,,,,,,,,,,,,,,,,,,,,,,,,,,,,,3.756994,4.605298,2.887707,2.415879,1.539221,0.978267,3.443928,0.693659,1.690955,1.821069,2.774975,4.144672,1.738345,1.517622,0.984778,4.556948,8.129026,5.046905,11.157405,12.695913,5.390761,3.845230,3.154125,1.770317,1.075753
1577420229.177102,69.000000,0.000000,4308.205078,4316.410156,4155.897461,4193.333496,4268.205078,450.000000,4.000000,,,,0.000000,4.000000,4.000000,4.000000,4.000000,4.000000,,,,,,,,,,,,,,,,,,,,,,,,,,,,,,,,,,,,,,,,,,,,,,,,,,,,,,,,
1577420229.184999,70.000000,0.000000,4294.358887,4332.820313,4157.436035,4127.179688,4250.769043,16145.000000,4.000000,,,,0.000000,4.000000,4.000000,4.000000,4.000000,4.000000,,,,,,,,,,,,,,,,,,,,,,,,,,,,,,,,,,,,,,,,,,,,,,,,,,,,,,,,
1577420229.192795,71.000000,0.000000,4276.410156,4297.948730,4137.436035,4050.769287,4237.948730,450.000000,4.000000,,,,0.000000,4.000000,4.000000,4.000000,4.000000,4.000000,,,,,,,,,,,,,,,,,,,,,,,,,,,,,,,,,,,,,,,,,,,,,,,,,,,,,,,,
1577420229.200592,72.000000,0.000000,4331.794922,4317.948730,4178.974121,4174.358887,4294.358887,450.000000,4.000000,,,,0.000000,4.000000,4.000000,4.000000,4.000000,4.000000,,,,,,,,,,,,,,,,,,,,,,,,,,,,,,,,,,,,,,,,,,,,,,,,,,,,,,,,
1577420229.208488,73.000000,0.000000,4313.333496,4335.384766,4161.025879,4234.358887,4285.641113,16205.000000,4.000000,,,,0.000000,4.000000,4.000000,4.000000,4.000000,4.000000,,,,,,,,,,,,,,,,,,,,,,,,,,,,,,,,,,,,,,,,,,,,,,,,,,,,,,,,
1577420229.216384,74.000000,0.000000,4307.692383,4343.589844,4155.384766,4164.102539,4290.769043,450.000000,4.000000,,,,0.000000,4.000000,4.000000,4.000000,4.000000,4.000000,,,,,,,,,,,,,,,,,,,,,,,,,,,,,,,,,,,,,,,,,,,,,,,,,,,,,,,,
1577420229.224181,75.000000,0.000000,4334.871582,4327.179688,4179.487305,4126.153809,4291.282227,16172.000000,4.000000,,,,0.000000,4.000000,4.000000,4.000000,4.000000,4.000000,,,,,,,,,,,,,,,,,,,,,,,,,,,,,,,,,,,,,,,,,,,,,,,,,,,,,,,,
1577420229.231978,76.000000,0.000000,4218.461426,4258.974121,4073.846191,4107.179688,4207.179688,450.000000,4.000000,,,,0.000000,4.000000,4.000000,4.000000,4.000000,4.000000,,,,,,,,,,,,,,,,,,,,,,,,,,,,,,,,,,,,,,,,,,,,,,,,,,,,,,,,
1577420229.239874,77.000000,0.000000,4385.128418,4449.230957,4247.179688,4224.615234,4378.461426,450.000000,4.000000,,,,0.000000,4.000000,4.000000,4.000000,4.000000,4.000000,,,,,,,,,,,,,,,,,,,,,,,,,,,,,,,,,,,,,,,,,,,,,,,,,,,,,,,,
1577420229.247770,78.000000,0.000000,4365.641113,4369.230957,4226.666504,4074.358887,4320.512695,450.000000,4.000000,,,,0.000000,4.000000,4.000000,4.000000,4.000000,4.000000,,,,,,,,,,,,,,,,,,,,,,,,,,,,,,,,,,,,,,,,,,,,,,,,,,,,,,,,
1577420229.255567,79.000000,0.000000,3956.410156,4052.820557,3844.615479,3924.615479,4062.051270,16172.000000,4.000000,,,,0.000000,4.000000,4.000000,4.000000,4.000000,4.000000,,,,,,,,,,,,,,,,,,,,,,,,,,,,,,,,,,,,,,,,,,,,,,,,,,,,,,,,
1577420229.263463,80.000000,0.000000,4390.769043,4463.589844,4273.333496,4342.051270,4439.487305,450.000000,4.000000,,,,0.000000,4.000000,4.000000,4.000000,4.000000,4.000000,,,,,,,,,,,,,,,,,,,,,,,,,,,,,,,,,,,,,,,,,,,,,,,,,,,,,,,,
1577420229.271260,81.000000,0.000000,4571.794922,4497.948730,4420.000000,4232.820313,4405.128418,450.000000,4.000000,,,,0.000000,4.000000,4.000000,4.000000,4.000000,4.000000,,,,,,,,,,,,,,,,,,,,,,,,,,,,,,,,,,,,,,,,,,,,,,,,,,,,,,,,
1577420229.279156,82.000000,0.000000,4200.000000,4194.871582,4053.846191,4024.615479,4191.794922,450.000000,4.000000,,,,0.000000,4.000000,4.000000,4.000000,4.000000,4.000000,,,,,,,,,,,,,,,,,,,,,,,,,,,,,,,,,,,,,,,,,,,,,,,,,,,,,,,,
1577420229.286953,83.000000,0.000000,4425.128418,4444.102539,4276.410156,4268.717773,4476.922852,16172.000000,4.000000,,,,0.000000,4.000000,4.000000,4.000000,4.000000,4.000000,,,,,,,,,,,,,,,,,,,,,,,,,,,,,,,,,,,,,,,,,,,,,,,,,,,,,,,,
1577420229.294849,84.000000,0.000000,4386.153809,4358.974121,4244.102539,4159.487305,4341.025879,450.000000,4.000000,,,,0.000000,4.000000,4.000000,4.000000,4.000000,4.000000,,,,,,,,,,,,,,,,,,,,,,,,,,,,,,,,4.300197,4.700854,2.622934,2.254016,1.516430,1.177413,3.812002,0.801829,1.888412,2.053301,3.216190,4.552636,1.884879,1.500743,0.945481,5.663968,7.294100,5.167035,11.966192,14.810132,6.238353,3.700562,3.122168,1.800898,1.025527
1577420229.302646,85.000000,0.000000,4238.461426,4244.102539,4111.282227,4144.102539,4251.282227,450.000000,4.000000,,,,0.000000,4.000000,4.000000,4.000000,4.000000,4.000000,,,,,,,,,,,,,,,,,,,,,,,,,,,,,,,,,,,,,,,,,,,,,,,,,,,,,,,,
1577420229.310542,86.000000,0.000000,4306.666504,4345.641113,4180.000000,4144.102539,4323.589844,450.000000,4.000000,,,,0.000000,4.000000,4.000000,4.000000,4.000000,4.000000,,,,,,,,,,,,,,,,,,,,,,,,,,,,,,,,,,,,,,,,,,,,,,,,,,,,,,,,
1577420229.318339,87.000000,0.000000,4238.461426,4292.820313,4126.666504,4035.384521,4248.717773,16172.000000,4.000000,,,,0.000000,4.000000,4.000000,4.000000,4.000000,4.000000,,,,,,,,,,,,,,,,,,,,,,,,,,,,,,,,,,,,,,,,,,,,,,,,,,,,,,,,
1577420229.326235,88.000000,0.000000,4268.717773,4306.666504,4175.897461,4143.077148,4286.666504,450.000000,4.000000,,,,0.000000,4.000000,4.000000,4.000000,4.000000,4.000000,,,,,,,,,,,,,,,,,,,,,,,,,,,,,,,,,,,,,,,,,,,,,,,,,,,,,,,,
1577420229.334032,89.000000,0.000000,4245.128418,4293.846191,4165.128418,4183.077148,4251.794922,450.000000,4.000000,,,,0.000000,4.000000,4.000000,4.000000,4.000000,4.000000,,,,,,,,,,,,,,,,,,,,,,,,,,,,,,,,,,,,,,,,,,,,,,,,,,,,,,,,
1577420229.341928,90.000000,0.000000,4216.922852,4296.410156,4131.282227,4119.487305,4234.358887,450.000000,4.000000,,,,0.000000,4.000000,4.000000,4.000000,4.000000,4.000000,,,,,,,,,,,,,,,,,,,,,,,,,,,,,,,,,,,,,,,,,,,,,,,,,,,,,,,,
1577420229.349725,91.000000,0.000000,4264.102539,4334.871582,4167.692383,4037.435791,4269.743652,16172.000000,4.000000,,,,0.000000,4.000000,4.000000,4.000000,4.000000,4.000000,,,,,,,,,,,,,,,,,,,,,,,,,,,,,,,,,,,,,,,,,,,,,,,,,,,,,,,,
1577420229.357621,92.000000,0.000000,4266.666504,4316.410156,4174.358887,4138.974121,4260.000000,450.000000,4.000000,,,,0.000000,4.000000,4.000000,4.000000,4.000000,4.000000,,,,,,,,,,,,,,,,,,,,,,,,,,,,,,,,,,,,,,,,,,,,,,,,,,,,,,,,
1577420229.365418,93.000000,0.000000,4235.897461,4298.974121,4149.230957,4300.512695,4236.410156,450.000000,4.000000,,,,0.000000,4.000000,4.000000,4.000000,4.000000,4.000000,,,,,,,,,,,,,,,,,,,,,,,,,,,,,,,,,,,,,,,,,,,,,,,,,,,,,,,,
1577420229.373314,94.000000,0.000000,4204.615234,4307.179688,4113.846191,4079.487061,4210.256348,450.000000,4.000000,,,,0.000000,4.000000,4.000000,4.000000,4.000000,4.000000,,,,,,,,,,,,,,,,,,,,,,,,,,,,,,,,,,,,,,,,,,,,,,,,,,,,,,,,
1577420229.381210,95.000000,0.000000,4200.512695,4302.051270,4108.717773,3915.384521,4205.641113,16172.000000,4.000000,,,,0.000000,4.000000,4.000000,4.000000,4.000000,4.000000,,,,,,,,,,,,,,,,,,,,,,,,,,,,,,,,,,,,,,,,,,,,,,,,,,,,,,,,
1577420229.389007,96.000000,0.000000,4217.436035,4281.025879,4129.743652,4164.615234,4216.922852,450.000000,4.000000,,,,0.000000,4.000000,4.000000,4.000000,4.000000,4.000000,,,,,,,,,,,,,,,,,,,,,,,,,,,,,,,,,,,,,,,,,,,,,,,,,,,,,,,,
1577420229.396903,97.000000,0.000000,4200.512695,4288.205078,4111.794922,4209.743652,4203.589844,450.000000,4.000000,,,,0.000000,4.000000,4.000000,4.000000,4.000000,4.000000,,,,,,,,,,,,,,,,,,,,,,,,,,,,,,,,,,,,,,,,,,,,,,,,,,,,,,,,
1577420229.404700,98.000000,0.000000,4163.589844,4306.666504,4075.384521,3971.281982,4171.282227,450.000000,4.000000,,,,0.000000,4.000000,4.000000,4.000000,4.000000,4.000000,,,,,,,,,,,,,,,,,,,,,,,,,,,,,,,,,,,,,,,,,,,,,,,,,,,,,,,,
1577420229.412596,99.000000,0.000000,4150.769043,4272.307617,4067.692383,4035.384521,4155.897461,16172.000000,4.000000,,,,0.000000,4.000000,4.000000,4.000000,4.000000,4.000000,,,,,,,,,,,,,,,,,,,,,,,,,,,,,,,,,,,,,,,,,,,,,,,,,,,,,,,,
1577420229.420393,100.000000,0.000000,4165.128418,4256.410156,4080.000000,4189.743652,4178.974121,450.000000,4.000000,,,,0.000000,4.000000,4.000000,4.000000,4.000000,4.000000,,,,,,,,,,,,,,,,,,,,,,,,,,,,,,,,4.909307,4.657559,2.304299,2.167429,1.612304,1.489402,3.951220,0.957742,2.083939,2.366953,3.645256,4.766112,1.961390,1.648471,1.038909,7.041026,6.522750,5.288445,13.090121,17.261957,7.380615,3.638942,2.955859,1.857269,1.047644
1577420229.428289,101.000000,0.000000,4168.205078,4295.897461,4074.358887,4015.897461,4187.179688,450.000000,4.000000,,,,0.000000,4.000000,4.000000,4.000000,4.000000,4.000000,,,,,,,,,,,,,,,,,,,,,,,,,,,,,,,,,,,,,,,,,,,,,,,,,,,,,,,,
1577420229.436086,102.000000,0.000000,4160.000000,4297.436035,4059.487061,3972.820557,4168.205078,450.000000,4.000000,,,,0.000000,4.000000,4.000000,4.000000,4.000000,4.000000,,,,,,,,,,,,,,,,,,,,,,,,,,,,,,,,,,,,,,,,,,,,,,,,,,,,,,,,
1577420229.443982,103.000000,0.000000,4186.153809,4273.333496,4081.538574,4150.256348,4192.820313,16172.000000,4.000000,,,,0.000000,4.000000,4.000000,4.000000,4.000000,4.000000,,,,,,,,,,,,,,,,,,,,,,,,,,,,,,,,,,,,,,,,,,,,,,,,,,,,,,,,
1577420229.451779,104.000000,0.000000,4217.436035,4298.461426,4106.666504,4100.000000,4230.769043,450.000000,4.000000,,,,0.000000,4.000000,4.000000,4.000000,4.000000,4.000000,,,,,,,,,,,,,,,,,,,,,,,,,,,,,,,,,,,,,,,,,,,,,,,,,,,,,,,,
1577420229.459675,105.000000,0.000000,4215.384766,4328.205078,4097.436035,3975.384521,4227.692383,450.000000,4.000000,,,,0.000000,4.000000,4.000000,4.000000,4.000000,4.000000,,,,,,,,,,,,,,,,,,,,,,,,,,,,,,,,,,,,,,,,,,,,,,,,,,,,,,,,
1577420229.467472,106.000000,0.000000,4207.692383,4302.051270,4088.205078,4030.769287,4214.358887,450.000000,4.000000,,,,0.000000,4.000000,4.000000,4.000000,4.000000,4.000000,,,,,,,,,,,,,,,,,,,,,,,,,,,,,,,,,,,,,,,,,,,,,,,,,,,,,,,,
1577420229.475368,107.000000,0.000000,4201.538574,4261.538574,4087.179443,4122.051270,4210.769043,16172.000000,4.000000,,,,0.000000,4.000000,4.000000,4.000000,4.000000,4.000000,,,,,,,,,,,,,,,,,,,,,,,,,,,,,,,,,,,,,,,,,,,,,,,,,,,,,,,,
1577420229.483165,108.000000,0.000000,4180.000000,4257.436035,4077.948730,4099.487305,4196.922852,450.000000,4.000000,,,,0.000000,4.000000,4.000000,4.000000,4.000000,4.000000,,,,,,,,,,,,,,,,,,,,,,,,,,,,,,,,,,,,,,,,,,,,,,,,,,,,,,,,
1577420229.491061,109.000000,0.000000,4152.820313,4267.179688,4066.666748,4060.000000,4172.307617,450.000000,4.000000,,,,0.000000,4.000000,4.000000,4.000000,4.000000,4.000000,,,,,,,,,,,,,,,,,,,,,,,,,,,,,,,,,,,,,,,,,,,,,,,,,,,,,,,,
1577420229.498858,110.000000,0.000000,4148.717773,4270.256348,4069.230713,4004.615479,4171.282227,450.000000,4.000000,,,,0.000000,4.000000,4.000000,4.000000,4.000000,4.000000,,,,,,,,,,,,,,,,,,,,,,,,,,,,,,,,,,,,,,,,,,,,,,,,,,,,,,,,
1577420229.506754,111.000000,0.000000,4147.692383,4271.282227,4065.128174,3914.871826,4171.794922,16172.000000,4.000000,,,,0.000000,4.000000,4.000000,4.000000,4.000000,4.000000,,,,,,,,,,,,,,,,,,,,,,,,,,,,,,,,,,,,,,,,,,,,,,,,,,,,,,,,
1577420229.514651,112.000000,0.000000,4140.512695,4252.307617,4051.794922,3983.076904,4158.461426,450.000000,4.000000,,,,0.000000,4.000000,4.000000,4.000000,4.000000,4.000000,,,,,,,,,,,,,,,,,,,,,,,,,,,,,,,,,,,,,,,,,,,,,,,,,,,,,,,,
1577420229.522447,113.000000,0.000000,4157.436035,4238.974121,4067.692383,4148.717773,4176.922852,450.000000,4.000000,,,,0.000000,4.000000,4.000000,4.000000,4.000000,4.000000,,,,,,,,,,,,,,,,,,,,,,,,,,,,,,,,,,,,,,,,,,,,,,,,,,,,,,,,
1577420229.530344,114.000000,0.000000,4169.230957,4266.153809,4087.179443,4048.205078,4193.333496,450.000000,4.000000,,,,0.000000,4.000000,4.000000,4.000000,4.000000,4.000000,,,,,,,,,,,,,,,,,,,,,,,,,,,,,,,,,,,,,,,,,,,,,,,,,,,,,,,,
1577420229.538140,115.000000,0.000000,4155.897461,4287.692383,4080.512939,3853.846191,4181.538574,16172.000000,4.000000,,,,0.000000,4.000000,4.000000,4.000000,4.000000,4.000000,,,,,,,,,,,,,,,,,,,,,,,,,,,,,,,,,,,,,,,,,,,,,,,,,,,,,,,,
1577420229.546037,116.000000,0.000000,4170.769043,4295.384766,4090.769287,3995.897461,4196.410156,450.000000,4.000000,,,,0.000000,4.000000,4.000000,4.000000,4.000000,4.000000,,,,,,,,,,,,,,,,,,,,,,,,,,,,,,,,5.462529,4.562449,2.242639,2.284056,2.591878,1.908934,3.851940,1.129385,2.348195,3.303031,3.947289,4.779087,2.024926,2.018593,1.952973,8.283854,6.022146,5.494359,14.502339,20.107599,8.564363,3.582868,2.734020,1.930488,1.541806
1577420229.553833,117.000000,0.000000,4191.282227,4295.897461,4104.615234,4118.461426,4215.384766,450.000000,4.000000,,,,0.000000,4.000000,4.000000,4.000000,4.000000,4.000000,,,,,,,,,,,,,,,,,,,,,,,,,,,,,,,,,,,,,,,,,,,,,,,,,,,,,,,,
1577420229.561730,118.000000,0.000000,4172.307617,4276.410156,4084.102539,3997.435791,4201.538574,450.000000,4.000000,,,,0.000000,4.000000,4.000000,4.000000,4.000000,4.000000,,,,,,,,,,,,,,,,,,,,,,,,,,,,,,,,,,,,,,,,,,,,,,,,,,,,,,,,
1577420229.569526,119.000000,0.000000,4157.948730,4270.256348,4069.230713,3997.948730,4196.922852,16172.000000,4.000000,,,,0.000000,4.000000,4.000000,4.000000,4.000000,4.000000,,,,,,,,,,,,,,,,,,,,,,,,,,,,,,,,,,,,,,,,,,,,,,,,,,,,,,,,
1577420229.577423,120.000000,0.000000,4175.897461,4295.897461,4073.333252,4052.307617,4218.461426,450.000000,4.000000,,,,0.000000,4.000000,4.000000,4.000000,4.000000,4.000000,,,,,,,,,,,,,,,,,,,,,,,,,,,,,,,,,,,,,,,,,,,,,,,,,,,,,,,,
1577420229.585219,121.000000,0.000000,4179.487305,4294.358887,4050.769287,4023.589844,4212.307617,450.000000,4.000000,,,,0.000000,4.000000,4.000000,4.000000,4.000000,4.000000,,,,,,,,,,,,,,,,,,,,,,,,,,,,,,,,,,,,,,,,,,,,,,,,,,,,,,,,
1577420229.593116,122.000000,0.000000,4150.256348,4280.000000,4017.948730,3999.487061,4167.179688,450.000000,4.000000,,,,0.000000,4.000000,4.000000,4.000000,4.000000,4.000000,,,,,,,,,,,,,,,,,,,,,,,,,,,,,,,,,,,,,,,,,,,,,,,,,,,,,,,,
1577420229.600912,123.000000,0.000000,4145.128418,4308.717773,4025.641113,3985.641113,4153.333496,16172.000000,4.000000,,,,0.000000,4.000000,4.000000,4.000000,4.000000,4.000000,,,,,,,,,,,,,,,,,,,,,,,,,,,,,,,,,,,,,,,,,,,,,,,,,,,,,,,,
1577420229.608809,124.000000,0.000000,4164.615234,4312.820313,4044.615479,3989.743652,4164.615234,450.000000,4.000000,,,,0.000000,4.000000,4.000000,4.000000,4.000000,4.000000,,,,,,,,,,,,,,,,,,,,,,,,,,,,,,,,,,,,,,,,,,,,,,,,,,,,,,,,
1577420229.616605,125.000000,0.000000,4140.512695,4264.615234,4018.461426,3993.846191,4136.922852,450.000000,4.000000,,,,0.000000,4.000000,4.000000,4.000000,4.000000,4.000000,,,,,,,,,,,,,,,,,,,,,,,,,,,,,,,,,,,,,,,,,,,,,,,,,,,,,,,,
1577420229.624502,126.000000,0.000000,4135.384766,4280.512695,4014.358887,3952.307617,4133.333496,450.000000,4.000000,,,,0.000000,4.000000,4.000000,4.000000,4.000000,4.000000,,,,,,,,,,,,,,,,,,,,,,,,,,,,,,,,,,,,,,,,,,,,,,,,,,,,,,,,
1577420229.632298,127.000000,0.000000,4165.641113,4329.743652,4032.820557,3948.718018,4161.538574,236.000000,4.000000,,,,0.000000,4.000000,4.000000,4.000000,4.000000,4.000000,,,,,,,,,,,,,,,,,,,,,,,,,,,,,,,,,,,,,,,,,,,,,,,,,,,,,,,,
1577420229.640095,0.000000,0.000000,4138.461426,4310.256348,3995.384521,3948.718018,4138.974121,450.000000,4.000000,,,,0.000000,4.000000,4.000000,4.000000,4.000000,4.000000,,,,,,,,,,,,,,,,,,,,,,,,,,,,,,,,,,,,,,,,,,,,,,,,,,,,,,,,
1577420229.647791,1.000000,0.000000,4131.794922,4299.487305,3982.564209,3909.230713,4134.871582,450.000000,4.000000,,,,0.000000,4.000000,4.000000,4.000000,4.000000,4.000000,,,,,,,,,,,,,,,,,,,,,,,,,,,,,,,,,,,,,,,,,,,,,,,,,,,,,,,,
1577420229.655688,2.000000,0.000000,4209.743652,4337.948730,4038.461426,4022.051270,4208.717773,16225.000000,4.000000,,,,0.000000,4.000000,4.000000,4.000000,4.000000,4.000000,,,,,,,,,,,,,,,,,,,,,,,,,,,,,,,,,,,,,,,,,,,,,,,,,,,,,,,,
1577420229.663484,3.000000,0.000000,4238.461426,4347.179688,4052.820557,4157.948730,4239.487305,450.000000,4.000000,,,,0.000000,4.000000,4.000000,4.000000,4.000000,4.000000,,,,,,,,,,,,,,,,,,,,,,,,,,,,,,,,,,,,,,,,,,,,,,,,,,,,,,,,
1577420229.671381,4.000000,0.000000,4197.948730,4331.282227,4015.897461,4005.128174,4196.410156,16208.000000,4.000000,,,,0.000000,4.000000,4.000000,4.000000,4.000000,4.000000,,,,,,,,,,,,,,,,,,,,,,,,,,,,,,,,5.987195,4.756817,2.873667,2.778088,5.542579,2.410168,3.635447,1.337498,2.756901,5.679200,4.077149,4.750959,2.265584,2.676776,4.687275,8.746517,5.849713,5.988159,15.838675,24.012123,9.700174,3.577381,2.620507,2.010225,3.086023
1577420229.679177,5.000000,0.000000,4194.871582,4335.384766,4015.384521,3872.820557,4188.717773,450.000000,4.000000,,,,0.000000,4.000000,4.000000,4.000000,4.000000,4.000000,,,,,,,,,,,,,,,,,,,,,,,,,,,,,,,,,,,,,,,,,,,,,,,,,,,,,,,,
1577420229.687074,6.000000,0.000000,4207.179688,4346.153809,4029.230713,4001.538574,4207.692383,16176.000000,4.000000,,,,0.000000,4.000000,4.000000,4.000000,4.000000,4.000000,,,,,,,,,,,,,,,,,,,,,,,,,,,,,,,,,,,,,,,,,,,,,,,,,,,,,,,,
1577420229.694970,7.000000,0.000000,4181.538574,4318.461426,4005.128174,4028.205078,4185.641113,450.000000,4.000000,,,,0.000000,4.000000,4.000000,4.000000,4.000000,4.000000,,,,,,,,,,,,,,,,,,,,,,,,,,,,,,,,,,,,,,,,,,,,,,,,,,,,,,,,
1577420229.702767,8.000000,0.000000,4164.102539,4288.205078,3979.487061,3922.051270,4156.922852,450.000000,4.000000,,,,0.000000,4.000000,4.000000,4.000000,4.000000,4.000000,,,,,,,,,,,,,,,,,,,,,,,,,,,,,,,,,,,,,,,,,,,,,,,,,,,,,,,,
1577420229.710663,9.000000,0.000000,4172.820313,4300.000000,3978.461426,4026.666748,4160.512695,16163.000000,4.000000,,,,0.000000,4.000000,4.000000,4.000000,4.000000,4.000000,,,,,,,,,,,,,,,,,,,,,,,,,,,,,,,,,,,,,,,,,,,,,,,,,,,,,,,,
1577420229.718460,10.000000,0.000000,4174.358887,4301.538574,3975.897461,4141.025879,4169.743652,450.000000,4.000000,,,,0.000000,4.000000,4.000000,4.000000,4.000000,4.000000,,,,,,,,,,,,,,,,,,,,,,,,,,,,,,,,,,,,,,,,,,,,,,,,,,,,,,,,
1577420229.726256,11.000000,0.000000,4169.230957,4268.205078,3967.692383,3986.666748,4169.230957,16216.000000,4.000000,,,,0.000000,4.000000,4.000000,4.000000,4.000000,4.000000,,,,,,,,,,,,,,,,,,,,,,,,,,,,,,,,,,,,,,,,,,,,,,,,,,,,,,,,
1577420229.734153,12.000000,0.000000,4169.230957,4257.948730,3975.384521,3918.974365,4164.102539,450.000000,4.000000,,,,0.000000,4.000000,4.000000,4.000000,4.000000,4.000000,,,,,,,,,,,,,,,,,,,,,,,,,,,,,,,,,,,,,,,,,,,,,,,,,,,,,,,,
1577420229.741949,13.000000,0.000000,4164.615234,4275.384766,3978.974365,4043.589844,4158.461426,450.000000,4.000000,,,,0.000000,4.000000,4.000000,4.000000,4.000000,4.000000,,,,,,,,,,,,,,,,,,,,,,,,,,,,,,,,,,,,,,,,,,,,,,,,,,,,,,,,
1577420229.749846,14.000000,0.000000,4177.948730,4285.128418,3978.974365,4033.333252,4169.743652,450.000000,4.000000,,,,0.000000,4.000000,4.000000,4.000000,4.000000,4.000000,,,,,,,,,,,,,,,,,,,,,,,,,,,,,,,,,,,,,,,,,,,,,,,,,,,,,,,,
1577420229.757642,15.000000,0.000000,4213.333496,4292.820313,4002.564209,3976.410156,4197.436035,16216.000000,4.000000,,,,0.000000,4.000000,4.000000,4.000000,4.000000,4.000000,,,,,,,,,,,,,,,,,,,,,,,,,,,,,,,,,,,,,,,,,,,,,,,,,,,,,,,,
1577420229.765339,16.000000,0.000000,4224.102539,4280.512695,4015.897461,4045.128174,4210.256348,0.000000,4.000000,,,,0.000000,4.000000,4.000000,4.000000,4.000000,4.000000,,,,,,,,,,,,,,,,,,,,,,,,,,,,,,,,,,,,,,,,,,,,,,,,,,,,,,,,
1577420229.773135,17.000000,0.000000,4208.205078,4266.666504,4001.538574,4108.717773,4197.948730,0.000000,4.000000,,,,0.000000,4.000000,4.000000,4.000000,4.000000,4.000000,,,,,,,,,,,,,,,,,,,,,,,,,,,,,,,,,,,,,,,,,,,,,,,,,,,,,,,,
1577420229.780832,18.000000,0.000000,4202.563965,4292.820313,3988.205078,4039.487061,4188.717773,0.000000,4.000000,,,,0.000000,4.000000,4.000000,4.000000,4.000000,4.000000,,,,,,,,,,,,,,,,,,,,,,,,,,,,,,,,,,,,,,,,,,,,,,,,,,,,,,,,
1577420229.788729,19.000000,0.000000,4202.051270,4309.743652,3981.025635,3945.128174,4184.615234,0.000000,4.000000,,,,0.000000,4.000000,4.000000,4.000000,4.000000,4.000000,,,,,,,,,,,,,,,,,,,,,,,,,,,,,,,,,,,,,,,,,,,,,,,,,,,,,,,,
1577420229.796525,20.000000,0.000000,4185.641113,4282.051270,3967.179443,3929.743652,4168.717773,0.000000,4.000000,,,,0.000000,4.000000,4.000000,4.000000,4.000000,4.000000,,,,,,,,,,,,,,,,,,,,,,,,,,,,,,,,6.769109,5.688750,4.484525,3.726061,10.999599,2.932163,3.494477,1.640429,3.345787,9.931316,4.196635,4.973265,2.883967,3.599873,9.747401,8.318346,6.027122,6.946788,16.775869,30.056911,10.970160,3.866544,2.812665,2.089201,5.977322
1577420229.804322,21.000000,0.000000,4188.205078,4273.333496,3972.820557,4017.948730,4177.948730,0.000000,4.000000,,,,0.000000,4.000000,4.000000,4.000000,4.000000,4.000000,,,,,,,,,,,,,,,,,,,,,,,,,,,,,,,,,,,,,,,,,,,,,,,,,,,,,,,,
1577420229.812018,22.000000,0.000000,4221.538574,4304.615234,4007.179443,4112.820313,4216.922852,0.000000,4.000000,,,,0.000000,4.000000,4.000000,4.000000,4.000000,4.000000,,,,,,,,,,,,,,,,,,,,,,,,,,,,,,,,,,,,,,,,,,,,,,,,,,,,,,,,
1577420229.819915,23.000000,0.000000,4233.846191,4312.820313,4014.871826,4034.871826,4227.179688,0.000000,4.000000,,,,0.000000,4.000000,4.000000,4.000000,4.000000,4.000000,,,,,,,,,,,,,,,,,,,,,,,,,,,,,,,,,,,,,,,,,,,,,,,,,,,,,,,,
1577420229.827711,24.000000,0.000000,4207.179688,4304.102539,3983.076904,3961.538574,4197.948730,0.000000,4.000000,,,,0.000000,4.000000,4.000000,4.000000,4.000000,4.000000,,,,,,,,,,,,,,,,,,,,,,,,,,,,,,,,,,,,,,,,,,,,,,,,,,,,,,,,
1577420229.835608,25.000000,0.000000,4200.512695,4303.077148,3969.743652,4029.743652,4187.179688,0.000000,4.000000,,,,0.000000,4.000000,4.000000,4.000000,4.000000,4.000000,,,,,,,,,,,,,,,,,,,,,,,,,,,,,,,,,,,,,,,,,,,,,,,,,,,,,,,,
1577420229.843404,26.000000,0.000000,4233.846191,4313.333496,3990.769287,4085.641113,4210.256348,0.000000,4.000000,,,,0.000000,4.000000,4.000000,4.000000,4.000000,4.000000,,,,,,,,,,,,,,,,,,,,,,,,,,,,,,,,,,,,,,,,,,,,,,,,,,,,,,,,
1577420229.851301,27.000000,0.000000,4246.666504,4328.205078,4006.666748,4040.512939,4224.615234,0.000000,4.000000,,,,0.000000,4.000000,4.000000,4.000000,4.000000,4.000000,,,,,,,,,,,,,,,,,,,,,,,,,,,,,,,,,,,,,,,,,,,,,,,,,,,,,,,,
1577420229.859097,28.000000,0.000000,4242.563965,4326.666504,3999.487061,3985.128174,4227.692383,0.000000,4.000000,,,,0.000000,4.000000,4.000000,4.000000,4.000000,4.000000,,,,,,,,,,,,,,,,,,,,,,,,,,,,,,,,,,,,,,,,,,,,,,,,,,,,,,,,
1577420229.866993,29.000000,0.000000,4261.025879,4313.846191,3990.769287,4007.179443,4241.538574,0.000000,4.000000,,,,0.000000,4.000000,4.000000,4.000000,4.000000,4.000000,,,,,,,,,,,,,,,,,,,,,,,,,,,,,,,,,,,,,,,,,,,,,,,,,,,,,,,,
1577420229.874790,30.000000,0.000000,4276.922852,4295.897461,3991.281982,4021.025635,4251.282227,0.000000,4.000000,,,,0.000000,4.000000,4.000000,4.000000,4.000000,4.000000,,,,,,,,,,,,,,,,,,,,,,,,,,,,,,,,,,,,,,,,,,,,,,,,,,,,,,,,
1577420229.882686,31.000000,0.000000,4263.589844,4281.538574,3994.871826,4025.641113,4243.589844,0.000000,4.000000,,,,0.000000,4.000000,4.000000,4.000000,4.000000,4.000000,,,,,,,,,,,,,,,,,,,,,,,,,,,,,,,,,,,,,,,,,,,,,,,,,,,,,,,,
1577420229.890483,32.000000,0.000000,4266.666504,4287.692383,4010.769287,4090.769287,4244.615234,0.000000,4.000000,,,,0.000000,4.000000,4.000000,4.000000,4.000000,4.000000,,,,,,,,,,,,,,,,,,,,,,,,,,,,,,,,,,,,,,,,,,,,,,,,,,,,,,,,
1577420229.898379,33.000000,0.000000,4282.051270,4293.333496,4027.692383,4103.589844,4247.692383,0.000000,4.000000,,,,0.000000,4.000000,4.000000,4.000000,4.000000,4.000000,,,,,,,,,,,,,,,,,,,,,,,,,,,,,,,,,,,,,,,,,,,,,,,,,,,,,,,,
1577420229.906176,34.000000,0.000000,4270.769043,4276.922852,4024.102539,3947.179443,4235.384766,0.000000,4.000000,,,,0.000000,4.000000,4.000000,4.000000,4.000000,4.000000,,,,,,,,,,,,,,,,,,,,,,,,,,,,,,,,,,,,,,,,,,,,,,,,,,,,,,,,
1577420229.914072,35.000000,0.000000,4244.102539,4280.000000,4006.153809,3940.000000,4214.358887,0.000000,4.000000,,,,0.000000,4.000000,4.000000,4.000000,4.000000,4.000000,,,,,,,,,,,,,,,,,,,,,,,,,,,,,,,,,,,,,,,,,,,,,,,,,,,,,,,,
1577420229.921869,36.000000,0.000000,4236.410156,4302.051270,4006.153809,4170.256348,4211.282227,0.000000,4.000000,,,,0.000000,4.000000,4.000000,4.000000,4.000000,4.000000,,,,,,,,,,,,,,,,,,,,,,,,,,,,,,,,7.849535,7.685789,6.984649,5.003988,18.307615,3.418659,3.609470,2.064586,4.049063,15.593069,4.478209,5.714835,3.940460,4.626178,16.542070,6.954141,6.660156,8.360078,17.240042,38.852970,12.496783,4.915318,3.381436,2.163862,9.892066
1577420229.929765,37.000000,0.000000,4258.461426,4306.666504,4028.205078,4149.230957,4233.333496,0.000000,4.000000,,,,0.000000,4.000000,4.000000,4.000000,4.000000,4.000000,,,,,,,,,,,,,,,,,,,,,,,,,,,,,,,,,,,,,,,,,,,,,,,,,,,,,,,,
1577420229.937562,38.000000,0.000000,4261.025879,4315.384766,4027.179443,3996.923096,4229.743652,0.000000,4.000000,,,,0.000000,4.000000,4.000000,4.000000,4.000000,4.000000,,,,,,,,,,,,,,,,,,,,,,,,,,,,,,,,,,,,,,,,,,,,,,,,,,,,,,,,
1577420229.945258,39.000000,0.000000,4242.051270,4326.666504,4005.128174,4079.487061,4207.179688,0.000000,4.000000,,,,0.000000,4.000000,4.000000,4.000000,4.000000,4.000000,,,,,,,,,,,,,,,,,,,,,,,,,,,,,,,,,,,,,,,,,,,,,,,,,,,,,,,,
1577420229.953055,40.000000,0.000000,4254.871582,4313.846191,4013.333252,4133.846191,4220.512695,0.000000,4.000000,,,,0.000000,4.000000,4.000000,4.000000,4.000000,4.000000,,,,,,,,,,,,,,,,,,,,,,,,,,,,,,,,,,,,,,,,,,,,,,,,,,,,,,,,
1577420229.960752,41.000000,0.000000,4283.077148,4304.615234,4035.897461,4049.743652,4253.333496,0.000000,4.000000,,,,0.000000,4.000000,4.000000,4.000000,4.000000,4.000000,,,,,,,,,,,,,,,,,,,,,,,,,,,,,,,,,,,,,,,,,,,,,,,,,,,,,,,,
1577420229.968648,42.000000,0.000000,4283.589844,4323.589844,4033.846191,4090.769287,4254.871582,0.000000,4.000000,,,,0.000000,4.000000,4.000000,4.000000,4.000000,4.000000,,,,,,,,,,,,,,,,,,,,,,,,,,,,,,,,,,,,,,,,,,,,,,,,,,,,,,,,
1577420229.976445,43.000000,0.000000,4265.128418,4334.358887,4015.897461,4214.871582,4232.307617,0.000000,4.000000,,,,0.000000,4.000000,4.000000,4.000000,4.000000,4.000000,,,,,,,,,,,,,,,,,,,,,,,,,,,,,,,,,,,,,,,,,,,,,,,,,,,,,,,,
1577420229.984341,44.000000,0.000000,4263.589844,4323.589844,4004.102539,4181.538574,4227.692383,0.000000,4.000000,,,,0.000000,4.000000,4.000000,4.000000,4.000000,4.000000,,,,,,,,,,,,,,,,,,,,,,,,,,,,,,,,,,,,,,,,,,,,,,,,,,,,,,,,
1577420229.992137,45.000000,0.000000,4271.794922,4317.948730,3999.487061,4058.461426,4230.256348,0.000000,4.000000,,,,0.000000,4.000000,4.000000,4.000000,4.000000,4.000000,,,,,,,,,,,,,,,,,,,,,,,,,,,,,,,,,,,,,,,,,,,,,,,,,,,,,,,,
1577420230.000034,46.000000,0.000000,4271.282227,4318.461426,3991.794922,4050.769287,4231.794922,0.000000,4.000000,,,,0.000000,4.000000,4.000000,4.000000,4.000000,4.000000,,,,,,,,,,,,,,,,,,,,,,,,,,,,,,,,,,,,,,,,,,,,,,,,,,,,,,,,
1577420230.007830,47.000000,0.000000,4266.666504,4319.487305,3976.410156,4206.153809,4234.871582,0.000000,4.000000,,,,0.000000,4.000000,4.000000,4.000000,4.000000,4.000000,,,,,,,,,,,,,,,,,,,,,,,,,,,,,,,,,,,,,,,,,,,,,,,,,,,,,,,,
1577420230.015727,48.000000,0.000000,4264.102539,4319.487305,3960.512939,4242.051270,4223.589844,0.000000,4.000000,,,,0.000000,4.000000,4.000000,4.000000,4.000000,4.000000,,,,,,,,,,,,,,,,,,,,,,,,,,,,,,,,,,,,,,,,,,,,,,,,,,,,,,,,
1577420230.023523,49.000000,0.000000,4255.384766,4315.384766,3948.718018,4083.589844,4206.153809,0.000000,4.000000,,,,0.000000,4.000000,4.000000,4.000000,4.000000,4.000000,,,,,,,,,,,,,,,,,,,,,,,,,,,,,,,,,,,,,,,,,,,,,,,,,,,,,,,,
1577420230.031420,50.000000,0.000000,4259.487305,4316.410156,3948.718018,4080.000000,4216.410156,0.000000,4.000000,,,,0.000000,4.000000,4.000000,4.000000,4.000000,4.000000,,,,,,,,,,,,,,,,,,,,,,,,,,,,,,,,,,,,,,,,,,,,,,,,,,,,,,,,
1577420230.039216,51.000000,0.000000,4267.692383,4314.871582,3952.307617,4164.102539,4228.205078,0.000000,4.000000,,,,0.000000,4.000000,4.000000,4.000000,4.000000,4.000000,,,,,,,,,,,,,,,,,,,,,,,,,,,,,,,,,,,,,,,,,,,,,,,,,,,,,,,,
1577420230.047113,52.000000,0.000000,4260.512695,4315.897461,3955.384521,4129.743652,4217.948730,0.000000,4.000000,,,,0.000000,4.000000,4.000000,4.000000,4.000000,4.000000,,,,,,,,,,,,,,,,,,,,,,,,,,,,,,,,9.214585,10.729683,9.807550,6.298378,25.623581,4.002646,4.076506,2.582099,4.676412,21.269558,5.131379,7.046403,5.234473,5.498581,23.374140,5.418067,7.742122,9.875721,17.569473,49.794540,14.193563,7.104171,4.162094,2.243566,13.877230
1577420230.054909,53.000000,0.000000,4272.307617,4330.256348,3959.487061,4132.820313,4232.820313,0.000000,4.000000,,,,0.000000,4.000000,4.000000,4.000000,4.000000,4.000000,,,,,,,,,,,,,,,,,,,,,,,,,,,,,,,,,,,,,,,,,,,,,,,,,,,,,,,,
1577420230.062806,54.000000,0.000000,4306.153809,4336.410156,3956.923096,4175.897461,4271.794922,0.000000,4.000000,,,,0.000000,4.000000,4.000000,4.000000,4.000000,4.000000,,,,,,,,,,,,,,,,,,,,,,,,,,,,,,,,,,,,,,,,,,,,,,,,,,,,,,,,
1577420230.070602,55.000000,0.000000,4320.000000,4325.641113,3944.615479,4138.461426,4282.051270,0.000000,4.000000,,,,0.000000,4.000000,4.000000,4.000000,4.000000,4.000000,,,,,,,,,,,,,,,,,,,,,,,,,,,,,,,,,,,,,,,,,,,,,,,,,,,,,,,,
1577420230.078499,56.000000,0.000000,4318.974121,4320.512695,3935.897461,4129.230957,4273.846191,0.000000,4.000000,,,,0.000000,4.000000,4.000000,4.000000,4.000000,4.000000,,,,,,,,,,,,,,,,,,,,,,,,,,,,,,,,,,,,,,,,,,,,,,,,,,,,,,,,
1577420230.086295,57.000000,0.000000,4331.794922,4324.102539,3935.384521,4146.153809,4288.205078,0.000000,4.000000,,,,0.000000,4.000000,4.000000,4.000000,4.000000,4.000000,,,,,,,,,,,,,,,,,,,,,,,,,,,,,,,,,,,,,,,,,,,,,,,,,,,,,,,,
1577420230.094192,58.000000,0.000000,4318.974121,4314.358887,3922.564209,4138.461426,4282.051270,0.000000,4.000000,,,,0.000000,4.000000,4.000000,4.000000,4.000000,4.000000,,,,,,,,,,,,,,,,,,,,,,,,,,,,,,,,,,,,,,,,,,,,,,,,,,,,,,,,
1577420230.101988,59.000000,0.000000,4291.282227,4309.230957,3911.281982,4174.871582,4254.871582,0.000000,4.000000,,,,0.000000,4.000000,4.000000,4.000000,4.000000,4.000000,,,,,,,,,,,,,,,,,,,,,,,,,,,,,,,,,,,,,,,,,,,,,,,,,,,,,,,,
1577420230.109885,60.000000,0.000000,4309.743652,4311.282227,3929.743652,4183.589844,4272.820313,0.000000,4.000000,,,,0.000000,4.000000,4.000000,4.000000,4.000000,4.000000,,,,,,,,,,,,,,,,,,,,,,,,,,,,,,,,,,,,,,,,,,,,,,,,,,,,,,,,
1577420230.117781,61.000000,0.000000,4326.153809,4296.922852,3941.025635,4149.230957,4291.282227,0.000000,4.000000,,,,0.000000,4.000000,4.000000,4.000000,4.000000,4.000000,,,,,,,,,,,,,,,,,,,,,,,,,,,,,,,,,,,,,,,,,,,,,,,,,,,,,,,,
1577420230.125578,62.000000,0.000000,4305.128418,4295.384766,3924.615479,4126.666504,4276.410156,0.000000,4.000000,,,,0.000000,4.000000,4.000000,4.000000,4.000000,4.000000,,,,,,,,,,,,,,,,,,,,,,,,,,,,,,,,,,,,,,,,,,,,,,,,,,,,,,,,
1577420230.133474,63.000000,0.000000,4295.384766,4306.666504,3919.487061,4127.692383,4265.128418,0.000000,4.000000,,,,0.000000,4.000000,4.000000,4.000000,4.000000,4.000000,,,,,,,,,,,,,,,,,,,,,,,,,,,,,,,,,,,,,,,,,,,,,,,,,,,,,,,,
1577420230.141271,64.000000,0.000000,4294.871582,4292.820313,3930.769287,4173.333496,4262.563965,450.000000,4.000000,,,,0.000000,4.000000,4.000000,4.000000,4.000000,4.000000,,,,,,,,,,,,,,,,,,,,,,,,,,,,,,,,,,,,,,,,,,,,,,,,,,,,,,,,
1577420230.149167,65.000000,0.000000,4286.666504,4290.256348,3935.897461,4196.922852,4258.974121,450.000000,4.000000,,,,0.000000,4.000000,4.000000,4.000000,4.000000,4.000000,,,,,,,,,,,,,,,,,,,,,,,,,,,,,,,,,,,,,,,,,,,,,,,,,,,,,,,,
1577420230.156964,66.000000,0.000000,4275.384766,4311.794922,3923.076904,4120.512695,4247.692383,16221.000000,4.000000,,,,0.000000,4.000000,4.000000,4.000000,4.000000,4.000000,,,,,,,,,,,,,,,,,,,,,,,,,,,,,,,,,,,,,,,,,,,,,,,,,,,,,,,,
1577420230.164760,67.000000,0.000000,4273.846191,4305.641113,3916.923096,4136.922852,4240.000000,450.000000,4.000000,,,,0.000000,4.000000,4.000000,4.000000,4.000000,4.000000,,,,,,,,,,,,,,,,,,,,,,,,,,,,,,,,,,,,,,,,,,,,,,,,,,,,,,,,
1577420230.172457,68.000000,0.000000,4295.384766,4296.922852,3954.358887,4251.794922,4262.563965,16197.000000,4.000000,,,,0.000000,4.000000,4.000000,4.000000,4.000000,4.000000,,,,,,,,,,,,,,,,,,,,,,,,,,,,,,,,10.475392,14.258744,12.050828,7.206304,30.630367,4.882129,4.814983,3.072774,4.991515,25.164680,5.959056,8.704815,6.372598,5.960619,28.094231,4.208135,9.075929,10.961667,18.508390,60.997124,15.646018,10.320806,4.844771,2.329513,16.706213
1577420230.180353,69.000000,0.000000,4304.615234,4312.820313,3980.512939,4224.102539,4284.102539,450.000000,4.000000,,,,0.000000,4.000000,4.000000,4.000000,4.000000,4.000000,,,,,,,,,,,,,,,,,,,,,,,,,,,,,,,,,,,,,,,,,,,,,,,,,,,,,,,,
1577420230.188150,70.000000,0.000000,4283.077148,4322.563965,3964.102539,4152.820313,4270.769043,16178.000000,4.000000,,,,0.000000,4.000000,4.000000,4.000000,4.000000,4.000000,,,,,,,,,,,,,,,,,,,,,,,,,,,,,,,,,,,,,,,,,,,,,,,,,,,,,,,,
1577420230.195947,71.000000,0.000000,4269.743652,4313.846191,3957.435791,4182.563965,4252.820313,450.000000,4.000000,,,,0.000000,4.000000,4.000000,4.000000,4.000000,4.000000,,,,,,,,,,,,,,,,,,,,,,,,,,,,,,,,,,,,,,,,,,,,,,,,,,,,,,,,
1577420230.203643,72.000000,0.000000,4274.871582,4293.846191,3960.000000,4205.128418,4252.307617,450.000000,4.000000,,,,0.000000,4.000000,4.000000,4.000000,4.000000,4.000000,,,,,,,,,,,,,,,,,,,,,,,,,,,,,,,,,,,,,,,,,,,,,,,,,,,,,,,,
1577420230.211540,73.000000,0.000000,4271.794922,4289.743652,3950.256348,4182.563965,4248.205078,16189.000000,4.000000,,,,0.000000,4.000000,4.000000,4.000000,4.000000,4.000000,,,,,,,,,,,,,,,,,,,,,,,,,,,,,,,,,,,,,,,,,,,,,,,,,,,,,,,,
1577420230.219336,74.000000,0.000000,4267.692383,4308.205078,3952.820557,4209.230957,4247.179688,450.000000,4.000000,,,,0.000000,4.000000,4.000000,4.000000,4.000000,4.000000,,,,,,,,,,,,,,,,,,,,,,,,,,,,,,,,,,,,,,,,,,,,,,,,,,,,,,,,
1577420230.227133,75.000000,0.000000,4272.307617,4305.641113,3959.487061,4251.282227,4259.487305,16213.000000,4.000000,,,,0.000000,4.000000,4.000000,4.000000,4.000000,4.000000,,,,,,,,,,,,,,,,,,,,,,,,,,,,,,,,,,,,,,,,,,,,,,,,,,,,,,,,
1577420230.234829,76.000000,0.000000,4274.871582,4284.615234,3950.256348,4213.333496,4263.077148,450.000000,4.000000,,,,0.000000,4.000000,4.000000,4.000000,4.000000,4.000000,,,,,,,,,,,,,,,,,,,,,,,,,,,,,,,,,,,,,,,,,,,,,,,,,,,,,,,,
1577420230.242726,77.000000,0.000000,4281.025879,4289.743652,3952.307617,4151.282227,4262.051270,450.000000,4.000000,,,,0.000000,4.000000,4.000000,4.000000,4.000000,4.000000,,,,,,,,,,,,,,,,,,,,,,,,,,,,,,,,,,,,,,,,,,,,,,,,,,,,,,,,
1577420230.250522,78.000000,0.000000,4294.358887,4314.871582,3968.718018,4183.077148,4276.410156,450.000000,4.000000,,,,0.000000,4.000000,4.000000,4.000000,4.000000,4.000000,,,,,,,,,,,,,,,,,,,,,,,,,,,,,,,,,,,,,,,,,,,,,,,,,,,,,,,,
1577420230.258419,79.000000,0.000000,4304.102539,4319.487305,3970.256348,4239.487305,4289.230957,16213.000000,4.000000,,,,0.000000,4.000000,4.000000,4.000000,4.000000,4.000000,,,,,,,,,,,,,,,,,,,,,,,,,,,,,,,,,,,,,,,,,,,,,,,,,,,,,,,,
1577420230.266315,80.000000,0.000000,4295.897461,4307.179688,3955.897461,4227.692383,4275.384766,450.000000,4.000000,,,,0.000000,4.000000,4.000000,4.000000,4.000000,4.000000,,,,,,,,,,,,,,,,,,,,,,,,,,,,,,,,,,,,,,,,,,,,,,,,,,,,,,,,
1577420230.274112,81.000000,0.000000,4291.282227,4303.077148,3952.820557,4266.666504,4266.666504,450.000000,4.000000,,,,0.000000,4.000000,4.000000,4.000000,4.000000,4.000000,,,,,,,,,,,,,,,,,,,,,,,,,,,,,,,,,,,,,,,,,,,,,,,,,,,,,,,,
1577420230.281909,82.000000,0.000000,4296.410156,4304.102539,3953.846191,4249.743652,4278.974121,450.000000,4.000000,,,,0.000000,4.000000,4.000000,4.000000,4.000000,4.000000,,,,,,,,,,,,,,,,,,,,,,,,,,,,,,,,,,,,,,,,,,,,,,,,,,,,,,,,
1577420230.289605,83.000000,0.000000,4296.922852,4307.692383,3948.205078,4163.077148,4281.538574,16213.000000,4.000000,,,,0.000000,4.000000,4.000000,4.000000,4.000000,4.000000,,,,,,,,,,,,,,,,,,,,,,,,,,,,,,,,,,,,,,,,,,,,,,,,,,,,,,,,
1577420230.297402,84.000000,0.000000,4299.487305,4309.743652,3950.256348,4190.256348,4275.384766,450.000000,4.000000,,,,0.000000,4.000000,4.000000,4.000000,4.000000,4.000000,,,,,,,,,,,,,,,,,,,,,,,,,,,,,,,,11.193271,17.341122,12.883382,7.396976,31.597878,6.128894,5.586529,3.393348,4.834911,25.902273,6.757404,10.150323,6.982327,5.846136,29.074642,3.880102,10.238876,11.132525,20.747807,69.925835,16.276770,13.877832,5.114892,2.391160,17.434952
1577420230.305298,85.000000,0.000000,4302.051270,4314.871582,3960.512939,4280.512695,4280.000000,450.000000,4.000000,,,,0.000000,4.000000,4.000000,4.000000,4.000000,4.000000,,,,,,,,,,,,,,,,,,,,,,,,,,,,,,,,,,,,,,,,,,,,,,,,,,,,,,,,
1577420230.313095,86.000000,0.000000,4297.948730,4313.333496,3965.641113,4257.436035,4277.948730,450.000000,4.000000,,,,0.000000,4.000000,4.000000,4.000000,4.000000,4.000000,,,,,,,,,,,,,,,,,,,,,,,,,,,,,,,,,,,,,,,,,,,,,,,,,,,,,,,,
1577420230.320792,87.000000,0.000000,4287.179688,4291.794922,3960.512939,4154.871582,4262.563965,16213.000000,4.000000,,,,0.000000,4.000000,4.000000,4.000000,4.000000,4.000000,,,,,,,,,,,,,,,,,,,,,,,,,,,,,,,,,,,,,,,,,,,,,,,,,,,,,,,,
1577420230.328588,88.000000,0.000000,4285.641113,4284.102539,3965.128174,4192.820313,4268.205078,450.000000,4.000000,,,,0.000000,4.000000,4.000000,4.000000,4.000000,4.000000,,,,,,,,,,,,,,,,,,,,,,,,,,,,,,,,,,,,,,,,,,,,,,,,,,,,,,,,
1577420230.336285,89.000000,0.000000,4299.487305,4310.769043,3978.974365,4289.743652,4285.128418,450.000000,4.000000,,,,0.000000,4.000000,4.000000,4.000000,4.000000,4.000000,,,,,,,,,,,,,,,,,,,,,,,,,,,,,,,,,,,,,,,,,,,,,,,,,,,,,,,,
1577420230.344081,90.000000,0.000000,4290.256348,4309.743652,3971.794922,4256.922852,4270.769043,450.000000,4.000000,,,,0.000000,4.000000,4.000000,4.000000,4.000000,4.000000,,,,,,,,,,,,,,,,,,,,,,,,,,,,,,,,,,,,,,,,,,,,,,,,,,,,,,,,
1577420230.351778,91.000000,0.000000,4263.077148,4287.692383,3951.794922,4188.717773,4244.102539,16213.000000,4.000000,,,,0.000000,4.000000,4.000000,4.000000,4.000000,4.000000,,,,,,,,,,,,,,,,,,,,,,,,,,,,,,,,,,,,,,,,,,,,,,,,,,,,,,,,
1577420230.359574,92.000000,0.000000,4265.128418,4299.487305,3943.076904,4197.948730,4247.179688,450.000000,4.000000,,,,0.000000,4.000000,4.000000,4.000000,4.000000,4.000000,,,,,,,,,,,,,,,,,,,,,,,,,,,,,,,,,,,,,,,,,,,,,,,,,,,,,,,,
1577420230.367271,93.000000,0.000000,4278.461426,4299.487305,3943.076904,4202.051270,4255.897461,450.000000,4.000000,,,,0.000000,4.000000,4.000000,4.000000,4.000000,4.000000,,,,,,,,,,,,,,,,,,,,,,,,,,,,,,,,,,,,,,,,,,,,,,,,,,,,,,,,
1577420230.375068,94.000000,0.000000,4278.974121,4284.615234,3956.410156,4239.487305,4253.846191,450.000000,4.000000,,,,0.000000,4.000000,4.000000,4.000000,4.000000,4.000000,,,,,,,,,,,,,,,,,,,,,,,,,,,,,,,,,,,,,,,,,,,,,,,,,,,,,,,,
1577420230.382764,95.000000,0.000000,4284.615234,4296.410156,3975.384521,4309.230957,4263.589844,16213.000000,4.000000,,,,0.000000,4.000000,4.000000,4.000000,4.000000,4.000000,,,,,,,,,,,,,,,,,,,,,,,,,,,,,,,,,,,,,,,,,,,,,,,,,,,,,,,,
1577420230.390661,96.000000,0.000000,4279.487305,4309.743652,3969.230713,4161.538574,4264.102539,450.000000,4.000000,,,,0.000000,4.000000,4.000000,4.000000,4.000000,4.000000,,,,,,,,,,,,,,,,,,,,,,,,,,,,,,,,,,,,,,,,,,,,,,,,,,,,,,,,
1577420230.398457,97.000000,0.000000,4256.922852,4292.307617,3954.358887,4071.794922,4243.077148,450.000000,4.000000,,,,0.000000,4.000000,4.000000,4.000000,4.000000,4.000000,,,,,,,,,,,,,,,,,,,,,,,,,,,,,,,,,,,,,,,,,,,,,,,,,,,,,,,,
1577420230.406354,98.000000,0.000000,4267.179688,4290.256348,3973.846191,4315.384766,4249.230957,450.000000,4.000000,,,,0.000000,4.000000,4.000000,4.000000,4.000000,4.000000,,,,,,,,,,,,,,,,,,,,,,,,,,,,,,,,,,,,,,,,,,,,,,,,,,,,,,,,
1577420230.414150,99.000000,0.000000,4300.000000,4324.615234,4006.153809,4363.589844,4279.487305,16213.000000,4.000000,,,,0.000000,4.000000,4.000000,4.000000,4.000000,4.000000,,,,,,,,,,,,,,,,,,,,,,,,,,,,,,,,,,,,,,,,,,,,,,,,,,,,,,,,
1577420230.422046,100.000000,0.000000,4293.846191,4331.794922,4002.564209,4142.563965,4277.436035,450.000000,4.000000,,,,0.000000,4.000000,4.000000,4.000000,4.000000,4.000000,,,,,,,,,,,,,,,,,,,,,,,,,,,,,,,,11.143783,19.113869,11.973524,6.770991,28.194412,7.588938,6.130496,3.418807,4.199691,23.184801,7.275562,10.806848,6.857643,5.165247,25.983965,4.518093,10.801725,10.231820,24.313637,74.303093,15.722193,16.790424,4.815471,2.391576,15.838489
1577420230.429843,101.000000,0.000000,4283.589844,4306.153809,3997.435791,4180.512695,4266.666504,450.000000,4.000000,,,,0.000000,4.000000,4.000000,4.000000,4.000000,4.000000,,,,,,,,,,,,,,,,,,,,,,,,,,,,,,,,,,,,,,,,,,,,,,,,,,,,,,,,
1577420230.437739,102.000000,0.000000,4289.743652,4304.102539,4008.205078,4358.974121,4269.230957,450.000000,4.000000,,,,0.000000,4.000000,4.000000,4.000000,4.000000,4.000000,,,,,,,,,,,,,,,,,,,,,,,,,,,,,,,,,,,,,,,,,,,,,,,,,,,,,,,,
1577420230.445536,103.000000,0.000000,4274.358887,4326.153809,4001.538574,4329.230957,4261.538574,16213.000000,4.000000,,,,0.000000,4.000000,4.000000,4.000000,4.000000,4.000000,,,,,,,,,,,,,,,,,,,,,,,,,,,,,,,,,,,,,,,,,,,,,,,,,,,,,,,,
1577420230.453432,104.000000,0.000000,4255.384766,4312.820313,3987.179443,4233.333496,4243.077148,450.000000,4.000000,,,,0.000000,4.000000,4.000000,4.000000,4.000000,4.000000,,,,,,,,,,,,,,,,,,,,,,,,,,,,,,,,,,,,,,,,,,,,,,,,,,,,,,,,
1577420230.461229,105.000000,0.000000,4257.948730,4300.000000,3988.205078,4169.230957,4237.436035,450.000000,4.000000,,,,0.000000,4.000000,4.000000,4.000000,4.000000,4.000000,,,,,,,,,,,,,,,,,,,,,,,,,,,,,,,,,,,,,,,,,,,,,,,,,,,,,,,,
1577420230.469125,106.000000,0.000000,4264.102539,4327.692383,3993.333252,4207.692383,4247.179688,450.000000,4.000000,,,,0.000000,4.000000,4.000000,4.000000,4.000000,4.000000,,,,,,,,,,,,,,,,,,,,,,,,,,,,,,,,,,,,,,,,,,,,,,,,,,,,,,,,
1577420230.476922,107.000000,0.000000,4260.000000,4328.717773,3985.128174,4350.769043,4238.974121,16213.000000,4.000000,,,,0.000000,4.000000,4.000000,4.000000,4.000000,4.000000,,,,,,,,,,,,,,,,,,,,,,,,,,,,,,,,,,,,,,,,,,,,,,,,,,,,,,,,
1577420230.484818,108.000000,0.000000,4260.512695,4304.615234,3983.076904,4308.205078,4234.358887,450.000000,4.000000,,,,0.000000,4.000000,4.000000,4.000000,4.000000,4.000000,,,,,,,,,,,,,,,,,,,,,,,,,,,,,,,,,,,,,,,,,,,,,,,,,,,,,,,,
1577420230.492615,109.000000,0.000000,4273.846191,4310.256348,3995.384521,4210.256348,4253.333496,450.000000,4.000000,,,,0.000000,4.000000,4.000000,4.000000,4.000000,4.000000,,,,,,,,,,,,,,,,,,,,,,,,,,,,,,,,,,,,,,,,,,,,,,,,,,,,,,,,
1577420230.500311,110.000000,0.000000,4273.333496,4325.641113,3988.718018,4261.538574,4249.230957,450.000000,4.000000,,,,0.000000,4.000000,4.000000,4.000000,4.000000,4.000000,,,,,,,,,,,,,,,,,,,,,,,,,,,,,,,,,,,,,,,,,,,,,,,,,,,,,,,,
1577420230.508208,111.000000,0.000000,4264.102539,4327.179688,3979.487061,4280.000000,4230.769043,16213.000000,4.000000,,,,0.000000,4.000000,4.000000,4.000000,4.000000,4.000000,,,,,,,,,,,,,,,,,,,,,,,,,,,,,,,,,,,,,,,,,,,,,,,,,,,,,,,,
1577420230.516005,112.000000,0.000000,4272.307617,4333.846191,3995.897461,4269.230957,4242.563965,450.000000,4.000000,,,,0.000000,4.000000,4.000000,4.000000,4.000000,4.000000,,,,,,,,,,,,,,,,,,,,,,,,,,,,,,,,,,,,,,,,,,,,,,,,,,,,,,,,
1577420230.523802,113.000000,0.000000,4273.333496,4330.769043,3997.435791,4265.641113,4253.846191,450.000000,4.000000,,,,0.000000,4.000000,4.000000,4.000000,4.000000,4.000000,,,,,,,,,,,,,,,,,,,,,,,,,,,,,,,,,,,,,,,,,,,,,,,,,,,,,,,,
1577420230.531498,114.000000,0.000000,4256.922852,4320.000000,3981.025635,4244.102539,4242.051270,450.000000,4.000000,,,,0.000000,4.000000,4.000000,4.000000,4.000000,4.000000,,,,,,,,,,,,,,,,,,,,,,,,,,,,,,,,,,,,,,,,,,,,,,,,,,,,,,,,
1577420230.539395,115.000000,0.000000,4254.871582,4307.692383,3988.205078,4264.102539,4240.000000,16213.000000,4.000000,,,,0.000000,4.000000,4.000000,4.000000,4.000000,4.000000,,,,,,,,,,,,,,,,,,,,,,,,,,,,,,,,,,,,,,,,,,,,,,,,,,,,,,,,
1577420230.547191,116.000000,0.000000,4262.051270,4286.666504,3995.384521,4342.563965,4249.230957,450.000000,4.000000,,,,0.000000,4.000000,4.000000,4.000000,4.000000,4.000000,,,,,,,,,,,,,,,,,,,,,,,,,,,,,,,,10.520883,19.084379,9.611489,5.531938,21.641212,8.878520,6.270077,3.118706,3.243576,17.940126,7.266322,10.372617,6.080404,4.116743,19.944736,5.718775,10.521423,8.451792,28.393593,73.053429,14.188430,18.175573,4.027511,2.322030,12.512496
1577420230.554988,117.000000,0.000000,4254.871582,4296.922852,3984.615479,4294.871582,4241.538574,450.000000,4.000000,,,,0.000000,4.000000,4.000000,4.000000,4.000000,4.000000,,,,,,,,,,,,,,,,,,,,,,,,,,,,,,,,,,,,,,,,,,,,,,,,,,,,,,,,
1577420230.562684,118.000000,0.000000,4260.000000,4334.358887,3994.358887,4165.641113,4244.102539,450.000000,4.000000,,,,0.000000,4.000000,4.000000,4.000000,4.000000,4.000000,,,,,,,,,,,,,,,,,,,,,,,,,,,,,,,,,,,,,,,,,,,,,,,,,,,,,,,,
1577420230.570581,119.000000,0.000000,4283.589844,4352.307617,4022.051270,4229.230957,4272.820313,16213.000000,4.000000,,,,0.000000,4.000000,4.000000,4.000000,4.000000,4.000000,,,,,,,,,,,,,,,,,,,,,,,,,,,,,,,,,,,,,,,,,,,,,,,,,,,,,,,,
1577420230.578377,120.000000,0.000000,4282.563965,4335.897461,4016.923096,4355.384766,4269.230957,450.000000,4.000000,,,,0.000000,4.000000,4.000000,4.000000,4.000000,4.000000,,,,,,,,,,,,,,,,,,,,,,,,,,,,,,,,,,,,,,,,,,,,,,,,,,,,,,,,
1577420230.586274,121.000000,0.000000,4257.948730,4308.717773,3992.307617,4326.153809,4236.922852,450.000000,4.000000,,,,0.000000,4.000000,4.000000,4.000000,4.000000,4.000000,,,,,,,,,,,,,,,,,,,,,,,,,,,,,,,,,,,,,,,,,,,,,,,,,,,,,,,,
1577420230.594070,122.000000,0.000000,4250.769043,4307.179688,3994.358887,4237.436035,4231.282227,450.000000,4.000000,,,,0.000000,4.000000,4.000000,4.000000,4.000000,4.000000,,,,,,,,,,,,,,,,,,,,,,,,,,,,,,,,,,,,,,,,,,,,,,,,,,,,,,,,
1577420230.601867,123.000000,0.000000,4256.922852,4333.333496,4010.769287,4237.948730,4245.128418,16213.000000,4.000000,,,,0.000000,4.000000,4.000000,4.000000,4.000000,4.000000,,,,,,,,,,,,,,,,,,,,,,,,,,,,,,,,,,,,,,,,,,,,,,,,,,,,,,,,
1577420230.609563,124.000000,0.000000,4258.461426,4352.307617,4018.974365,4286.153809,4248.717773,450.000000,4.000000,,,,0.000000,4.000000,4.000000,4.000000,4.000000,4.000000,,,,,,,,,,,,,,,,,,,,,,,,,,,,,,,,,,,,,,,,,,,,,,,,,,,,,,,,
1577420230.617460,125.000000,0.000000,4265.128418,4336.410156,4029.230713,4301.538574,4246.666504,450.000000,4.000000,,,,0.000000,4.000000,4.000000,4.000000,4.000000,4.000000,,,,,,,,,,,,,,,,,,,,,,,,,,,,,,,,,,,,,,,,,,,,,,,,,,,,,,,,
1577420230.625256,126.000000,0.000000,4282.051270,4322.563965,4044.102539,4333.333496,4258.461426,450.000000,4.000000,,,,0.000000,4.000000,4.000000,4.000000,4.000000,4.000000,,,,,,,,,,,,,,,,,,,,,,,,,,,,,,,,,,,,,,,,,,,,,,,,,,,,,,,,
1577420230.633053,127.000000,0.000000,4284.615234,4344.102539,4046.666748,4303.077148,4264.615234,236.000000,4.000000,,,,0.000000,4.000000,4.000000,4.000000,4.000000,4.000000,,,,,,,,,,,,,,,,,,,,,,,,,,,,,,,,,,,,,,,,,,,,,,,,,,,,,,,,
1577420230.640750,0.000000,0.000000,4263.589844,4356.922852,4030.256348,4185.128418,4244.102539,450.000000,4.000000,,,,0.000000,4.000000,4.000000,4.000000,4.000000,4.000000,,,,,,,,,,,,,,,,,,,,,,,,,,,,,,,,,,,,,,,,,,,,,,,,,,,,,,,,
1577420230.648546,1.000000,0.000000,4254.358887,4335.384766,4020.000000,4204.615234,4233.846191,450.000000,4.000000,,,,0.000000,4.000000,4.000000,4.000000,4.000000,4.000000,,,,,,,,,,,,,,,,,,,,,,,,,,,,,,,,,,,,,,,,,,,,,,,,,,,,,,,,
1577420230.656243,2.000000,0.000000,4258.461426,4320.000000,4022.051270,4325.641113,4240.000000,16219.000000,4.000000,,,,0.000000,4.000000,4.000000,4.000000,4.000000,4.000000,,,,,,,,,,,,,,,,,,,,,,,,,,,,,,,,,,,,,,,,,,,,,,,,,,,,,,,,
1577420230.664139,3.000000,0.000000,4252.307617,4337.436035,4023.589844,4347.692383,4236.410156,450.000000,4.000000,,,,0.000000,4.000000,4.000000,4.000000,4.000000,4.000000,,,,,,,,,,,,,,,,,,,,,,,,,,,,,,,,,,,,,,,,,,,,,,,,,,,,,,,,
1577420230.671936,4.000000,0.000000,4251.794922,4347.692383,4028.718018,4263.077148,4230.256348,16189.000000,4.000000,,,,0.000000,4.000000,4.000000,4.000000,4.000000,4.000000,,,,,,,,,,,,,,,,,,,,,,,,,,,,,,,,9.645287,17.354076,6.608593,4.088451,14.115072,9.542149,5.992401,2.590657,2.228750,11.875994,6.912529,9.014486,4.997901,3.000667,12.985025,7.272039,9.439599,6.265724,31.573803,67.105278,12.103970,17.659168,3.040644,2.209192,8.579008
1577420230.679632,5.000000,0.000000,4261.538574,4332.307617,4041.538574,4177.948730,4233.333496,450.000000,4.000000,,,,0.000000,4.000000,4.000000,4.000000,4.000000,4.000000,,,,,,,,,,,,,,,,,,,,,,,,,,,,,,,,,,,,,,,,,,,,,,,,,,,,,,,,
1577420230.687529,6.000000,0.000000,4269.743652,4333.333496,4063.589844,4236.922852,4247.179688,16172.000000,4.000000,,,,0.000000,4.000000,4.000000,4.000000,4.000000,4.000000,,,,,,,,,,,,,,,,,,,,,,,,,,,,,,,,,,,,,,,,,,,,,,,,,,,,,,,,
1577420230.695326,7.000000,0.000000,4275.384766,4363.077148,4074.358887,4368.717773,4253.846191,450.000000,4.000000,,,,0.000000,4.000000,4.000000,4.000000,4.000000,4.000000,,,,,,,,,,,,,,,,,,,,,,,,,,,,,,,,,,,,,,,,,,,,,,,,,,,,,,,,
1577420230.703222,8.000000,0.000000,4274.871582,4364.615234,4056.410156,4353.846191,4244.615234,450.000000,4.000000,,,,0.000000,4.000000,4.000000,4.000000,4.000000,4.000000,,,,,,,,,,,,,,,,,,,,,,,,,,,,,,,,,,,,,,,,,,,,,,,,,,,,,,,,
1577420230.711019,9.000000,0.000000,4275.384766,4328.205078,4043.589844,4210.256348,4241.538574,16151.000000,4.000000,,,,0.000000,4.000000,4.000000,4.000000,4.000000,4.000000,,,,,,,,,,,,,,,,,,,,,,,,,,,,,,,,,,,,,,,,,,,,,,,,,,,,,,,,
1577420230.718816,10.000000,0.000000,4265.641113,4316.410156,4037.435791,4198.461426,4237.436035,450.000000,4.000000,,,,0.000000,4.000000,4.000000,4.000000,4.000000,4.000000,,,,,,,,,,,,,,,,,,,,,,,,,,,,,,,,,,,,,,,,,,,,,,,,,,,,,,,,
1577420230.726512,11.000000,0.000000,4246.153809,4346.153809,4021.025635,4263.077148,4224.102539,16212.000000,4.000000,,,,0.000000,4.000000,4.000000,4.000000,4.000000,4.000000,,,,,,,,,,,,,,,,,,,,,,,,,,,,,,,,,,,,,,,,,,,,,,,,,,,,,,,,
1577420230.734309,12.000000,0.000000,4252.820313,4360.000000,4029.230713,4281.538574,4224.615234,450.000000,4.000000,,,,0.000000,4.000000,4.000000,4.000000,4.000000,4.000000,,,,,,,,,,,,,,,,,,,,,,,,,,,,,,,,,,,,,,,,,,,,,,,,,,,,,,,,
1577420230.742006,13.000000,0.000000,4255.897461,4332.307617,4040.512939,4310.256348,4218.461426,450.000000,4.000000,,,,0.000000,4.000000,4.000000,4.000000,4.000000,4.000000,,,,,,,,,,,,,,,,,,,,,,,,,,,,,,,,,,,,,,,,,,,,,,,,,,,,,,,,
1577420230.749802,14.000000,0.000000,4228.205078,4309.743652,4018.974365,4241.025879,4190.769043,450.000000,4.000000,,,,0.000000,4.000000,4.000000,4.000000,4.000000,4.000000,,,,,,,,,,,,,,,,,,,,,,,,,,,,,,,,,,,,,,,,,,,,,,,,,,,,,,,,
1577420230.757499,15.000000,0.000000,4233.333496,4338.461426,4014.358887,4191.282227,4191.282227,16212.000000,4.000000,,,,0.000000,4.000000,4.000000,4.000000,4.000000,4.000000,,,,,,,,,,,,,,,,,,,,,,,,,,,,,,,,,,,,,,,,,,,,,,,,,,,,,,,,
1577420230.765295,16.000000,0.000000,4276.922852,4373.846191,4042.564209,4285.128418,4225.641113,0.000000,4.000000,,,,0.000000,4.000000,4.000000,4.000000,4.000000,4.000000,,,,,,,,,,,,,,,,,,,,,,,,,,,,,,,,,,,,,,,,,,,,,,,,,,,,,,,,
1577420230.772992,17.000000,0.000000,4283.589844,4344.615234,4053.333252,4345.641113,4233.333496,0.000000,4.000000,,,,0.000000,4.000000,4.000000,4.000000,4.000000,4.000000,,,,,,,,,,,,,,,,,,,,,,,,,,,,,,,,,,,,,,,,,,,,,,,,,,,,,,,,
1577420230.780888,18.000000,0.000000,4251.282227,4294.871582,4029.743652,4293.333496,4208.717773,0.000000,4.000000,,,,0.000000,4.000000,4.000000,4.000000,4.000000,4.000000,,,,,,,,,,,,,,,,,,,,,,,,,,,,,,,,,,,,,,,,,,,,,,,,,,,,,,,,
1577420230.788685,19.000000,0.000000,4244.102539,4313.846191,4015.897461,4259.487305,4205.128418,0.000000,4.000000,,,,0.000000,4.000000,4.000000,4.000000,4.000000,4.000000,,,,,,,,,,,,,,,,,,,,,,,,,,,,,,,,,,,,,,,,,,,,,,,,,,,,,,,,
1577420230.796581,20.000000,0.000000,4268.205078,4356.410156,4034.871826,4310.256348,4225.641113,0.000000,4.000000,,,,0.000000,4.000000,4.000000,4.000000,4.000000,4.000000,,,,,,,,,,,,,,,,,,,,,,,,,,,,,,,,9.072158,14.495588,3.912686,2.861292,7.726025,9.306088,5.387774,1.996837,1.410251,6.686527,6.516440,7.211726,4.001945,2.093600,7.080847,8.249577,7.874804,4.272174,32.656574,59.052124,10.240949,15.465353,2.180922,2.096996,5.156710
1577420230.804378,21.000000,0.000000,4277.436035,4342.051270,4050.256348,4263.589844,4238.461426,0.000000,4.000000,,,,0.000000,4.000000,4.000000,4.000000,4.000000,4.000000,,,,,,,,,,,,,,,,,,,,,,,,,,,,,,,,,,,,,,,,,,,,,,,,,,,,,,,,
1577420230.812274,22.000000,0.000000,4261.538574,4310.769043,4036.410156,4193.846191,4225.641113,0.000000,4.000000,,,,0.000000,4.000000,4.000000,4.000000,4.000000,4.000000,,,,,,,,,,,,,,,,,,,,,,,,,,,,,,,,,,,,,,,,,,,,,,,,,,,,,,,,
1577420230.820071,23.000000,0.000000,4254.871582,4313.846191,4029.230713,4278.974121,4218.461426,0.000000,4.000000,,,,0.000000,4.000000,4.000000,4.000000,4.000000,4.000000,,,,,,,,,,,,,,,,,,,,,,,,,,,,,,,,,,,,,,,,,,,,,,,,,,,,,,,,
1577420230.827967,24.000000,0.000000,4275.384766,4338.974121,4052.820557,4393.333496,4245.641113,0.000000,4.000000,,,,0.000000,4.000000,4.000000,4.000000,4.000000,4.000000,,,,,,,,,,,,,,,,,,,,,,,,,,,,,,,,,,,,,,,,,,,,,,,,,,,,,,,,
1577420230.835764,25.000000,0.000000,4288.205078,4346.666504,4066.666748,4367.179688,4265.641113,0.000000,4.000000,,,,0.000000,4.000000,4.000000,4.000000,4.000000,4.000000,,,,,,,,,,,,,,,,,,,,,,,,,,,,,,,,,,,,,,,,,,,,,,,,,,,,,,,,
1577420230.843660,26.000000,0.000000,4274.871582,4320.000000,4051.281982,4236.410156,4256.922852,0.000000,4.000000,,,,0.000000,4.000000,4.000000,4.000000,4.000000,4.000000,,,,,,,,,,,,,,,,,,,,,,,,,,,,,,,,,,,,,,,,,,,,,,,,,,,,,,,,
1577420230.851457,27.000000,0.000000,4267.692383,4322.051270,4041.538574,4207.692383,4253.333496,0.000000,4.000000,,,,0.000000,4.000000,4.000000,4.000000,4.000000,4.000000,,,,,,,,,,,,,,,,,,,,,,,,,,,,,,,,,,,,,,,,,,,,,,,,,,,,,,,,
1577420230.859353,28.000000,0.000000,4276.410156,4350.256348,4050.256348,4336.922852,4261.538574,0.000000,4.000000,,,,0.000000,4.000000,4.000000,4.000000,4.000000,4.000000,,,,,,,,,,,,,,,,,,,,,,,,,,,,,,,,,,,,,,,,,,,,,,,,,,,,,,,,
1577420230.867150,29.000000,0.000000,4284.615234,4342.563965,4057.435791,4402.051270,4267.179688,0.000000,4.000000,,,,0.000000,4.000000,4.000000,4.000000,4.000000,4.000000,,,,,,,,,,,,,,,,,,,,,,,,,,,,,,,,,,,,,,,,,,,,,,,,,,,,,,,,
1577420230.875046,30.000000,0.000000,4288.205078,4314.871582,4057.435791,4292.307617,4265.641113,0.000000,4.000000,,,,0.000000,4.000000,4.000000,4.000000,4.000000,4.000000,,,,,,,,,,,,,,,,,,,,,,,,,,,,,,,,,,,,,,,,,,,,,,,,,,,,,,,,
1577420230.882843,31.000000,0.000000,4286.153809,4316.410156,4049.230713,4250.769043,4264.615234,0.000000,4.000000,,,,0.000000,4.000000,4.000000,4.000000,4.000000,4.000000,,,,,,,,,,,,,,,,,,,,,,,,,,,,,,,,,,,,,,,,,,,,,,,,,,,,,,,,
1577420230.890539,32.000000,0.000000,4278.974121,4319.487305,4037.948730,4345.641113,4263.077148,0.000000,4.000000,,,,0.000000,4.000000,4.000000,4.000000,4.000000,4.000000,,,,,,,,,,,,,,,,,,,,,,,,,,,,,,,,,,,,,,,,,,,,,,,,,,,,,,,,
1577420230.898336,33.000000,0.000000,4275.384766,4311.794922,4040.512939,4345.641113,4257.436035,0.000000,4.000000,,,,0.000000,4.000000,4.000000,4.000000,4.000000,4.000000,,,,,,,,,,,,,,,,,,,,,,,,,,,,,,,,,,,,,,,,,,,,,,,,,,,,,,,,
1577420230.906032,34.000000,0.000000,4283.077148,4327.692383,4046.666748,4281.538574,4261.025879,0.000000,4.000000,,,,0.000000,4.000000,4.000000,4.000000,4.000000,4.000000,,,,,,,,,,,,,,,,,,,,,,,,,,,,,,,,,,,,,,,,,,,,,,,,,,,,,,,,
1577420230.913829,35.000000,0.000000,4296.410156,4335.897461,4045.128174,4300.512695,4276.922852,0.000000,4.000000,,,,0.000000,4.000000,4.000000,4.000000,4.000000,4.000000,,,,,,,,,,,,,,,,,,,,,,,,,,,,,,,,,,,,,,,,,,,,,,,,,,,,,,,,
1577420230.921526,36.000000,0.000000,4289.230957,4301.025879,4027.179443,4329.230957,4271.794922,0.000000,4.000000,,,,0.000000,4.000000,4.000000,4.000000,4.000000,4.000000,,,,,,,,,,,,,,,,,,,,,,,,,,,,,,,,8.825956,11.261176,2.172632,2.085170,3.630432,8.167065,4.597261,1.511184,0.943997,3.348177,6.455681,5.502919,3.348493,1.536817,3.322655,8.642334,6.251897,2.910855,31.338625,51.940331,8.992965,12.275434,1.653455,2.005622,2.888787
1577420230.929322,37.000000,0.000000,4271.282227,4282.051270,4004.615479,4308.717773,4251.282227,0.000000,4.000000,,,,0.000000,4.000000,4.000000,4.000000,4.000000,4.000000,,,,,,,,,,,,,,,,,,,,,,,,,,,,,,,,,,,,,,,,,,,,,,,,,,,,,,,,
1577420230.937019,38.000000,0.000000,4269.230957,4310.769043,4003.076904,4294.871582,4243.589844,0.000000,4.000000,,,,0.000000,4.000000,4.000000,4.000000,4.000000,4.000000,,,,,,,,,,,,,,,,,,,,,,,,,,,,,,,,,,,,,,,,,,,,,,,,,,,,,,,,
1577420230.944815,39.000000,0.000000,4277.948730,4331.282227,4019.487061,4296.410156,4255.384766,0.000000,4.000000,,,,0.000000,4.000000,4.000000,4.000000,4.000000,4.000000,,,,,,,,,,,,,,,,,,,,,,,,,,,,,,,,,,,,,,,,,,,,,,,,,,,,,,,,
1577420230.952512,40.000000,0.000000,4277.948730,4307.692383,4021.025635,4326.666504,4264.102539,0.000000,4.000000,,,,0.000000,4.000000,4.000000,4.000000,4.000000,4.000000,,,,,,,,,,,,,,,,,,,,,,,,,,,,,,,,,,,,,,,,,,,,,,,,,,,,,,,,
1577420230.960408,41.000000,0.000000,4267.179688,4287.692383,4000.512939,4316.410156,4254.871582,0.000000,4.000000,,,,0.000000,4.000000,4.000000,4.000000,4.000000,4.000000,,,,,,,,,,,,,,,,,,,,,,,,,,,,,,,,,,,,,,,,,,,,,,,,,,,,,,,,
1577420230.968205,42.000000,0.000000,4270.256348,4310.769043,3996.410156,4239.487305,4255.384766,0.000000,4.000000,,,,0.000000,4.000000,4.000000,4.000000,4.000000,4.000000,,,,,,,,,,,,,,,,,,,,,,,,,,,,,,,,,,,,,,,,,,,,,,,,,,,,,,,,
1577420230.976101,43.000000,0.000000,4274.358887,4326.153809,3997.948730,4247.692383,4261.025879,0.000000,4.000000,,,,0.000000,4.000000,4.000000,4.000000,4.000000,4.000000,,,,,,,,,,,,,,,,,,,,,,,,,,,,,,,,,,,,,,,,,,,,,,,,,,,,,,,,
1577420230.983898,44.000000,0.000000,4264.102539,4304.102539,3984.102539,4347.179688,4249.743652,0.000000,4.000000,,,,0.000000,4.000000,4.000000,4.000000,4.000000,4.000000,,,,,,,,,,,,,,,,,,,,,,,,,,,,,,,,,,,,,,,,,,,,,,,,,,,,,,,,
1577420230.991794,45.000000,0.000000,4266.666504,4311.282227,3985.128174,4373.846191,4248.205078,0.000000,4.000000,,,,0.000000,4.000000,4.000000,4.000000,4.000000,4.000000,,,,,,,,,,,,,,,,,,,,,,,,,,,,,,,,,,,,,,,,,,,,,,,,,,,,,,,,
1577420230.999591,46.000000,0.000000,4269.743652,4328.205078,3991.794922,4267.179688,4253.333496,0.000000,4.000000,,,,0.000000,4.000000,4.000000,4.000000,4.000000,4.000000,,,,,,,,,,,,,,,,,,,,,,,,,,,,,,,,,,,,,,,,,,,,,,,,,,,,,,,,
1577420231.007487,47.000000,0.000000,4260.000000,4299.487305,3981.538574,4209.230957,4245.641113,0.000000,4.000000,,,,0.000000,4.000000,4.000000,4.000000,4.000000,4.000000,,,,,,,,,,,,,,,,,,,,,,,,,,,,,,,,,,,,,,,,,,,,,,,,,,,,,,,,
1577420231.015284,48.000000,0.000000,4257.948730,4284.615234,3977.948730,4261.538574,4237.436035,0.000000,4.000000,,,,0.000000,4.000000,4.000000,4.000000,4.000000,4.000000,,,,,,,,,,,,,,,,,,,,,,,,,,,,,,,,,,,,,,,,,,,,,,,,,,,,,,,,
1577420231.023180,49.000000,0.000000,4261.538574,4303.589844,3981.025635,4327.179688,4235.384766,0.000000,4.000000,,,,0.000000,4.000000,4.000000,4.000000,4.000000,4.000000,,,,,,,,,,,,,,,,,,,,,,,,,,,,,,,,,,,,,,,,,,,,,,,,,,,,,,,,
1577420231.030977,50.000000,0.000000,4258.461426,4305.641113,3966.153809,4357.948730,4225.641113,0.000000,4.000000,,,,0.000000,4.000000,4.000000,4.000000,4.000000,4.000000,,,,,,,,,,,,,,,,,,,,,,,,,,,,,,,,,,,,,,,,,,,,,,,,,,,,,,,,
1577420231.038873,51.000000,0.000000,4251.282227,4295.384766,3953.846191,4265.641113,4212.307617,0.000000,4.000000,,,,0.000000,4.000000,4.000000,4.000000,4.000000,4.000000,,,,,,,,,,,,,,,,,,,,,,,,,,,,,,,,,,,,,,,,,,,,,,,,,,,,,,,,
1577420231.046670,52.000000,0.000000,4245.128418,4294.871582,3965.128174,4164.102539,4212.307617,0.000000,4.000000,,,,0.000000,4.000000,4.000000,4.000000,4.000000,4.000000,,,,,,,,,,,,,,,,,,,,,,,,,,,,,,,,8.628776,8.263949,1.497979,1.734054,1.745849,6.407922,3.753183,1.220038,0.843956,1.873111,6.782540,4.218346,3.070892,1.299649,1.634543,8.079885,4.915223,2.270313,28.439312,47.749317,8.283155,8.916861,1.474491,1.902126,1.775382
1577420231.054566,53.000000,0.000000,4244.102539,4306.666504,3981.538574,4243.589844,4216.410156,0.000000,4.000000,,,,0.000000,4.000000,4.000000,4.000000,4.000000,4.000000,,,,,,,,,,,,,,,,,,,,,,,,,,,,,,,,,,,,,,,,,,,,,,,,,,,,,,,,
1577420231.062362,54.000000,0.000000,4250.256348,4321.538574,3989.230713,4391.282227,4224.615234,0.000000,4.000000,,,,0.000000,4.000000,4.000000,4.000000,4.000000,4.000000,,,,,,,,,,,,,,,,,,,,,,,,,,,,,,,,,,,,,,,,,,,,,,,,,,,,,,,,
1577420231.070159,55.000000,0.000000,4256.410156,4313.333496,3999.487061,4332.307617,4236.922852,0.000000,4.000000,,,,0.000000,4.000000,4.000000,4.000000,4.000000,4.000000,,,,,,,,,,,,,,,,,,,,,,,,,,,,,,,,,,,,,,,,,,,,,,,,,,,,,,,,
1577420231.077856,56.000000,0.000000,4255.384766,4300.512695,4011.794922,4202.563965,4238.461426,0.000000,4.000000,,,,0.000000,4.000000,4.000000,4.000000,4.000000,4.000000,,,,,,,,,,,,,,,,,,,,,,,,,,,,,,,,,,,,,,,,,,,,,,,,,,,,,,,,
1577420231.085552,57.000000,0.000000,4249.230957,4304.615234,4010.769287,4215.384766,4227.179688,0.000000,4.000000,,,,0.000000,4.000000,4.000000,4.000000,4.000000,4.000000,,,,,,,,,,,,,,,,,,,,,,,,,,,,,,,,,,,,,,,,,,,,,,,,,,,,,,,,
1577420231.093349,58.000000,0.000000,4248.205078,4301.025879,4004.615479,4270.256348,4220.512695,0.000000,4.000000,,,,0.000000,4.000000,4.000000,4.000000,4.000000,4.000000,,,,,,,,,,,,,,,,,,,,,,,,,,,,,,,,,,,,,,,,,,,,,,,,,,,,,,,,
1577420231.101045,59.000000,0.000000,4253.333496,4293.846191,4001.538574,4324.615234,4226.666504,0.000000,4.000000,,,,0.000000,4.000000,4.000000,4.000000,4.000000,4.000000,,,,,,,,,,,,,,,,,,,,,,,,,,,,,,,,,,,,,,,,,,,,,,,,,,,,,,,,
1577420231.108942,60.000000,0.000000,4265.128418,4313.846191,4010.769287,4311.282227,4242.563965,0.000000,4.000000,,,,0.000000,4.000000,4.000000,4.000000,4.000000,4.000000,,,,,,,,,,,,,,,,,,,,,,,,,,,,,,,,,,,,,,,,,,,,,,,,,,,,,,,,
1577420231.116738,61.000000,0.000000,4270.256348,4314.358887,4024.102539,4235.384766,4248.205078,0.000000,4.000000,,,,0.000000,4.000000,4.000000,4.000000,4.000000,4.000000,,,,,,,,,,,,,,,,,,,,,,,,,,,,,,,,,,,,,,,,,,,,,,,,,,,,,,,,
1577420231.124635,62.000000,0.000000,4253.846191,4288.205078,4011.794922,4269.743652,4228.717773,0.000000,4.000000,,,,0.000000,4.000000,4.000000,4.000000,4.000000,4.000000,,,,,,,,,,,,,,,,,,,,,,,,,,,,,,,,,,,,,,,,,,,,,,,,,,,,,,,,
1577420231.132432,63.000000,0.000000,4242.563965,4296.922852,3991.794922,4335.384766,4214.358887,0.000000,4.000000,,,,0.000000,4.000000,4.000000,4.000000,4.000000,4.000000,,,,,,,,,,,,,,,,,,,,,,,,,,,,,,,,,,,,,,,,,,,,,,,,,,,,,,,,
1577420231.140328,64.000000,0.000000,4248.205078,4317.436035,3989.230713,4262.051270,4218.461426,450.000000,4.000000,,,,0.000000,4.000000,4.000000,4.000000,4.000000,4.000000,,,,,,,,,,,,,,,,,,,,,,,,,,,,,,,,,,,,,,,,,,,,,,,,,,,,,,,,
1577420231.148125,65.000000,0.000000,4247.692383,4299.487305,3993.333252,4214.358887,4218.974121,450.000000,4.000000,,,,0.000000,4.000000,4.000000,4.000000,4.000000,4.000000,,,,,,,,,,,,,,,,,,,,,,,,,,,,,,,,,,,,,,,,,,,,,,,,,,,,,,,,
1577420231.155921,66.000000,0.000000,4232.820313,4280.000000,3985.128174,4284.615234,4204.102539,16211.000000,4.000000,,,,0.000000,4.000000,4.000000,4.000000,4.000000,4.000000,,,,,,,,,,,,,,,,,,,,,,,,,,,,,,,,,,,,,,,,,,,,,,,,,,,,,,,,
1577420231.163618,67.000000,0.000000,4229.230957,4292.307617,3989.743652,4265.128418,4205.641113,450.000000,4.000000,,,,0.000000,4.000000,4.000000,4.000000,4.000000,4.000000,,,,,,,,,,,,,,,,,,,,,,,,,,,,,,,,,,,,,,,,,,,,,,,,,,,,,,,,
1577420231.171514,68.000000,0.000000,4257.436035,4313.333496,4022.564209,4198.461426,4237.948730,16185.000000,4.000000,,,,0.000000,4.000000,4.000000,4.000000,4.000000,4.000000,,,,,,,,,,,,,,,,,,,,,,,,,,,,,,,,8.106686,5.816570,1.557896,1.590171,1.176279,4.508391,2.934554,1.092540,0.993214,1.606016,7.281981,3.423945,3.033702,1.221276,1.166240,6.798526,4.016916,2.191549,25.619267,46.670441,7.820291,6.024106,1.516481,1.733917,1.374688
1577420231.179311,69.000000,0.000000,4270.256348,4303.589844,4030.769287,4261.538574,4246.666504,450.000000,4.000000,,,,0.000000,4.000000,4.000000,4.000000,4.000000,4.000000,,,,,,,,,,,,,,,,,,,,,,,,,,,,,,,,,,,,,,,,,,,,,,,,,,,,,,,,
1577420231.187207,70.000000,0.000000,4250.769043,4288.205078,4010.256348,4327.692383,4224.102539,16168.000000,4.000000,,,,0.000000,4.000000,4.000000,4.000000,4.000000,4.000000,,,,,,,,,,,,,,,,,,,,,,,,,,,,,,,,,,,,,,,,,,,,,,,,,,,,,,,,
1577420231.195004,71.000000,0.000000,4241.538574,4309.743652,4009.230713,4257.436035,4213.333496,450.000000,4.000000,,,,0.000000,4.000000,4.000000,4.000000,4.000000,4.000000,,,,,,,,,,,,,,,,,,,,,,,,,,,,,,,,,,,,,,,,,,,,,,,,,,,,,,,,
1577420231.202900,72.000000,0.000000,4244.102539,4328.205078,4015.384521,4232.820313,4215.384766,450.000000,4.000000,,,,0.000000,4.000000,4.000000,4.000000,4.000000,4.000000,,,,,,,,,,,,,,,,,,,,,,,,,,,,,,,,,,,,,,,,,,,,,,,,,,,,,,,,
1577420231.210697,73.000000,0.000000,4240.000000,4315.897461,4010.256348,4308.205078,4215.897461,16180.000000,4.000000,,,,0.000000,4.000000,4.000000,4.000000,4.000000,4.000000,,,,,,,,,,,,,,,,,,,,,,,,,,,,,,,,,,,,,,,,,,,,,,,,,,,,,,,,
1577420231.218593,74.000000,0.000000,4231.282227,4298.974121,4003.589844,4288.205078,4208.717773,450.000000,4.000000,,,,0.000000,4.000000,4.000000,4.000000,4.000000,4.000000,,,,,,,,,,,,,,,,,,,,,,,,,,,,,,,,,,,,,,,,,,,,,,,,,,,,,,,,
1577420231.226390,75.000000,0.000000,4233.333496,4302.051270,4011.794922,4236.410156,4214.871582,16209.000000,4.000000,,,,0.000000,4.000000,4.000000,4.000000,4.000000,4.000000,,,,,,,,,,,,,,,,,,,,,,,,,,,,,,,,,,,,,,,,,,,,,,,,,,,,,,,,
1577420231.234286,76.000000,0.000000,4245.641113,4330.256348,4033.333252,4277.436035,4234.358887,450.000000,4.000000,,,,0.000000,4.000000,4.000000,4.000000,4.000000,4.000000,,,,,,,,,,,,,,,,,,,,,,,,,,,,,,,,,,,,,,,,,,,,,,,,,,,,,,,,
1577420231.242083,77.000000,0.000000,4241.538574,4325.641113,4035.897461,4265.128418,4229.230957,450.000000,4.000000,,,,0.000000,4.000000,4.000000,4.000000,4.000000,4.000000,,,,,,,,,,,,,,,,,,,,,,,,,,,,,,,,,,,,,,,,,,,,,,,,,,,,,,,,
1577420231.249979,78.000000,0.000000,4233.846191,4287.692383,4026.666748,4219.487305,4212.820313,450.000000,4.000000,,,,0.000000,4.000000,4.000000,4.000000,4.000000,4.000000,,,,,,,,,,,,,,,,,,,,,,,,,,,,,,,,,,,,,,,,,,,,,,,,,,,,,,,,
1577420231.257776,79.000000,0.000000,4250.769043,4285.128418,4040.512939,4277.948730,4226.153809,16209.000000,4.000000,,,,0.000000,4.000000,4.000000,4.000000,4.000000,4.000000,,,,,,,,,,,,,,,,,,,,,,,,,,,,,,,,,,,,,,,,,,,,,,,,,,,,,,,,
1577420231.265472,80.000000,0.000000,4263.589844,4328.205078,4052.820557,4285.128418,4241.025879,450.000000,4.000000,,,,0.000000,4.000000,4.000000,4.000000,4.000000,4.000000,,,,,,,,,,,,,,,,,,,,,,,,,,,,,,,,,,,,,,,,,,,,,,,,,,,,,,,,
1577420231.273269,81.000000,0.000000,4246.666504,4335.897461,4040.512939,4250.256348,4221.538574,450.000000,4.000000,,,,0.000000,4.000000,4.000000,4.000000,4.000000,4.000000,,,,,,,,,,,,,,,,,,,,,,,,,,,,,,,,,,,,,,,,,,,,,,,,,,,,,,,,
1577420231.280965,82.000000,0.000000,4235.384766,4295.897461,4034.871826,4315.384766,4212.307617,450.000000,4.000000,,,,0.000000,4.000000,4.000000,4.000000,4.000000,4.000000,,,,,,,,,,,,,,,,,,,,,,,,,,,,,,,,,,,,,,,,,,,,,,,,,,,,,,,,
1577420231.288762,83.000000,0.000000,4246.666504,4290.769043,4044.615479,4327.692383,4229.743652,16209.000000,4.000000,,,,0.000000,4.000000,4.000000,4.000000,4.000000,4.000000,,,,,,,,,,,,,,,,,,,,,,,,,,,,,,,,,,,,,,,,,,,,,,,,,,,,,,,,
1577420231.296459,84.000000,0.000000,4248.717773,4319.487305,4041.538574,4233.333496,4227.179688,450.000000,4.000000,,,,0.000000,4.000000,4.000000,4.000000,4.000000,4.000000,,,,,,,,,,,,,,,,,,,,,,,,,,,,,,,,6.900750,3.966503,1.884212,1.442666,1.022116,2.947472,2.187495,1.041290,1.238441,1.831732,7.789588,2.969615,3.067959,1.167714,1.061671,5.223535,3.508746,2.360546,24.420254,47.475021,7.179649,3.881470,1.625780,1.486893,1.221625
1577420231.304255,85.000000,0.000000,4244.615234,4330.769043,4035.384521,4234.358887,4217.948730,450.000000,4.000000,,,,0.000000,4.000000,4.000000,4.000000,4.000000,4.000000,,,,,,,,,,,,,,,,,,,,,,,,,,,,,,,,,,,,,,,,,,,,,,,,,,,,,,,,
1577420231.311952,86.000000,0.000000,4257.436035,4333.846191,4044.615479,4339.487305,4228.717773,450.000000,4.000000,,,,0.000000,4.000000,4.000000,4.000000,4.000000,4.000000,,,,,,,,,,,,,,,,,,,,,,,,,,,,,,,,,,,,,,,,,,,,,,,,,,,,,,,,
1577420231.319748,87.000000,0.000000,4265.641113,4345.128418,4052.307617,4387.692383,4235.897461,16209.000000,4.000000,,,,0.000000,4.000000,4.000000,4.000000,4.000000,4.000000,,,,,,,,,,,,,,,,,,,,,,,,,,,,,,,,,,,,,,,,,,,,,,,,,,,,,,,,
1577420231.327445,88.000000,0.000000,4256.410156,4338.461426,4047.692383,4315.384766,4229.743652,450.000000,4.000000,,,,0.000000,4.000000,4.000000,4.000000,4.000000,4.000000,,,,,,,,,,,,,,,,,,,,,,,,,,,,,,,,,,,,,,,,,,,,,,,,,,,,,,,,
1577420231.335241,89.000000,0.000000,4269.743652,4330.769043,4055.897461,4198.974121,4238.461426,450.000000,4.000000,,,,0.000000,4.000000,4.000000,4.000000,4.000000,4.000000,,,,,,,,,,,,,,,,,,,,,,,,,,,,,,,,,,,,,,,,,,,,,,,,,,,,,,,,
1577420231.342938,90.000000,0.000000,4296.922852,4346.153809,4067.692383,4237.948730,4259.487305,450.000000,4.000000,,,,0.000000,4.000000,4.000000,4.000000,4.000000,4.000000,,,,,,,,,,,,,,,,,,,,,,,,,,,,,,,,,,,,,,,,,,,,,,,,,,,,,,,,
1577420231.350735,91.000000,0.000000,4279.487305,4339.487305,4048.718018,4400.000000,4247.179688,16209.000000,4.000000,,,,0.000000,4.000000,4.000000,4.000000,4.000000,4.000000,,,,,,,,,,,,,,,,,,,,,,,,,,,,,,,,,,,,,,,,,,,,,,,,,,,,,,,,
1577420231.358431,92.000000,0.000000,4242.563965,4305.128418,4020.000000,4387.179688,4214.358887,450.000000,4.000000,,,,0.000000,4.000000,4.000000,4.000000,4.000000,4.000000,,,,,,,,,,,,,,,,,,,,,,,,,,,,,,,,,,,,,,,,,,,,,,,,,,,,,,,,
1577420231.366328,93.000000,0.000000,4235.384766,4293.846191,4013.333252,4197.436035,4207.179688,450.000000,4.000000,,,,0.000000,4.000000,4.000000,4.000000,4.000000,4.000000,,,,,,,,,,,,,,,,,,,,,,,,,,,,,,,,,,,,,,,,,,,,,,,,,,,,,,,,
1577420231.374124,94.000000,0.000000,4236.922852,4308.717773,4010.769287,4168.205078,4206.153809,450.000000,4.000000,,,,0.000000,4.000000,4.000000,4.000000,4.000000,4.000000,,,,,,,,,,,,,,,,,,,,,,,,,,,,,,,,,,,,,,,,,,,,,,,,,,,,,,,,
1577420231.382021,95.000000,0.000000,4228.717773,4310.769043,4005.641113,4318.974121,4197.948730,16209.000000,4.000000,,,,0.000000,4.000000,4.000000,4.000000,4.000000,4.000000,,,,,,,,,,,,,,,,,,,,,,,,,,,,,,,,,,,,,,,,,,,,,,,,,,,,,,,,
1577420231.389817,96.000000,0.000000,4244.615234,4309.743652,4028.205078,4366.153809,4221.025879,450.000000,4.000000,,,,0.000000,4.000000,4.000000,4.000000,4.000000,4.000000,,,,,,,,,,,,,,,,,,,,,,,,,,,,,,,,,,,,,,,,,,,,,,,,,,,,,,,,
1577420231.397713,97.000000,0.000000,4268.205078,4325.641113,4059.487061,4277.948730,4248.717773,450.000000,4.000000,,,,0.000000,4.000000,4.000000,4.000000,4.000000,4.000000,,,,,,,,,,,,,,,,,,,,,,,,,,,,,,,,,,,,,,,,,,,,,,,,,,,,,,,,
1577420231.405510,98.000000,0.000000,4265.641113,4338.461426,4058.461426,4269.743652,4241.025879,450.000000,4.000000,,,,0.000000,4.000000,4.000000,4.000000,4.000000,4.000000,,,,,,,,,,,,,,,,,,,,,,,,,,,,,,,,,,,,,,,,,,,,,,,,,,,,,,,,
1577420231.413406,99.000000,0.000000,4256.410156,4318.974121,4046.153809,4328.717773,4228.205078,16209.000000,4.000000,,,,0.000000,4.000000,4.000000,4.000000,4.000000,4.000000,,,,,,,,,,,,,,,,,,,,,,,,,,,,,,,,,,,,,,,,,,,,,,,,,,,,,,,,
1577420231.421203,100.000000,0.000000,4242.563965,4294.358887,4041.538574,4291.794922,4219.487305,450.000000,4.000000,,,,0.000000,4.000000,4.000000,4.000000,4.000000,4.000000,,,,,,,,,,,,,,,,,,,,,,,,,,,,,,,,5.235927,2.672098,2.230345,1.252459,0.970610,1.943518,1.584005,1.011060,1.464436,2.230990,7.995335,2.686475,3.108525,1.134624,1.022545,3.743113,3.253685,2.613807,25.360470,48.506474,6.412147,2.500699,1.742500,1.214475,1.144958
1577420231.429099,101.000000,0.000000,4230.256348,4301.538574,4037.948730,4240.000000,4209.230957,450.000000,4.000000,,,,0.000000,4.000000,4.000000,4.000000,4.000000,4.000000,,,,,,,,,,,,,,,,,,,,,,,,,,,,,,,,,,,,,,,,,,,,,,,,,,,,,,,,
1577420231.436896,102.000000,0.000000,4236.410156,4318.461426,4036.923096,4261.025879,4208.205078,450.000000,4.000000,,,,0.000000,4.000000,4.000000,4.000000,4.000000,4.000000,,,,,,,,,,,,,,,,,,,,,,,,,,,,,,,,,,,,,,,,,,,,,,,,,,,,,,,,
1577420231.444792,103.000000,0.000000,4238.974121,4334.358887,4038.461426,4297.948730,4211.282227,16209.000000,4.000000,,,,0.000000,4.000000,4.000000,4.000000,4.000000,4.000000,,,,,,,,,,,,,,,,,,,,,,,,,,,,,,,,,,,,,,,,,,,,,,,,,,,,,,,,
1577420231.452589,104.000000,0.000000,4227.692383,4333.846191,4038.461426,4308.205078,4207.692383,450.000000,4.000000,,,,0.000000,4.000000,4.000000,4.000000,4.000000,4.000000,,,,,,,,,,,,,,,,,,,,,,,,,,,,,,,,,,,,,,,,,,,,,,,,,,,,,,,,
1577420231.460285,105.000000,0.000000,4227.692383,4306.153809,4040.512939,4299.487305,4207.179688,450.000000,4.000000,,,,0.000000,4.000000,4.000000,4.000000,4.000000,4.000000,,,,,,,,,,,,,,,,,,,,,,,,,,,,,,,,,,,,,,,,,,,,,,,,,,,,,,,,
1577420231.468082,106.000000,0.000000,4246.153809,4303.589844,4057.948730,4278.974121,4224.615234,450.000000,4.000000,,,,0.000000,4.000000,4.000000,4.000000,4.000000,4.000000,,,,,,,,,,,,,,,,,,,,,,,,,,,,,,,,,,,,,,,,,,,,,,,,,,,,,,,,
1577420231.475779,107.000000,0.000000,4251.282227,4335.897461,4068.718018,4245.641113,4233.333496,16209.000000,4.000000,,,,0.000000,4.000000,4.000000,4.000000,4.000000,4.000000,,,,,,,,,,,,,,,,,,,,,,,,,,,,,,,,,,,,,,,,,,,,,,,,,,,,,,,,
1577420231.483575,108.000000,0.000000,4227.692383,4329.230957,4046.153809,4274.358887,4207.179688,450.000000,4.000000,,,,0.000000,4.000000,4.000000,4.000000,4.000000,4.000000,,,,,,,,,,,,,,,,,,,,,,,,,,,,,,,,,,,,,,,,,,,,,,,,,,,,,,,,
1577420231.491272,109.000000,0.000000,4219.487305,4312.820313,4040.000000,4312.307617,4194.871582,450.000000,4.000000,,,,0.000000,4.000000,4.000000,4.000000,4.000000,4.000000,,,,,,,,,,,,,,,,,,,,,,,,,,,,,,,,,,,,,,,,,,,,,,,,,,,,,,,,
1577420231.499168,110.000000,0.000000,4248.205078,4329.743652,4072.307617,4293.846191,4224.615234,450.000000,4.000000,,,,0.000000,4.000000,4.000000,4.000000,4.000000,4.000000,,,,,,,,,,,,,,,,,,,,,,,,,,,,,,,,,,,,,,,,,,,,,,,,,,,,,,,,
1577420231.506965,111.000000,0.000000,4257.436035,4321.025879,4090.769287,4284.102539,4243.077148,16209.000000,4.000000,,,,0.000000,4.000000,4.000000,4.000000,4.000000,4.000000,,,,,,,,,,,,,,,,,,,,,,,,,,,,,,,,,,,,,,,,,,,,,,,,,,,,,,,,
1577420231.514862,112.000000,0.000000,4244.102539,4312.307617,4087.179443,4287.692383,4231.282227,450.000000,4.000000,,,,0.000000,4.000000,4.000000,4.000000,4.000000,4.000000,,,,,,,,,,,,,,,,,,,,,,,,,,,,,,,,,,,,,,,,,,,,,,,,,,,,,,,,
1577420231.522658,113.000000,0.000000,4256.410156,4329.230957,4091.794922,4284.615234,4230.256348,450.000000,4.000000,,,,0.000000,4.000000,4.000000,4.000000,4.000000,4.000000,,,,,,,,,,,,,,,,,,,,,,,,,,,,,,,,,,,,,,,,,,,,,,,,,,,,,,,,
1577420231.530555,114.000000,0.000000,4268.717773,4330.769043,4095.897461,4303.077148,4237.436035,450.000000,4.000000,,,,0.000000,4.000000,4.000000,4.000000,4.000000,4.000000,,,,,,,,,,,,,,,,,,,,,,,,,,,,,,,,,,,,,,,,,,,,,,,,,,,,,,,,
1577420231.538351,115.000000,0.000000,4248.205078,4316.922852,4085.128174,4299.487305,4221.025879,16209.000000,4.000000,,,,0.000000,4.000000,4.000000,4.000000,4.000000,4.000000,,,,,,,,,,,,,,,,,,,,,,,,,,,,,,,,,,,,,,,,,,,,,,,,,,,,,,,,
1577420231.546248,116.000000,0.000000,4227.179688,4316.410156,4073.846191,4241.538574,4204.102539,450.000000,4.000000,,,,0.000000,4.000000,4.000000,4.000000,4.000000,4.000000,,,,,,,,,,,,,,,,,,,,,,,,,,,,,,,,3.684762,1.839146,2.466550,1.044243,0.982524,1.429964,1.184335,0.990142,1.582552,2.674485,8.163191,2.484523,3.118269,1.128747,1.016390,2.685811,3.082997,2.823417,27.835365,48.500965,5.765698,1.708700,1.815623,0.981168,1.114044
1577420231.554044,117.000000,0.000000,4232.307617,4325.128418,4080.512939,4254.358887,4207.692383,450.000000,4.000000,,,,0.000000,4.000000,4.000000,4.000000,4.000000,4.000000,,,,,,,,,,,,,,,,,,,,,,,,,,,,,,,,,,,,,,,,,,,,,,,,,,,,,,,,
1577420231.561940,118.000000,0.000000,4237.436035,4320.512695,4085.641113,4311.794922,4211.282227,450.000000,4.000000,,,,0.000000,4.000000,4.000000,4.000000,4.000000,4.000000,,,,,,,,,,,,,,,,,,,,,,,,,,,,,,,,,,,,,,,,,,,,,,,,,,,,,,,,
1577420231.569737,119.000000,0.000000,4224.615234,4300.512695,4070.769287,4286.666504,4202.563965,16209.000000,4.000000,,,,0.000000,4.000000,4.000000,4.000000,4.000000,4.000000,,,,,,,,,,,,,,,,,,,,,,,,,,,,,,,,,,,,,,,,,,,,,,,,,,,,,,,,
1577420231.577633,120.000000,0.000000,4211.282227,4280.512695,4057.948730,4267.692383,4192.307617,450.000000,4.000000,,,,0.000000,4.000000,4.000000,4.000000,4.000000,4.000000,,,,,,,,,,,,,,,,,,,,,,,,,,,,,,,,,,,,,,,,,,,,,,,,,,,,,,,,
1577420231.585430,121.000000,0.000000,4212.307617,4301.025879,4059.487061,4268.717773,4196.922852,450.000000,4.000000,,,,0.000000,4.000000,4.000000,4.000000,4.000000,4.000000,,,,,,,,,,,,,,,,,,,,,,,,,,,,,,,,,,,,,,,,,,,,,,,,,,,,,,,,
1577420231.593326,122.000000,0.000000,4214.871582,4321.538574,4060.000000,4231.794922,4201.538574,450.000000,4.000000,,,,0.000000,4.000000,4.000000,4.000000,4.000000,4.000000,,,,,,,,,,,,,,,,,,,,,,,,,,,,,,,,,,,,,,,,,,,,,,,,,,,,,,,,
1577420231.601123,123.000000,0.000000,4209.743652,4304.615234,4056.923096,4200.512695,4192.820313,16209.000000,4.000000,,,,0.000000,4.000000,4.000000,4.000000,4.000000,4.000000,,,,,,,,,,,,,,,,,,,,,,,,,,,,,,,,,,,,,,,,,,,,,,,,,,,,,,,,
1577420231.609019,124.000000,0.000000,4205.641113,4302.051270,4059.487061,4270.256348,4187.692383,450.000000,4.000000,,,,0.000000,4.000000,4.000000,4.000000,4.000000,4.000000,,,,,,,,,,,,,,,,,,,,,,,,,,,,,,,,,,,,,,,,,,,,,,,,,,,,,,,,
1577420231.616816,125.000000,0.000000,4206.153809,4310.256348,4060.512939,4358.461426,4186.153809,450.000000,4.000000,,,,0.000000,4.000000,4.000000,4.000000,4.000000,4.000000,,,,,,,,,,,,,,,,,,,,,,,,,,,,,,,,,,,,,,,,,,,,,,,,,,,,,,,,
1577420231.624712,126.000000,0.000000,4205.641113,4300.000000,4053.846191,4242.563965,4182.051270,450.000000,4.000000,,,,0.000000,4.000000,4.000000,4.000000,4.000000,4.000000,,,,,,,,,,,,,,,,,,,,,,,,,,,,,,,,,,,,,,,,,,,,,,,,,,,,,,,,
1577420231.632509,127.000000,0.000000,4207.179688,4307.179688,4051.281982,4166.666504,4185.128418,236.000000,4.000000,,,,0.000000,4.000000,4.000000,4.000000,4.000000,4.000000,,,,,,,,,,,,,,,,,,,,,,,,,,,,,,,,,,,,,,,,,,,,,,,,,,,,,,,,
1577420231.640305,0.000000,0.000000,4212.307617,4329.743652,4057.435791,4294.358887,4192.820313,450.000000,4.000000,,,,0.000000,4.000000,4.000000,4.000000,4.000000,4.000000,,,,,,,,,,,,,,,,,,,,,,,,,,,,,,,,,,,,,,,,,,,,,,,,,,,,,,,,
1577420231.648102,1.000000,0.000000,4218.974121,4311.794922,4063.589844,4307.692383,4201.538574,450.000000,4.000000,,,,0.000000,4.000000,4.000000,4.000000,4.000000,4.000000,,,,,,,,,,,,,,,,,,,,,,,,,,,,,,,,,,,,,,,,,,,,,,,,,,,,,,,,
1577420231.655998,2.000000,0.000000,4222.051270,4302.051270,4066.153809,4204.615234,4205.641113,16224.000000,4.000000,,,,0.000000,4.000000,4.000000,4.000000,4.000000,4.000000,,,,,,,,,,,,,,,,,,,,,,,,,,,,,,,,,,,,,,,,,,,,,,,,,,,,,,,,
1577420231.663795,3.000000,0.000000,4207.179688,4314.871582,4058.974365,4260.000000,4196.922852,450.000000,4.000000,,,,0.000000,4.000000,4.000000,4.000000,4.000000,4.000000,,,,,,,,,,,,,,,,,,,,,,,,,,,,,,,,,,,,,,,,,,,,,,,,,,,,,,,,
1577420231.671491,4.000000,0.000000,4192.307617,4303.077148,4047.179443,4337.436035,4189.743652,16204.000000,4.000000,,,,0.000000,4.000000,4.000000,4.000000,4.000000,4.000000,,,,,,,,,,,,,,,,,,,,,,,,,,,,,,,,2.517546,1.349683,2.576731,0.854152,1.013841,1.180474,1.016843,0.993270,1.566005,3.032311,8.209597,2.331700,3.103243,1.141196,1.012123,2.056162,2.946149,2.960027,30.620033,47.131912,5.221239,1.319664,1.850101,0.843159,1.097077
1577420231.679388,5.000000,0.000000,4197.948730,4298.974121,4051.281982,4250.256348,4191.282227,450.000000,4.000000,,,,0.000000,4.000000,4.000000,4.000000,4.000000,4.000000,,,,,,,,,,,,,,,,,,,,,,,,,,,,,,,,,,,,,,,,,,,,,,,,,,,,,,,,
1577420231.687185,6.000000,0.000000,4204.615234,4305.128418,4059.487061,4185.641113,4192.820313,16170.000000,4.000000,,,,0.000000,4.000000,4.000000,4.000000,4.000000,4.000000,,,,,,,,,,,,,,,,,,,,,,,,,,,,,,,,,,,,,,,,,,,,,,,,,,,,,,,,
1577420231.695081,7.000000,0.000000,4197.948730,4295.384766,4049.230713,4222.051270,4188.205078,450.000000,4.000000,,,,0.000000,4.000000,4.000000,4.000000,4.000000,4.000000,,,,,,,,,,,,,,,,,,,,,,,,,,,,,,,,,,,,,,,,,,,,,,,,,,,,,,,,
1577420231.702878,8.000000,0.000000,4188.717773,4287.692383,4033.333252,4268.717773,4181.025879,450.000000,4.000000,,,,0.000000,4.000000,4.000000,4.000000,4.000000,4.000000,,,,,,,,,,,,,,,,,,,,,,,,,,,,,,,,,,,,,,,,,,,,,,,,,,,,,,,,
1577420231.710674,9.000000,0.000000,4198.461426,4294.871582,4048.205078,4319.487305,4189.230957,16199.000000,4.000000,,,,0.000000,4.000000,4.000000,4.000000,4.000000,4.000000,,,,,,,,,,,,,,,,,,,,,,,,,,,,,,,,,,,,,,,,,,,,,,,,,,,,,,,,
1577420231.718371,10.000000,0.000000,4220.512695,4304.102539,4080.512939,4294.871582,4209.743652,450.000000,4.000000,,,,0.000000,4.000000,4.000000,4.000000,4.000000,4.000000,,,,,,,,,,,,,,,,,,,,,,,,,,,,,,,,,,,,,,,,,,,,,,,,,,,,,,,,
1577420231.726267,11.000000,0.000000,4228.717773,4314.871582,4083.076904,4187.692383,4215.897461,16213.000000,4.000000,,,,0.000000,4.000000,4.000000,4.000000,4.000000,4.000000,,,,,,,,,,,,,,,,,,,,,,,,,,,,,,,,,,,,,,,,,,,,,,,,,,,,,,,,
1577420231.734064,12.000000,0.000000,4230.256348,4315.897461,4076.923096,4207.179688,4215.384766,450.000000,4.000000,,,,0.000000,4.000000,4.000000,4.000000,4.000000,4.000000,,,,,,,,,,,,,,,,,,,,,,,,,,,,,,,,,,,,,,,,,,,,,,,,,,,,,,,,
1577420231.741860,13.000000,0.000000,4236.410156,4310.256348,4087.692383,4348.717773,4217.948730,450.000000,4.000000,,,,0.000000,4.000000,4.000000,4.000000,4.000000,4.000000,,,,,,,,,,,,,,,,,,,,,,,,,,,,,,,,,,,,,,,,,,,,,,,,,,,,,,,,
1577420231.749557,14.000000,0.000000,4238.461426,4327.179688,4094.871826,4368.205078,4220.512695,450.000000,4.000000,,,,0.000000,4.000000,4.000000,4.000000,4.000000,4.000000,,,,,,,,,,,,,,,,,,,,,,,,,,,,,,,,,,,,,,,,,,,,,,,,,,,,,,,,
1577420231.757354,15.000000,0.000000,4230.256348,4329.230957,4087.692383,4240.000000,4214.358887,16213.000000,4.000000,,,,0.000000,4.000000,4.000000,4.000000,4.000000,4.000000,,,,,,,,,,,,,,,,,,,,,,,,,,,,,,,,,,,,,,,,,,,,,,,,,,,,,,,,
1577420231.765050,16.000000,0.000000,4222.563965,4291.282227,4077.948730,4198.461426,4209.743652,0.000000,4.000000,,,,0.000000,4.000000,4.000000,4.000000,4.000000,4.000000,,,,,,,,,,,,,,,,,,,,,,,,,,,,,,,,,,,,,,,,,,,,,,,,,,,,,,,,
1577420231.772947,17.000000,0.000000,4221.538574,4273.846191,4076.923096,4274.358887,4212.820313,0.000000,4.000000,,,,0.000000,4.000000,4.000000,4.000000,4.000000,4.000000,,,,,,,,,,,,,,,,,,,,,,,,,,,,,,,,,,,,,,,,,,,,,,,,,,,,,,,,
1577420231.780743,18.000000,0.000000,4210.769043,4305.128418,4074.358887,4302.563965,4204.615234,0.000000,4.000000,,,,0.000000,4.000000,4.000000,4.000000,4.000000,4.000000,,,,,,,,,,,,,,,,,,,,,,,,,,,,,,,,,,,,,,,,,,,,,,,,,,,,,,,,
1577420231.788640,19.000000,0.000000,4202.563965,4323.077148,4068.205078,4267.179688,4194.871582,0.000000,4.000000,,,,0.000000,4.000000,4.000000,4.000000,4.000000,4.000000,,,,,,,,,,,,,,,,,,,,,,,,,,,,,,,,,,,,,,,,,,,,,,,,,,,,,,,,
1577420231.796436,20.000000,0.000000,4212.820313,4306.153809,4074.871826,4241.025879,4204.615234,0.000000,4.000000,,,,0.000000,4.000000,4.000000,4.000000,4.000000,4.000000,,,,,,,,,,,,,,,,,,,,,,,,,,,,,,,,1.938666,1.107102,2.613643,0.733248,1.031461,1.055467,1.079538,1.029275,1.459468,3.212245,8.104910,2.289033,3.093808,1.169585,0.988894,1.955871,2.866460,3.019767,32.243610,44.644100,4.747999,1.220048,1.885144,0.841003,1.074857
1577420231.804333,21.000000,0.000000,4230.769043,4297.436035,4091.794922,4252.307617,4229.743652,0.000000,4.000000,,,,0.000000,4.000000,4.000000,4.000000,4.000000,4.000000,,,,,,,,,,,,,,,,,,,,,,,,,,,,,,,,,,,,,,,,,,,,,,,,,,,,,,,,
1577420231.812229,22.000000,0.000000,4246.153809,4313.846191,4103.589844,4293.333496,4250.256348,0.000000,4.000000,,,,0.000000,4.000000,4.000000,4.000000,4.000000,4.000000,,,,,,,,,,,,,,,,,,,,,,,,,,,,,,,,,,,,,,,,,,,,,,,,,,,,,,,,
1577420231.820026,23.000000,0.000000,4244.615234,4323.077148,4102.563965,4337.436035,4242.563965,0.000000,4.000000,,,,0.000000,4.000000,4.000000,4.000000,4.000000,4.000000,,,,,,,,,,,,,,,,,,,,,,,,,,,,,,,,,,,,,,,,,,,,,,,,,,,,,,,,
1577420231.827823,24.000000,0.000000,4229.230957,4313.846191,4092.820557,4300.512695,4227.179688,0.000000,4.000000,,,,0.000000,4.000000,4.000000,4.000000,4.000000,4.000000,,,,,,,,,,,,,,,,,,,,,,,,,,,,,,,,,,,,,,,,,,,,,,,,,,,,,,,,
1577420231.835519,25.000000,0.000000,4220.000000,4305.128418,4077.948730,4231.282227,4217.436035,0.000000,4.000000,,,,0.000000,4.000000,4.000000,4.000000,4.000000,4.000000,,,,,,,,,,,,,,,,,,,,,,,,,,,,,,,,,,,,,,,,,,,,,,,,,,,,,,,,
1577420231.843316,26.000000,0.000000,4211.282227,4292.820313,4070.256348,4257.948730,4200.512695,0.000000,4.000000,,,,0.000000,4.000000,4.000000,4.000000,4.000000,4.000000,,,,,,,,,,,,,,,,,,,,,,,,,,,,,,,,,,,,,,,,,,,,,,,,,,,,,,,,
1577420231.851013,27.000000,0.000000,4209.230957,4287.179688,4078.461426,4273.846191,4200.512695,0.000000,4.000000,,,,0.000000,4.000000,4.000000,4.000000,4.000000,4.000000,,,,,,,,,,,,,,,,,,,,,,,,,,,,,,,,,,,,,,,,,,,,,,,,,,,,,,,,
1577420231.858809,28.000000,0.000000,4225.128418,4298.461426,4083.589844,4226.153809,4222.051270,0.000000,4.000000,,,,0.000000,4.000000,4.000000,4.000000,4.000000,4.000000,,,,,,,,,,,,,,,,,,,,,,,,,,,,,,,,,,,,,,,,,,,,,,,,,,,,,,,,
1577420231.866506,29.000000,0.000000,4237.436035,4305.128418,4080.512939,4255.897461,4232.307617,0.000000,4.000000,,,,0.000000,4.000000,4.000000,4.000000,4.000000,4.000000,,,,,,,,,,,,,,,,,,,,,,,,,,,,,,,,,,,,,,,,,,,,,,,,,,,,,,,,
1577420231.874302,30.000000,0.000000,4240.000000,4305.641113,4088.205078,4332.307617,4233.846191,0.000000,4.000000,,,,0.000000,4.000000,4.000000,4.000000,4.000000,4.000000,,,,,,,,,,,,,,,,,,,,,,,,,,,,,,,,,,,,,,,,,,,,,,,,,,,,,,,,
1577420231.881999,31.000000,0.000000,4235.897461,4306.666504,4086.666748,4278.974121,4230.256348,0.000000,4.000000,,,,0.000000,4.000000,4.000000,4.000000,4.000000,4.000000,,,,,,,,,,,,,,,,,,,,,,,,,,,,,,,,,,,,,,,,,,,,,,,,,,,,,,,,
1577420231.889795,32.000000,0.000000,4227.179688,4296.410156,4067.692383,4197.948730,4213.333496,0.000000,4.000000,,,,0.000000,4.000000,4.000000,4.000000,4.000000,4.000000,,,,,,,,,,,,,,,,,,,,,,,,,,,,,,,,,,,,,,,,,,,,,,,,,,,,,,,,
1577420231.897492,33.000000,0.000000,4230.256348,4289.743652,4072.820557,4245.128418,4212.820313,0.000000,4.000000,,,,0.000000,4.000000,4.000000,4.000000,4.000000,4.000000,,,,,,,,,,,,,,,,,,,,,,,,,,,,,,,,,,,,,,,,,,,,,,,,,,,,,,,,
1577420231.905289,34.000000,0.000000,4250.256348,4315.384766,4099.487305,4283.077148,4237.436035,0.000000,4.000000,,,,0.000000,4.000000,4.000000,4.000000,4.000000,4.000000,,,,,,,,,,,,,,,,,,,,,,,,,,,,,,,,,,,,,,,,,,,,,,,,,,,,,,,,
1577420231.912985,35.000000,0.000000,4254.358887,4324.615234,4099.487305,4250.256348,4238.974121,0.000000,4.000000,,,,0.000000,4.000000,4.000000,4.000000,4.000000,4.000000,,,,,,,,,,,,,,,,,,,,,,,,,,,,,,,,,,,,,,,,,,,,,,,,,,,,,,,,
1577420231.920782,36.000000,0.000000,4232.307617,4278.974121,4077.948730,4250.769043,4214.358887,0.000000,4.000000,,,,0.000000,4.000000,4.000000,4.000000,4.000000,4.000000,,,,,,,,,,,,,,,,,,,,,,,,,,,,,,,,1.888301,1.044102,2.659619,0.713331,1.021590,1.069582,1.312665,1.100248,1.333831,3.185616,7.847425,2.400439,3.129395,1.212099,0.941240,1.985852,2.867658,3.010914,31.879875,41.759033,4.251078,1.299924,1.989761,0.973277,1.040203
1577420231.928478,37.000000,0.000000,4226.666504,4266.153809,4082.051270,4281.025879,4213.333496,0.000000,4.000000,,,,0.000000,4.000000,4.000000,4.000000,4.000000,4.000000,,,,,,,,,,,,,,,,,,,,,,,,,,,,,,,,,,,,,,,,,,,,,,,,,,,,,,,,
1577420231.936275,38.000000,0.000000,4246.153809,4305.128418,4097.948730,4241.538574,4232.820313,0.000000,4.000000,,,,0.000000,4.000000,4.000000,4.000000,4.000000,4.000000,,,,,,,,,,,,,,,,,,,,,,,,,,,,,,,,,,,,,,,,,,,,,,,,,,,,,,,,
1577420231.943971,39.000000,0.000000,4253.333496,4318.461426,4094.871826,4212.307617,4238.461426,0.000000,4.000000,,,,0.000000,4.000000,4.000000,4.000000,4.000000,4.000000,,,,,,,,,,,,,,,,,,,,,,,,,,,,,,,,,,,,,,,,,,,,,,,,,,,,,,,,
1577420231.951868,40.000000,0.000000,4248.205078,4312.820313,4094.358887,4281.025879,4230.769043,0.000000,4.000000,,,,0.000000,4.000000,4.000000,4.000000,4.000000,4.000000,,,,,,,,,,,,,,,,,,,,,,,,,,,,,,,,,,,,,,,,,,,,,,,,,,,,,,,,
1577420231.959664,41.000000,0.000000,4243.589844,4298.974121,4100.000000,4314.871582,4226.666504,0.000000,4.000000,,,,0.000000,4.000000,4.000000,4.000000,4.000000,4.000000,,,,,,,,,,,,,,,,,,,,,,,,,,,,,,,,,,,,,,,,,,,,,,,,,,,,,,,,
1577420231.967561,42.000000,0.000000,4233.846191,4277.948730,4088.718018,4276.922852,4223.077148,0.000000,4.000000,,,,0.000000,4.000000,4.000000,4.000000,4.000000,4.000000,,,,,,,,,,,,,,,,,,,,,,,,,,,,,,,,,,,,,,,,,,,,,,,,,,,,,,,,
1577420231.975357,43.000000,0.000000,4221.025879,4291.282227,4076.923096,4232.820313,4208.205078,0.000000,4.000000,,,,0.000000,4.000000,4.000000,4.000000,4.000000,4.000000,,,,,,,,,,,,,,,,,,,,,,,,,,,,,,,,,,,,,,,,,,,,,,,,,,,,,,,,
1577420231.983254,44.000000,0.000000,4226.153809,4312.820313,4086.666748,4225.641113,4211.794922,0.000000,4.000000,,,,0.000000,4.000000,4.000000,4.000000,4.000000,4.000000,,,,,,,,,,,,,,,,,,,,,,,,,,,,,,,,,,,,,,,,,,,,,,,,,,,,,,,,
1577420231.991050,45.000000,0.000000,4238.974121,4305.128418,4097.436035,4276.410156,4232.307617,0.000000,4.000000,,,,0.000000,4.000000,4.000000,4.000000,4.000000,4.000000,,,,,,,,,,,,,,,,,,,,,,,,,,,,,,,,,,,,,,,,,,,,,,,,,,,,,,,,
1577420231.998947,46.000000,0.000000,4228.205078,4290.769043,4090.256348,4272.307617,4227.179688,0.000000,4.000000,,,,0.000000,4.000000,4.000000,4.000000,4.000000,4.000000,,,,,,,,,,,,,,,,,,,,,,,,,,,,,,,,,,,,,,,,,,,,,,,,,,,,,,,,
1577420232.006743,47.000000,0.000000,4220.512695,4297.436035,4085.641113,4215.384766,4216.922852,0.000000,4.000000,,,,0.000000,4.000000,4.000000,4.000000,4.000000,4.000000,,,,,,,,,,,,,,,,,,,,,,,,,,,,,,,,,,,,,,,,,,,,,,,,,,,,,,,,
1577420232.014640,48.000000,0.000000,4246.153809,4308.205078,4094.358887,4292.307617,4229.743652,0.000000,4.000000,,,,0.000000,4.000000,4.000000,4.000000,4.000000,4.000000,,,,,,,,,,,,,,,,,,,,,,,,,,,,,,,,,,,,,,,,,,,,,,,,,,,,,,,,
1577420232.022436,49.000000,0.000000,4256.922852,4282.563965,4089.743652,4368.205078,4231.794922,0.000000,4.000000,,,,0.000000,4.000000,4.000000,4.000000,4.000000,4.000000,,,,,,,,,,,,,,,,,,,,,,,,,,,,,,,,,,,,,,,,,,,,,,,,,,,,,,,,
1577420232.030333,50.000000,0.000000,4237.436035,4266.666504,4078.461426,4239.487305,4211.794922,0.000000,4.000000,,,,0.000000,4.000000,4.000000,4.000000,4.000000,4.000000,,,,,,,,,,,,,,,,,,,,,,,,,,,,,,,,,,,,,,,,,,,,,,,,,,,,,,,,
1577420232.038129,51.000000,0.000000,4235.897461,4297.948730,4089.230713,4180.000000,4207.692383,0.000000,4.000000,,,,0.000000,4.000000,4.000000,4.000000,4.000000,4.000000,,,,,,,,,,,,,,,,,,,,,,,,,,,,,,,,,,,,,,,,,,,,,,,,,,,,,,,,
1577420232.045826,52.000000,0.000000,4237.436035,4299.487305,4088.205078,4261.025879,4210.769043,0.000000,4.000000,,,,0.000000,4.000000,4.000000,4.000000,4.000000,4.000000,,,,,,,,,,,,,,,,,,,,,,,,,,,,,,,,2.168917,1.148340,2.790613,0.790942,0.985634,1.221013,1.618468,1.217897,1.251713,2.987448,7.429914,2.643206,3.241450,1.265519,0.876499,2.164177,2.929368,2.952402,29.666304,39.244720,3.667776,1.450573,2.227461,1.192733,0.991383
1577420232.053622,53.000000,0.000000,4217.948730,4280.000000,4068.205078,4269.743652,4192.820313,0.000000,4.000000,,,,0.000000,4.000000,4.000000,4.000000,4.000000,4.000000,,,,,,,,,,,,,,,,,,,,,,,,,,,,,,,,,,,,,,,,,,,,,,,,,,,,,,,,
1577420232.061319,54.000000,0.000000,4209.230957,4290.769043,4071.794922,4254.871582,4183.077148,0.000000,4.000000,,,,0.000000,4.000000,4.000000,4.000000,4.000000,4.000000,,,,,,,,,,,,,,,,,,,,,,,,,,,,,,,,,,,,,,,,,,,,,,,,,,,,,,,,
1577420232.069115,55.000000,0.000000,4221.538574,4289.743652,4092.820557,4236.922852,4198.974121,0.000000,4.000000,,,,0.000000,4.000000,4.000000,4.000000,4.000000,4.000000,,,,,,,,,,,,,,,,,,,,,,,,,,,,,,,,,,,,,,,,,,,,,,,,,,,,,,,,
1577420232.076812,56.000000,0.000000,4215.384766,4276.410156,4086.153809,4200.000000,4194.871582,0.000000,4.000000,,,,0.000000,4.000000,4.000000,4.000000,4.000000,4.000000,,,,,,,,,,,,,,,,,,,,,,,,,,,,,,,,,,,,,,,,,,,,,,,,,,,,,,,,
1577420232.084709,57.000000,0.000000,4192.820313,4280.000000,4061.025635,4220.512695,4166.153809,0.000000,4.000000,,,,0.000000,4.000000,4.000000,4.000000,4.000000,4.000000,,,,,,,,,,,,,,,,,,,,,,,,,,,,,,,,,,,,,,,,,,,,,,,,,,,,,,,,
1577420232.092506,58.000000,0.000000,4188.717773,4272.307617,4054.358887,4237.436035,4157.948730,0.000000,4.000000,,,,0.000000,4.000000,4.000000,4.000000,4.000000,4.000000,,,,,,,,,,,,,,,,,,,,,,,,,,,,,,,,,,,,,,,,,,,,,,,,,,,,,,,,
1577420232.100402,59.000000,0.000000,4189.230957,4258.974121,4050.769287,4208.717773,4160.000000,0.000000,4.000000,,,,0.000000,4.000000,4.000000,4.000000,4.000000,4.000000,,,,,,,,,,,,,,,,,,,,,,,,,,,,,,,,,,,,,,,,,,,,,,,,,,,,,,,,
1577420232.108198,60.000000,0.000000,4176.922852,4271.282227,4040.000000,4188.717773,4153.333496,0.000000,4.000000,,,,0.000000,4.000000,4.000000,4.000000,4.000000,4.000000,,,,,,,,,,,,,,,,,,,,,,,,,,,,,,,,,,,,,,,,,,,,,,,,,,,,,,,,
1577420232.116095,61.000000,0.000000,4182.563965,4285.128418,4046.153809,4184.102539,4161.538574,0.000000,4.000000,,,,0.000000,4.000000,4.000000,4.000000,4.000000,4.000000,,,,,,,,,,,,,,,,,,,,,,,,,,,,,,,,,,,,,,,,,,,,,,,,,,,,,,,,
1577420232.123891,62.000000,0.000000,4206.666504,4287.179688,4069.743652,4217.436035,4185.641113,0.000000,4.000000,,,,0.000000,4.000000,4.000000,4.000000,4.000000,4.000000,,,,,,,,,,,,,,,,,,,,,,,,,,,,,,,,,,,,,,,,,,,,,,,,,,,,,,,,
1577420232.131788,63.000000,0.000000,4205.128418,4281.025879,4072.307617,4251.794922,4183.589844,0.000000,4.000000,,,,0.000000,4.000000,4.000000,4.000000,4.000000,4.000000,,,,,,,,,,,,,,,,,,,,,,,,,,,,,,,,,,,,,,,,,,,,,,,,,,,,,,,,
1577420232.139584,64.000000,0.000000,4173.333496,4269.743652,4040.000000,4169.743652,4149.230957,450.000000,4.000000,,,,0.000000,4.000000,4.000000,4.000000,4.000000,4.000000,,,,,,,,,,,,,,,,,,,,,,,,,,,,,,,,,,,,,,,,,,,,,,,,,,,,,,,,
1577420232.147481,65.000000,0.000000,4161.538574,4271.282227,4020.512939,4145.128418,4134.871582,450.000000,4.000000,,,,0.000000,4.000000,4.000000,4.000000,4.000000,4.000000,,,,,,,,,,,,,,,,,,,,,,,,,,,,,,,,,,,,,,,,,,,,,,,,,,,,,,,,
1577420232.155277,66.000000,0.000000,4178.461426,4274.871582,4034.871826,4289.230957,4149.743652,16232.000000,4.000000,,,,0.000000,4.000000,4.000000,4.000000,4.000000,4.000000,,,,,,,,,,,,,,,,,,,,,,,,,,,,,,,,,,,,,,,,,,,,,,,,,,,,,,,,
1577420232.163174,67.000000,0.000000,4186.666504,4272.820313,4045.641113,4291.282227,4161.538574,450.000000,4.000000,,,,0.000000,4.000000,4.000000,4.000000,4.000000,4.000000,,,,,,,,,,,,,,,,,,,,,,,,,,,,,,,,,,,,,,,,,,,,,,,,,,,,,,,,
