title:h4, start timestamp:2019-12-27T07:17:48.005439+03:00, stop timestamp:2019-12-27T07:18:18.452585+03:00, headset type:INSIGHT, headset serial:A2D200FB, headset firmware:930, subject name:Qasim, channels:75, sampling rate:eeg_128;pm_0.1;pow_8, samples:3906      , version:2.0
Timestamp,EEG.Counter,EEG.Interpolated,EEG.AF3,EEG.T7,EEG.Pz,EEG.T8,EEG.AF4,EEG.RawCq,EEG.Battery,MarkerIndex,MarkerType,MarkerValueInt,EEG.MarkerHardware,CQ.AF3,CQ.T7,CQ.Pz,CQ.T8,CQ.AF4,PM.Engagement.IsActive,PM.Engagement.Scaled,PM.Engagement.Raw,PM.Engagement.Min,PM.Engagement.Max,PM.Excitement.IsActive,PM.Excitement.Scaled,PM.Excitement.Raw,PM.Excitement.Min,PM.Excitement.Max,PM.LongTermExcitement,PM.Stress.IsActive,PM.Stress.Scaled,PM.Stress.Raw,PM.Stress.Min,PM.Stress.Max,PM.Relaxation.IsActive,PM.Relaxation.Scaled,PM.Relaxation.Raw,PM.Relaxation.Min,PM.Relaxation.Max,PM.Interest.IsActive,PM.Interest.Scaled,PM.Interest.Raw,PM.Interest.Min,PM.Interest.Max,PM.Focus.IsActive,PM.Focus.Scaled,PM.Focus.Raw,PM.Focus.Min,PM.Focus.Max,POW.AF3.Theta,POW.AF3.Alpha,POW.AF3.BetaL,POW.AF3.BetaH,POW.AF3.Gamma,POW.T7.Theta,POW.T7.Alpha,POW.T7.BetaL,POW.T7.BetaH,POW.T7.Gamma,POW.Pz.Theta,POW.Pz.Alpha,POW.Pz.BetaL,POW.Pz.BetaH,POW.Pz.Gamma,POW.T8.Theta,POW.T8.Alpha,POW.T8.BetaL,POW.T8.BetaH,POW.T8.Gamma,POW.AF4.Theta,POW.AF4.Alpha,POW.AF4.BetaL,POW.AF4.BetaH,POW.AF4.Gamma
1577420268.005439,52.000000,0.000000,4263.077148,4323.589844,4144.615234,4075.384521,4196.410156,0.000000,4.000000,,,,0.000000,4.000000,4.000000,4.000000,4.000000,4.000000,,,,,,,,,,,,,,,,,,,,,,,,,,,,,,,,1.305197,2.607629,3.250394,3.760677,1.888979,1.543525,1.271442,1.212421,3.093326,2.283319,2.549442,1.061985,1.765222,2.844035,1.384195,1.412444,1.820839,2.548248,23.477589,22.517282,1.795753,1.924530,2.575281,1.922363,1.593592
1577420268.013336,53.000000,0.000000,4283.589844,4324.615234,4173.846191,4179.487305,4220.000000,0.000000,4.000000,,,,0.000000,4.000000,4.000000,4.000000,4.000000,4.000000,,,,,,,,,,,,,,,,,,,,,,,,,,,,,,,,,,,,,,,,,,,,,,,,,,,,,,,,
1577420268.021133,54.000000,0.000000,4282.563965,4311.282227,4167.179688,4159.487305,4210.769043,0.000000,4.000000,,,,0.000000,4.000000,4.000000,4.000000,4.000000,4.000000,,,,,,,,,,,,,,,,,,,,,,,,,,,,,,,,,,,,,,,,,,,,,,,,,,,,,,,,
1577420268.029030,55.000000,0.000000,4245.641113,4294.358887,4134.358887,4044.615479,4172.307617,0.000000,4.000000,,,,0.000000,4.000000,4.000000,4.000000,4.000000,4.000000,,,,,,,,,,,,,,,,,,,,,,,,,,,,,,,,,,,,,,,,,,,,,,,,,,,,,,,,
1577420268.036827,56.000000,0.000000,4265.128418,4303.589844,4165.641113,4041.025635,4197.948730,0.000000,4.000000,,,,0.000000,4.000000,4.000000,4.000000,4.000000,4.000000,,,,,,,,,,,,,,,,,,,,,,,,,,,,,,,,,,,,,,,,,,,,,,,,,,,,,,,,
1577420268.044724,57.000000,0.000000,4285.128418,4308.205078,4179.487305,4172.820313,4215.384766,0.000000,4.000000,,,,0.000000,4.000000,4.000000,4.000000,4.000000,4.000000,,,,,,,,,,,,,,,,,,,,,,,,,,,,,,,,,,,,,,,,,,,,,,,,,,,,,,,,
1577420268.052521,58.000000,0.000000,4242.563965,4302.563965,4132.820313,4201.025879,4173.333496,0.000000,4.000000,,,,0.000000,4.000000,4.000000,4.000000,4.000000,4.000000,,,,,,,,,,,,,,,,,,,,,,,,,,,,,,,,,,,,,,,,,,,,,,,,,,,,,,,,
1577420268.060218,59.000000,0.000000,4218.974121,4302.563965,4122.563965,4074.358887,4149.743652,0.000000,4.000000,,,,0.000000,4.000000,4.000000,4.000000,4.000000,4.000000,,,,,,,,,,,,,,,,,,,,,,,,,,,,,,,,,,,,,,,,,,,,,,,,,,,,,,,,
1577420268.068115,60.000000,0.000000,4237.948730,4305.641113,4161.538574,4084.615479,4167.692383,0.000000,4.000000,,,,0.000000,4.000000,4.000000,4.000000,4.000000,4.000000,,,,,,,,,,,,,,,,,,,,,,,,,,,,,,,,,,,,,,,,,,,,,,,,,,,,,,,,
1577420268.075912,61.000000,0.000000,4252.307617,4326.153809,4192.307617,4176.922852,4185.128418,0.000000,4.000000,,,,0.000000,4.000000,4.000000,4.000000,4.000000,4.000000,,,,,,,,,,,,,,,,,,,,,,,,,,,,,,,,,,,,,,,,,,,,,,,,,,,,,,,,
1577420268.083809,62.000000,0.000000,4251.282227,4334.358887,4194.358887,4095.384521,4185.641113,0.000000,4.000000,,,,0.000000,4.000000,4.000000,4.000000,4.000000,4.000000,,,,,,,,,,,,,,,,,,,,,,,,,,,,,,,,,,,,,,,,,,,,,,,,,,,,,,,,
1577420268.091606,63.000000,0.000000,4283.077148,4333.846191,4210.769043,4124.615234,4214.358887,0.000000,4.000000,,,,0.000000,4.000000,4.000000,4.000000,4.000000,4.000000,,,,,,,,,,,,,,,,,,,,,,,,,,,,,,,,,,,,,,,,,,,,,,,,,,,,,,,,
1577420268.099503,64.000000,0.000000,4301.538574,4324.102539,4223.589844,4283.589844,4228.717773,450.000000,4.000000,,,,0.000000,4.000000,4.000000,4.000000,4.000000,4.000000,,,,,,,,,,,,,,,,,,,,,,,,,,,,,,,,,,,,,,,,,,,,,,,,,,,,,,,,
1577420268.107300,65.000000,0.000000,4263.077148,4297.948730,4192.820313,4168.205078,4197.436035,450.000000,4.000000,,,,0.000000,4.000000,4.000000,4.000000,4.000000,4.000000,,,,,,,,,,,,,,,,,,,,,,,,,,,,,,,,,,,,,,,,,,,,,,,,,,,,,,,,
1577420268.115197,66.000000,0.000000,4266.153809,4317.436035,4186.666504,4055.384521,4200.000000,16196.000000,4.000000,,,,0.000000,4.000000,4.000000,4.000000,4.000000,4.000000,,,,,,,,,,,,,,,,,,,,,,,,,,,,,,,,,,,,,,,,,,,,,,,,,,,,,,,,
1577420268.122994,67.000000,0.000000,4265.641113,4317.948730,4181.025879,4171.282227,4186.153809,450.000000,4.000000,,,,0.000000,4.000000,4.000000,4.000000,4.000000,4.000000,,,,,,,,,,,,,,,,,,,,,,,,,,,,,,,,,,,,,,,,,,,,,,,,,,,,,,,,
1577420268.130890,68.000000,0.000000,4214.358887,4270.256348,4135.384766,4167.692383,4144.615234,16206.000000,4.000000,,,,0.000000,4.000000,4.000000,4.000000,4.000000,4.000000,,,,,,,,,,,,,,,,,,,,,,,,,,,,,,,,1.062874,2.797804,3.322456,3.999594,1.832800,1.326455,1.319614,1.302745,3.324664,2.578491,1.857038,0.941904,1.743337,2.943343,1.327769,1.306699,1.579083,3.064806,18.399467,22.186331,1.340158,2.014036,2.530091,2.459764,1.563058
1577420268.138687,69.000000,0.000000,4228.205078,4275.384766,4139.487305,4100.512695,4162.563965,450.000000,4.000000,,,,0.000000,4.000000,4.000000,4.000000,4.000000,4.000000,,,,,,,,,,,,,,,,,,,,,,,,,,,,,,,,,,,,,,,,,,,,,,,,,,,,,,,,
1577420268.146584,70.000000,0.000000,4251.282227,4292.820313,4149.743652,4170.256348,4187.179688,16145.000000,4.000000,,,,0.000000,4.000000,4.000000,4.000000,4.000000,4.000000,,,,,,,,,,,,,,,,,,,,,,,,,,,,,,,,,,,,,,,,,,,,,,,,,,,,,,,,
1577420268.154381,71.000000,0.000000,4243.077148,4293.333496,4137.948730,4162.563965,4187.179688,450.000000,4.000000,,,,0.000000,4.000000,4.000000,4.000000,4.000000,4.000000,,,,,,,,,,,,,,,,,,,,,,,,,,,,,,,,,,,,,,,,,,,,,,,,,,,,,,,,
1577420268.162278,72.000000,0.000000,4237.436035,4300.512695,4141.025879,4055.384521,4168.717773,450.000000,4.000000,,,,0.000000,4.000000,4.000000,4.000000,4.000000,4.000000,,,,,,,,,,,,,,,,,,,,,,,,,,,,,,,,,,,,,,,,,,,,,,,,,,,,,,,,
1577420268.170075,73.000000,0.000000,4217.948730,4291.794922,4133.846191,4098.974121,4141.538574,16132.000000,4.000000,,,,0.000000,4.000000,4.000000,4.000000,4.000000,4.000000,,,,,,,,,,,,,,,,,,,,,,,,,,,,,,,,,,,,,,,,,,,,,,,,,,,,,,,,
1577420268.177972,74.000000,0.000000,4232.307617,4310.256348,4153.333496,4170.769043,4153.333496,450.000000,4.000000,,,,0.000000,4.000000,4.000000,4.000000,4.000000,4.000000,,,,,,,,,,,,,,,,,,,,,,,,,,,,,,,,,,,,,,,,,,,,,,,,,,,,,,,,
1577420268.185769,75.000000,0.000000,4241.538574,4309.230957,4171.282227,4124.615234,4157.948730,16165.000000,4.000000,,,,0.000000,4.000000,4.000000,4.000000,4.000000,4.000000,,,,,,,,,,,,,,,,,,,,,,,,,,,,,,,,,,,,,,,,,,,,,,,,,,,,,,,,
1577420268.193666,76.000000,0.000000,4232.307617,4266.666504,4165.641113,4151.794922,4158.461426,450.000000,4.000000,,,,0.000000,4.000000,4.000000,4.000000,4.000000,4.000000,,,,,,,,,,,,,,,,,,,,,,,,,,,,,,,,,,,,,,,,,,,,,,,,,,,,,,,,
1577420268.201463,77.000000,0.000000,4242.051270,4272.307617,4156.922852,4170.769043,4173.846191,450.000000,4.000000,,,,0.000000,4.000000,4.000000,4.000000,4.000000,4.000000,,,,,,,,,,,,,,,,,,,,,,,,,,,,,,,,,,,,,,,,,,,,,,,,,,,,,,,,
1577420268.209360,78.000000,0.000000,4212.307617,4278.461426,4117.436035,4082.564209,4151.282227,450.000000,4.000000,,,,0.000000,4.000000,4.000000,4.000000,4.000000,4.000000,,,,,,,,,,,,,,,,,,,,,,,,,,,,,,,,,,,,,,,,,,,,,,,,,,,,,,,,
1577420268.217157,79.000000,0.000000,4197.436035,4263.589844,4120.512695,4122.051270,4137.436035,16165.000000,4.000000,,,,0.000000,4.000000,4.000000,4.000000,4.000000,4.000000,,,,,,,,,,,,,,,,,,,,,,,,,,,,,,,,,,,,,,,,,,,,,,,,,,,,,,,,
1577420268.225054,80.000000,0.000000,4228.205078,4280.512695,4167.692383,4178.461426,4157.436035,450.000000,4.000000,,,,0.000000,4.000000,4.000000,4.000000,4.000000,4.000000,,,,,,,,,,,,,,,,,,,,,,,,,,,,,,,,,,,,,,,,,,,,,,,,,,,,,,,,
1577420268.232851,81.000000,0.000000,4246.153809,4312.820313,4183.077148,4070.769287,4179.487305,450.000000,4.000000,,,,0.000000,4.000000,4.000000,4.000000,4.000000,4.000000,,,,,,,,,,,,,,,,,,,,,,,,,,,,,,,,,,,,,,,,,,,,,,,,,,,,,,,,
1577420268.240548,82.000000,0.000000,4238.974121,4315.897461,4170.769043,4089.743652,4176.922852,450.000000,4.000000,,,,0.000000,4.000000,4.000000,4.000000,4.000000,4.000000,,,,,,,,,,,,,,,,,,,,,,,,,,,,,,,,,,,,,,,,,,,,,,,,,,,,,,,,
1577420268.248445,83.000000,0.000000,4233.333496,4306.153809,4161.538574,4217.948730,4169.230957,16165.000000,4.000000,,,,0.000000,4.000000,4.000000,4.000000,4.000000,4.000000,,,,,,,,,,,,,,,,,,,,,,,,,,,,,,,,,,,,,,,,,,,,,,,,,,,,,,,,
1577420268.256242,84.000000,0.000000,4260.512695,4320.512695,4187.692383,4202.563965,4198.461426,450.000000,4.000000,,,,0.000000,4.000000,4.000000,4.000000,4.000000,4.000000,,,,,,,,,,,,,,,,,,,,,,,,,,,,,,,,0.989143,2.970136,3.707479,4.270931,1.754398,1.423697,1.353011,1.514158,3.399904,2.845298,1.391370,0.921626,2.089905,3.200665,1.292332,1.278655,1.436749,4.688315,14.457882,21.850590,1.052531,2.169716,2.872913,3.129849,1.505788
1577420268.264139,85.000000,0.000000,4250.256348,4300.000000,4183.077148,4097.436035,4190.769043,450.000000,4.000000,,,,0.000000,4.000000,4.000000,4.000000,4.000000,4.000000,,,,,,,,,,,,,,,,,,,,,,,,,,,,,,,,,,,,,,,,,,,,,,,,,,,,,,,,
1577420268.271936,86.000000,0.000000,4208.205078,4281.025879,4142.563965,4094.358887,4154.358887,450.000000,4.000000,,,,0.000000,4.000000,4.000000,4.000000,4.000000,4.000000,,,,,,,,,,,,,,,,,,,,,,,,,,,,,,,,,,,,,,,,,,,,,,,,,,,,,,,,
1577420268.279833,87.000000,0.000000,4232.820313,4326.666504,4180.000000,4137.436035,4172.820313,16165.000000,4.000000,,,,0.000000,4.000000,4.000000,4.000000,4.000000,4.000000,,,,,,,,,,,,,,,,,,,,,,,,,,,,,,,,,,,,,,,,,,,,,,,,,,,,,,,,
1577420268.287630,88.000000,0.000000,4232.820313,4303.077148,4190.769043,4122.051270,4175.384766,450.000000,4.000000,,,,0.000000,4.000000,4.000000,4.000000,4.000000,4.000000,,,,,,,,,,,,,,,,,,,,,,,,,,,,,,,,,,,,,,,,,,,,,,,,,,,,,,,,
1577420268.295527,89.000000,0.000000,4221.538574,4266.666504,4162.563965,4210.769043,4190.256348,450.000000,4.000000,,,,0.000000,4.000000,4.000000,4.000000,4.000000,4.000000,,,,,,,,,,,,,,,,,,,,,,,,,,,,,,,,,,,,,,,,,,,,,,,,,,,,,,,,
1577420268.303324,90.000000,0.000000,4211.794922,4273.846191,4154.358887,4190.256348,4195.384766,450.000000,4.000000,,,,0.000000,4.000000,4.000000,4.000000,4.000000,4.000000,,,,,,,,,,,,,,,,,,,,,,,,,,,,,,,,,,,,,,,,,,,,,,,,,,,,,,,,
1577420268.311220,91.000000,0.000000,4165.128418,4263.077148,4119.487305,4019.487061,4153.333496,16165.000000,4.000000,,,,0.000000,4.000000,4.000000,4.000000,4.000000,4.000000,,,,,,,,,,,,,,,,,,,,,,,,,,,,,,,,,,,,,,,,,,,,,,,,,,,,,,,,
1577420268.319017,92.000000,0.000000,4217.436035,4305.128418,4164.615234,4087.179443,4197.436035,450.000000,4.000000,,,,0.000000,4.000000,4.000000,4.000000,4.000000,4.000000,,,,,,,,,,,,,,,,,,,,,,,,,,,,,,,,,,,,,,,,,,,,,,,,,,,,,,,,
1577420268.326914,93.000000,0.000000,4202.051270,4272.307617,4147.692383,4173.333496,4177.436035,450.000000,4.000000,,,,0.000000,4.000000,4.000000,4.000000,4.000000,4.000000,,,,,,,,,,,,,,,,,,,,,,,,,,,,,,,,,,,,,,,,,,,,,,,,,,,,,,,,
1577420268.334711,94.000000,0.000000,4156.410156,4251.282227,4102.563965,4132.307617,4153.333496,450.000000,4.000000,,,,0.000000,4.000000,4.000000,4.000000,4.000000,4.000000,,,,,,,,,,,,,,,,,,,,,,,,,,,,,,,,,,,,,,,,,,,,,,,,,,,,,,,,
1577420268.342608,95.000000,0.000000,4296.410156,4368.205078,4224.615234,4088.718018,4251.794922,16165.000000,4.000000,,,,0.000000,4.000000,4.000000,4.000000,4.000000,4.000000,,,,,,,,,,,,,,,,,,,,,,,,,,,,,,,,,,,,,,,,,,,,,,,,,,,,,,,,
1577420268.350405,96.000000,0.000000,4117.436035,4185.128418,4041.538574,3981.538574,4099.487305,450.000000,4.000000,,,,0.000000,4.000000,4.000000,4.000000,4.000000,4.000000,,,,,,,,,,,,,,,,,,,,,,,,,,,,,,,,,,,,,,,,,,,,,,,,,,,,,,,,
1577420268.358302,97.000000,0.000000,4211.794922,4297.948730,4133.846191,4256.410156,4255.897461,450.000000,4.000000,,,,0.000000,4.000000,4.000000,4.000000,4.000000,4.000000,,,,,,,,,,,,,,,,,,,,,,,,,,,,,,,,,,,,,,,,,,,,,,,,,,,,,,,,
1577420268.366099,98.000000,0.000000,4608.717773,4601.025879,4497.436035,4361.025879,4477.948730,450.000000,4.000000,,,,0.000000,4.000000,4.000000,4.000000,4.000000,4.000000,,,,,,,,,,,,,,,,,,,,,,,,,,,,,,,,,,,,,,,,,,,,,,,,,,,,,,,,
1577420268.373996,99.000000,0.000000,4233.333496,4216.922852,4122.051270,3962.051270,4140.000000,16165.000000,4.000000,,,,0.000000,4.000000,4.000000,4.000000,4.000000,4.000000,,,,,,,,,,,,,,,,,,,,,,,,,,,,,,,,,,,,,,,,,,,,,,,,,,,,,,,,
1577420268.381793,100.000000,0.000000,4186.153809,4231.794922,4078.461426,4190.256348,4271.282227,450.000000,4.000000,,,,0.000000,4.000000,4.000000,4.000000,4.000000,4.000000,,,,,,,,,,,,,,,,,,,,,,,,,,,,,,,,1.099449,3.165112,4.311673,4.522147,1.692495,1.857084,1.355913,1.810317,3.333763,3.016514,1.312641,1.096709,2.735384,3.571110,1.295643,1.349013,1.453026,7.368186,12.689192,21.503147,1.039042,2.437840,3.371213,3.777458,1.454501
1577420268.389690,101.000000,0.000000,4412.307617,4438.461426,4296.922852,4352.307617,4380.000000,450.000000,4.000000,,,,0.000000,4.000000,4.000000,4.000000,4.000000,4.000000,,,,,,,,,,,,,,,,,,,,,,,,,,,,,,,,,,,,,,,,,,,,,,,,,,,,,,,,
1577420268.397587,102.000000,0.000000,4163.077148,4220.000000,4066.153809,4013.333252,4123.077148,450.000000,4.000000,,,,0.000000,4.000000,4.000000,4.000000,4.000000,4.000000,,,,,,,,,,,,,,,,,,,,,,,,,,,,,,,,,,,,,,,,,,,,,,,,,,,,,,,,
1577420268.405384,103.000000,0.000000,4212.307617,4285.641113,4117.436035,4035.897461,4238.974121,16165.000000,4.000000,,,,0.000000,4.000000,4.000000,4.000000,4.000000,4.000000,,,,,,,,,,,,,,,,,,,,,,,,,,,,,,,,,,,,,,,,,,,,,,,,,,,,,,,,
1577420268.413281,104.000000,0.000000,4253.846191,4301.538574,4177.436035,4170.256348,4243.589844,450.000000,4.000000,,,,0.000000,4.000000,4.000000,4.000000,4.000000,4.000000,,,,,,,,,,,,,,,,,,,,,,,,,,,,,,,,,,,,,,,,,,,,,,,,,,,,,,,,
1577420268.421078,105.000000,0.000000,4187.179688,4257.436035,4133.846191,4258.461426,4193.846191,450.000000,4.000000,,,,0.000000,4.000000,4.000000,4.000000,4.000000,4.000000,,,,,,,,,,,,,,,,,,,,,,,,,,,,,,,,,,,,,,,,,,,,,,,,,,,,,,,,
1577420268.428975,106.000000,0.000000,4217.948730,4321.025879,4146.153809,4159.487305,4230.256348,450.000000,4.000000,,,,0.000000,4.000000,4.000000,4.000000,4.000000,4.000000,,,,,,,,,,,,,,,,,,,,,,,,,,,,,,,,,,,,,,,,,,,,,,,,,,,,,,,,
1577420268.436772,107.000000,0.000000,4200.512695,4291.794922,4107.692383,3986.666748,4206.153809,16165.000000,4.000000,,,,0.000000,4.000000,4.000000,4.000000,4.000000,4.000000,,,,,,,,,,,,,,,,,,,,,,,,,,,,,,,,,,,,,,,,,,,,,,,,,,,,,,,,
1577420268.444569,108.000000,0.000000,4227.692383,4262.563965,4130.256348,4083.076904,4237.436035,450.000000,4.000000,,,,0.000000,4.000000,4.000000,4.000000,4.000000,4.000000,,,,,,,,,,,,,,,,,,,,,,,,,,,,,,,,,,,,,,,,,,,,,,,,,,,,,,,,
1577420268.452266,109.000000,0.000000,4252.307617,4270.769043,4145.641113,4186.153809,4257.948730,450.000000,4.000000,,,,0.000000,4.000000,4.000000,4.000000,4.000000,4.000000,,,,,,,,,,,,,,,,,,,,,,,,,,,,,,,,,,,,,,,,,,,,,,,,,,,,,,,,
1577420268.460063,110.000000,0.000000,4276.410156,4333.333496,4158.974121,4197.436035,4277.436035,450.000000,4.000000,,,,0.000000,4.000000,4.000000,4.000000,4.000000,4.000000,,,,,,,,,,,,,,,,,,,,,,,,,,,,,,,,,,,,,,,,,,,,,,,,,,,,,,,,
1577420268.467760,111.000000,0.000000,4276.922852,4350.256348,4165.128418,4137.948730,4271.794922,16165.000000,4.000000,,,,0.000000,4.000000,4.000000,4.000000,4.000000,4.000000,,,,,,,,,,,,,,,,,,,,,,,,,,,,,,,,,,,,,,,,,,,,,,,,,,,,,,,,
1577420268.475657,112.000000,0.000000,4235.897461,4289.743652,4131.794922,4078.974365,4231.794922,450.000000,4.000000,,,,0.000000,4.000000,4.000000,4.000000,4.000000,4.000000,,,,,,,,,,,,,,,,,,,,,,,,,,,,,,,,,,,,,,,,,,,,,,,,,,,,,,,,
1577420268.483454,113.000000,0.000000,4234.358887,4283.077148,4130.256348,4158.974121,4230.769043,450.000000,4.000000,,,,0.000000,4.000000,4.000000,4.000000,4.000000,4.000000,,,,,,,,,,,,,,,,,,,,,,,,,,,,,,,,,,,,,,,,,,,,,,,,,,,,,,,,
1577420268.491251,114.000000,0.000000,4255.897461,4330.769043,4150.256348,4154.871582,4243.589844,450.000000,4.000000,,,,0.000000,4.000000,4.000000,4.000000,4.000000,4.000000,,,,,,,,,,,,,,,,,,,,,,,,,,,,,,,,,,,,,,,,,,,,,,,,,,,,,,,,
1577420268.498948,115.000000,0.000000,4251.282227,4334.358887,4148.717773,4040.000000,4241.538574,16165.000000,4.000000,,,,0.000000,4.000000,4.000000,4.000000,4.000000,4.000000,,,,,,,,,,,,,,,,,,,,,,,,,,,,,,,,,,,,,,,,,,,,,,,,,,,,,,,,
1577420268.506845,116.000000,0.000000,4231.794922,4297.436035,4135.384766,4082.051270,4229.743652,450.000000,4.000000,,,,0.000000,4.000000,4.000000,4.000000,4.000000,4.000000,,,,,,,,,,,,,,,,,,,,,,,,,,,,,,,,1.374646,3.411384,4.994800,4.687614,1.743594,2.490019,1.406609,2.167602,3.186976,3.096120,1.784826,1.584929,3.555907,3.961375,1.401153,1.586084,1.681452,10.740518,13.277200,21.531183,1.233719,2.814978,3.871563,4.267513,1.478206
1577420268.514642,117.000000,0.000000,4226.666504,4291.282227,4125.128418,4232.307617,4221.025879,450.000000,4.000000,,,,0.000000,4.000000,4.000000,4.000000,4.000000,4.000000,,,,,,,,,,,,,,,,,,,,,,,,,,,,,,,,,,,,,,,,,,,,,,,,,,,,,,,,
1577420268.522539,118.000000,0.000000,4240.512695,4318.461426,4132.820313,4204.102539,4228.717773,450.000000,4.000000,,,,0.000000,4.000000,4.000000,4.000000,4.000000,4.000000,,,,,,,,,,,,,,,,,,,,,,,,,,,,,,,,,,,,,,,,,,,,,,,,,,,,,,,,
1577420268.530336,119.000000,0.000000,4240.512695,4336.410156,4140.512695,4060.000000,4227.179688,16165.000000,4.000000,,,,0.000000,4.000000,4.000000,4.000000,4.000000,4.000000,,,,,,,,,,,,,,,,,,,,,,,,,,,,,,,,,,,,,,,,,,,,,,,,,,,,,,,,
1577420268.538133,120.000000,0.000000,4217.948730,4315.384766,4120.512695,4101.025879,4212.820313,450.000000,4.000000,,,,0.000000,4.000000,4.000000,4.000000,4.000000,4.000000,,,,,,,,,,,,,,,,,,,,,,,,,,,,,,,,,,,,,,,,,,,,,,,,,,,,,,,,
1577420268.545830,121.000000,0.000000,4205.641113,4282.051270,4103.589844,4195.897461,4203.589844,450.000000,4.000000,,,,0.000000,4.000000,4.000000,4.000000,4.000000,4.000000,,,,,,,,,,,,,,,,,,,,,,,,,,,,,,,,,,,,,,,,,,,,,,,,,,,,,,,,
1577420268.553727,122.000000,0.000000,4221.025879,4312.307617,4121.025879,4113.846191,4218.461426,450.000000,4.000000,,,,0.000000,4.000000,4.000000,4.000000,4.000000,4.000000,,,,,,,,,,,,,,,,,,,,,,,,,,,,,,,,,,,,,,,,,,,,,,,,,,,,,,,,
1577420268.561524,123.000000,0.000000,4252.307617,4363.077148,4148.717773,4076.923096,4253.333496,16165.000000,4.000000,,,,0.000000,4.000000,4.000000,4.000000,4.000000,4.000000,,,,,,,,,,,,,,,,,,,,,,,,,,,,,,,,,,,,,,,,,,,,,,,,,,,,,,,,
1577420268.569321,124.000000,0.000000,4254.358887,4335.897461,4145.128418,4209.230957,4253.846191,450.000000,4.000000,,,,0.000000,4.000000,4.000000,4.000000,4.000000,4.000000,,,,,,,,,,,,,,,,,,,,,,,,,,,,,,,,,,,,,,,,,,,,,,,,,,,,,,,,
1577420268.577119,125.000000,0.000000,4237.436035,4296.922852,4125.128418,4198.974121,4235.384766,450.000000,4.000000,,,,0.000000,4.000000,4.000000,4.000000,4.000000,4.000000,,,,,,,,,,,,,,,,,,,,,,,,,,,,,,,,,,,,,,,,,,,,,,,,,,,,,,,,
1577420268.585016,126.000000,0.000000,4245.128418,4320.512695,4131.282227,4055.384521,4240.000000,450.000000,4.000000,,,,0.000000,4.000000,4.000000,4.000000,4.000000,4.000000,,,,,,,,,,,,,,,,,,,,,,,,,,,,,,,,,,,,,,,,,,,,,,,,,,,,,,,,
1577420268.592813,127.000000,0.000000,4257.948730,4328.717773,4142.563965,4152.820313,4244.102539,236.000000,4.000000,,,,0.000000,4.000000,4.000000,4.000000,4.000000,4.000000,,,,,,,,,,,,,,,,,,,,,,,,,,,,,,,,,,,,,,,,,,,,,,,,,,,,,,,,
1577420268.600709,0.000000,0.000000,4249.743652,4312.307617,4133.333496,4235.384766,4236.410156,450.000000,4.000000,,,,0.000000,4.000000,4.000000,4.000000,4.000000,4.000000,,,,,,,,,,,,,,,,,,,,,,,,,,,,,,,,,,,,,,,,,,,,,,,,,,,,,,,,
1577420268.608506,1.000000,0.000000,4246.666504,4327.179688,4124.615234,4118.461426,4240.000000,450.000000,4.000000,,,,0.000000,4.000000,4.000000,4.000000,4.000000,4.000000,,,,,,,,,,,,,,,,,,,,,,,,,,,,,,,,,,,,,,,,,,,,,,,,,,,,,,,,
1577420268.616204,2.000000,0.000000,4273.846191,4352.307617,4138.974121,4109.743652,4260.512695,16218.000000,4.000000,,,,0.000000,4.000000,4.000000,4.000000,4.000000,4.000000,,,,,,,,,,,,,,,,,,,,,,,,,,,,,,,,,,,,,,,,,,,,,,,,,,,,,,,,
1577420268.624001,3.000000,0.000000,4309.230957,4361.025879,4162.563965,4212.307617,4281.538574,450.000000,4.000000,,,,0.000000,4.000000,4.000000,4.000000,4.000000,4.000000,,,,,,,,,,,,,,,,,,,,,,,,,,,,,,,,,,,,,,,,,,,,,,,,,,,,,,,,
1577420268.631698,4.000000,0.000000,4305.641113,4354.358887,4156.410156,4161.538574,4281.025879,16216.000000,4.000000,,,,0.000000,4.000000,4.000000,4.000000,4.000000,4.000000,,,,,,,,,,,,,,,,,,,,,,,,,,,,,,,,1.978026,4.158090,5.652221,4.777852,2.345355,3.216512,1.750615,2.556654,3.057841,3.436005,2.950029,2.602067,4.457168,4.352489,1.997043,2.081391,2.220648,13.990335,15.647371,23.001501,1.656178,3.449166,4.329691,4.536545,1.839752
1577420268.639495,5.000000,0.000000,4276.410156,4335.897461,4134.871582,4087.692383,4263.589844,450.000000,4.000000,,,,0.000000,4.000000,4.000000,4.000000,4.000000,4.000000,,,,,,,,,,,,,,,,,,,,,,,,,,,,,,,,,,,,,,,,,,,,,,,,,,,,,,,,
1577420268.647192,6.000000,0.000000,4279.487305,4328.205078,4134.871582,4180.000000,4258.974121,16148.000000,4.000000,,,,0.000000,4.000000,4.000000,4.000000,4.000000,4.000000,,,,,,,,,,,,,,,,,,,,,,,,,,,,,,,,,,,,,,,,,,,,,,,,,,,,,,,,
1577420268.655089,7.000000,0.000000,4298.461426,4351.282227,4142.051270,4208.205078,4266.153809,450.000000,4.000000,,,,0.000000,4.000000,4.000000,4.000000,4.000000,4.000000,,,,,,,,,,,,,,,,,,,,,,,,,,,,,,,,,,,,,,,,,,,,,,,,,,,,,,,,
1577420268.662886,8.000000,0.000000,4274.871582,4336.922852,4124.615234,4133.333496,4248.717773,450.000000,4.000000,,,,0.000000,4.000000,4.000000,4.000000,4.000000,4.000000,,,,,,,,,,,,,,,,,,,,,,,,,,,,,,,,,,,,,,,,,,,,,,,,,,,,,,,,
1577420268.670683,9.000000,0.000000,4242.051270,4288.717773,4102.563965,4117.436035,4221.025879,16134.000000,4.000000,,,,0.000000,4.000000,4.000000,4.000000,4.000000,4.000000,,,,,,,,,,,,,,,,,,,,,,,,,,,,,,,,,,,,,,,,,,,,,,,,,,,,,,,,
1577420268.678380,10.000000,0.000000,4250.769043,4309.743652,4103.589844,4133.333496,4222.563965,450.000000,4.000000,,,,0.000000,4.000000,4.000000,4.000000,4.000000,4.000000,,,,,,,,,,,,,,,,,,,,,,,,,,,,,,,,,,,,,,,,,,,,,,,,,,,,,,,,
1577420268.686277,11.000000,0.000000,4256.922852,4341.025879,4100.512695,4154.358887,4223.589844,16196.000000,4.000000,,,,0.000000,4.000000,4.000000,4.000000,4.000000,4.000000,,,,,,,,,,,,,,,,,,,,,,,,,,,,,,,,,,,,,,,,,,,,,,,,,,,,,,,,
1577420268.694074,12.000000,0.000000,4242.051270,4313.846191,4087.179443,4211.794922,4215.897461,450.000000,4.000000,,,,0.000000,4.000000,4.000000,4.000000,4.000000,4.000000,,,,,,,,,,,,,,,,,,,,,,,,,,,,,,,,,,,,,,,,,,,,,,,,,,,,,,,,
1577420268.701971,13.000000,0.000000,4263.589844,4323.589844,4104.102539,4138.461426,4244.102539,450.000000,4.000000,,,,0.000000,4.000000,4.000000,4.000000,4.000000,4.000000,,,,,,,,,,,,,,,,,,,,,,,,,,,,,,,,,,,,,,,,,,,,,,,,,,,,,,,,
1577420268.709768,14.000000,0.000000,4279.487305,4372.307617,4116.922852,3983.589844,4257.436035,450.000000,4.000000,,,,0.000000,4.000000,4.000000,4.000000,4.000000,4.000000,,,,,,,,,,,,,,,,,,,,,,,,,,,,,,,,,,,,,,,,,,,,,,,,,,,,,,,,
1577420268.717665,15.000000,0.000000,4257.948730,4363.077148,4102.563965,4083.076904,4235.384766,16196.000000,4.000000,,,,0.000000,4.000000,4.000000,4.000000,4.000000,4.000000,,,,,,,,,,,,,,,,,,,,,,,,,,,,,,,,,,,,,,,,,,,,,,,,,,,,,,,,
1577420268.725462,16.000000,0.000000,4258.461426,4315.384766,4101.025879,4252.820313,4236.410156,0.000000,4.000000,,,,0.000000,4.000000,4.000000,4.000000,4.000000,4.000000,,,,,,,,,,,,,,,,,,,,,,,,,,,,,,,,,,,,,,,,,,,,,,,,,,,,,,,,
1577420268.733358,17.000000,0.000000,4267.179688,4295.384766,4100.000000,4238.461426,4243.077148,0.000000,4.000000,,,,0.000000,4.000000,4.000000,4.000000,4.000000,4.000000,,,,,,,,,,,,,,,,,,,,,,,,,,,,,,,,,,,,,,,,,,,,,,,,,,,,,,,,
1577420268.741155,18.000000,0.000000,4258.974121,4302.051270,4094.358887,4114.871582,4238.461426,0.000000,4.000000,,,,0.000000,4.000000,4.000000,4.000000,4.000000,4.000000,,,,,,,,,,,,,,,,,,,,,,,,,,,,,,,,,,,,,,,,,,,,,,,,,,,,,,,,
1577420268.749052,19.000000,0.000000,4249.743652,4318.461426,4093.333252,4046.153809,4230.256348,0.000000,4.000000,,,,0.000000,4.000000,4.000000,4.000000,4.000000,4.000000,,,,,,,,,,,,,,,,,,,,,,,,,,,,,,,,,,,,,,,,,,,,,,,,,,,,,,,,
1577420268.756849,20.000000,0.000000,4237.948730,4331.794922,4084.102539,4104.102539,4213.333496,0.000000,4.000000,,,,0.000000,4.000000,4.000000,4.000000,4.000000,4.000000,,,,,,,,,,,,,,,,,,,,,,,,,,,,,,,,3.228393,6.275618,6.275040,4.902550,4.192634,3.928666,2.711200,2.938006,3.053864,4.706493,4.770729,4.382163,5.365571,4.835538,3.732405,2.916591,3.189517,16.142550,18.879065,27.319805,2.408377,4.702774,4.795139,4.605121,2.949664
1577420268.764746,21.000000,0.000000,4228.205078,4334.871582,4071.281982,4094.358887,4201.025879,0.000000,4.000000,,,,0.000000,4.000000,4.000000,4.000000,4.000000,4.000000,,,,,,,,,,,,,,,,,,,,,,,,,,,,,,,,,,,,,,,,,,,,,,,,,,,,,,,,
1577420268.772543,22.000000,0.000000,4217.948730,4316.410156,4058.461426,4053.846191,4189.743652,0.000000,4.000000,,,,0.000000,4.000000,4.000000,4.000000,4.000000,4.000000,,,,,,,,,,,,,,,,,,,,,,,,,,,,,,,,,,,,,,,,,,,,,,,,,,,,,,,,
1577420268.780240,23.000000,0.000000,4202.563965,4307.692383,4052.307617,4148.717773,4181.538574,0.000000,4.000000,,,,0.000000,4.000000,4.000000,4.000000,4.000000,4.000000,,,,,,,,,,,,,,,,,,,,,,,,,,,,,,,,,,,,,,,,,,,,,,,,,,,,,,,,
1577420268.788137,24.000000,0.000000,4214.871582,4342.563965,4068.205078,4167.692383,4197.948730,0.000000,4.000000,,,,0.000000,4.000000,4.000000,4.000000,4.000000,4.000000,,,,,,,,,,,,,,,,,,,,,,,,,,,,,,,,,,,,,,,,,,,,,,,,,,,,,,,,
1577420268.795934,25.000000,0.000000,4212.820313,4355.384766,4056.923096,4021.538574,4194.871582,0.000000,4.000000,,,,0.000000,4.000000,4.000000,4.000000,4.000000,4.000000,,,,,,,,,,,,,,,,,,,,,,,,,,,,,,,,,,,,,,,,,,,,,,,,,,,,,,,,
1577420268.803831,26.000000,0.000000,4182.563965,4341.025879,4022.564209,4058.461426,4171.282227,0.000000,4.000000,,,,0.000000,4.000000,4.000000,4.000000,4.000000,4.000000,,,,,,,,,,,,,,,,,,,,,,,,,,,,,,,,,,,,,,,,,,,,,,,,,,,,,,,,
1577420268.811628,27.000000,0.000000,4193.846191,4351.282227,4028.718018,4130.256348,4183.589844,0.000000,4.000000,,,,0.000000,4.000000,4.000000,4.000000,4.000000,4.000000,,,,,,,,,,,,,,,,,,,,,,,,,,,,,,,,,,,,,,,,,,,,,,,,,,,,,,,,
1577420268.819525,28.000000,0.000000,4209.743652,4345.128418,4034.358887,4045.128174,4193.846191,0.000000,4.000000,,,,0.000000,4.000000,4.000000,4.000000,4.000000,4.000000,,,,,,,,,,,,,,,,,,,,,,,,,,,,,,,,,,,,,,,,,,,,,,,,,,,,,,,,
1577420268.827322,29.000000,0.000000,4204.102539,4335.897461,4019.487061,4110.769043,4189.230957,0.000000,4.000000,,,,0.000000,4.000000,4.000000,4.000000,4.000000,4.000000,,,,,,,,,,,,,,,,,,,,,,,,,,,,,,,,,,,,,,,,,,,,,,,,,,,,,,,,
1577420268.835219,30.000000,0.000000,4215.897461,4360.512695,4021.025635,4147.692383,4205.128418,0.000000,4.000000,,,,0.000000,4.000000,4.000000,4.000000,4.000000,4.000000,,,,,,,,,,,,,,,,,,,,,,,,,,,,,,,,,,,,,,,,,,,,,,,,,,,,,,,,
1577420268.843016,31.000000,0.000000,4225.128418,4382.563965,4023.076904,4020.000000,4215.897461,0.000000,4.000000,,,,0.000000,4.000000,4.000000,4.000000,4.000000,4.000000,,,,,,,,,,,,,,,,,,,,,,,,,,,,,,,,,,,,,,,,,,,,,,,,,,,,,,,,
1577420268.850913,32.000000,0.000000,4221.025879,4382.563965,4013.846191,4107.692383,4207.179688,0.000000,4.000000,,,,0.000000,4.000000,4.000000,4.000000,4.000000,4.000000,,,,,,,,,,,,,,,,,,,,,,,,,,,,,,,,,,,,,,,,,,,,,,,,,,,,,,,,
1577420268.858710,33.000000,0.000000,4227.179688,4387.692383,4009.230713,4203.589844,4210.769043,0.000000,4.000000,,,,0.000000,4.000000,4.000000,4.000000,4.000000,4.000000,,,,,,,,,,,,,,,,,,,,,,,,,,,,,,,,,,,,,,,,,,,,,,,,,,,,,,,,
1577420268.866607,34.000000,0.000000,4224.615234,4401.538574,4000.512939,4030.256348,4210.769043,0.000000,4.000000,,,,0.000000,4.000000,4.000000,4.000000,4.000000,4.000000,,,,,,,,,,,,,,,,,,,,,,,,,,,,,,,,,,,,,,,,,,,,,,,,,,,,,,,,
1577420268.874404,35.000000,0.000000,4217.436035,4418.461426,3991.794922,4014.871826,4202.051270,0.000000,4.000000,,,,0.000000,4.000000,4.000000,4.000000,4.000000,4.000000,,,,,,,,,,,,,,,,,,,,,,,,,,,,,,,,,,,,,,,,,,,,,,,,,,,,,,,,
1577420268.882201,36.000000,0.000000,4240.512695,4422.051270,3997.435791,4199.487305,4218.461426,0.000000,4.000000,,,,0.000000,4.000000,4.000000,4.000000,4.000000,4.000000,,,,,,,,,,,,,,,,,,,,,,,,,,,,,,,,5.411466,10.395643,6.906256,5.188261,7.689845,4.627352,4.432755,3.273973,3.224162,7.416362,7.023283,6.937684,6.183959,5.485919,6.999671,4.052751,4.569015,16.570669,22.205721,35.269890,3.628519,6.872661,5.330815,4.544960,5.041251
1577420268.889898,37.000000,0.000000,4256.410156,4420.000000,4008.205078,4156.410156,4237.948730,0.000000,4.000000,,,,0.000000,4.000000,4.000000,4.000000,4.000000,4.000000,,,,,,,,,,,,,,,,,,,,,,,,,,,,,,,,,,,,,,,,,,,,,,,,,,,,,,,,
1577420268.897795,38.000000,0.000000,4256.410156,4445.128418,4016.923096,4092.820557,4251.282227,0.000000,4.000000,,,,0.000000,4.000000,4.000000,4.000000,4.000000,4.000000,,,,,,,,,,,,,,,,,,,,,,,,,,,,,,,,,,,,,,,,,,,,,,,,,,,,,,,,
1577420268.905592,39.000000,0.000000,4255.384766,4448.205078,4003.589844,4220.000000,4254.871582,0.000000,4.000000,,,,0.000000,4.000000,4.000000,4.000000,4.000000,4.000000,,,,,,,,,,,,,,,,,,,,,,,,,,,,,,,,,,,,,,,,,,,,,,,,,,,,,,,,
1577420268.913489,40.000000,0.000000,4252.307617,4427.179688,3995.384521,4173.846191,4247.692383,0.000000,4.000000,,,,0.000000,4.000000,4.000000,4.000000,4.000000,4.000000,,,,,,,,,,,,,,,,,,,,,,,,,,,,,,,,,,,,,,,,,,,,,,,,,,,,,,,,
1577420268.921286,41.000000,0.000000,4266.153809,4438.974121,4022.051270,4018.974365,4266.153809,0.000000,4.000000,,,,0.000000,4.000000,4.000000,4.000000,4.000000,4.000000,,,,,,,,,,,,,,,,,,,,,,,,,,,,,,,,,,,,,,,,,,,,,,,,,,,,,,,,
1577420268.929183,42.000000,0.000000,4296.922852,4434.871582,4045.641113,4122.563965,4297.436035,0.000000,4.000000,,,,0.000000,4.000000,4.000000,4.000000,4.000000,4.000000,,,,,,,,,,,,,,,,,,,,,,,,,,,,,,,,,,,,,,,,,,,,,,,,,,,,,,,,
1577420268.936980,43.000000,0.000000,4288.717773,4386.153809,4025.128174,4254.358887,4284.615234,0.000000,4.000000,,,,0.000000,4.000000,4.000000,4.000000,4.000000,4.000000,,,,,,,,,,,,,,,,,,,,,,,,,,,,,,,,,,,,,,,,,,,,,,,,,,,,,,,,
1577420268.944876,44.000000,0.000000,4245.641113,4395.384766,3994.358887,4149.230957,4248.205078,0.000000,4.000000,,,,0.000000,4.000000,4.000000,4.000000,4.000000,4.000000,,,,,,,,,,,,,,,,,,,,,,,,,,,,,,,,,,,,,,,,,,,,,,,,,,,,,,,,
1577420268.952673,45.000000,0.000000,4261.025879,4447.692383,4008.718018,4031.281982,4267.179688,0.000000,4.000000,,,,0.000000,4.000000,4.000000,4.000000,4.000000,4.000000,,,,,,,,,,,,,,,,,,,,,,,,,,,,,,,,,,,,,,,,,,,,,,,,,,,,,,,,
1577420268.960470,46.000000,0.000000,4301.538574,4410.256348,4030.769287,4149.743652,4306.666504,0.000000,4.000000,,,,0.000000,4.000000,4.000000,4.000000,4.000000,4.000000,,,,,,,,,,,,,,,,,,,,,,,,,,,,,,,,,,,,,,,,,,,,,,,,,,,,,,,,
1577420268.968367,47.000000,0.000000,4277.436035,4345.128418,4008.205078,4278.974121,4284.102539,0.000000,4.000000,,,,0.000000,4.000000,4.000000,4.000000,4.000000,4.000000,,,,,,,,,,,,,,,,,,,,,,,,,,,,,,,,,,,,,,,,,,,,,,,,,,,,,,,,
1577420268.976164,48.000000,0.000000,4232.820313,4364.102539,3978.974365,4123.077148,4240.512695,0.000000,4.000000,,,,0.000000,4.000000,4.000000,4.000000,4.000000,4.000000,,,,,,,,,,,,,,,,,,,,,,,,,,,,,,,,,,,,,,,,,,,,,,,,,,,,,,,,
1577420268.984061,49.000000,0.000000,4250.769043,4402.051270,3998.974365,4014.358887,4264.102539,0.000000,4.000000,,,,0.000000,4.000000,4.000000,4.000000,4.000000,4.000000,,,,,,,,,,,,,,,,,,,,,,,,,,,,,,,,,,,,,,,,,,,,,,,,,,,,,,,,
1577420268.991858,50.000000,0.000000,4276.410156,4377.436035,4016.410156,4149.743652,4293.846191,0.000000,4.000000,,,,0.000000,4.000000,4.000000,4.000000,4.000000,4.000000,,,,,,,,,,,,,,,,,,,,,,,,,,,,,,,,,,,,,,,,,,,,,,,,,,,,,,,,
1577420268.999655,51.000000,0.000000,4245.128418,4338.461426,3984.102539,4169.230957,4262.563965,0.000000,4.000000,,,,0.000000,4.000000,4.000000,4.000000,4.000000,4.000000,,,,,,,,,,,,,,,,,,,,,,,,,,,,,,,,,,,,,,,,,,,,,,,,,,,,,,,,
1577420269.007352,52.000000,0.000000,4227.692383,4359.487305,3967.692383,4058.974365,4248.717773,0.000000,4.000000,,,,0.000000,4.000000,4.000000,4.000000,4.000000,4.000000,,,,,,,,,,,,,,,,,,,,,,,,,,,,,,,,8.476309,16.300009,7.551461,5.651503,12.500439,5.252979,6.706107,3.550013,3.534791,11.443200,9.127785,9.888472,6.785188,6.253962,11.498960,5.274479,6.142771,15.257420,25.095570,46.223515,5.281483,9.902957,5.923836,4.417128,7.905647
1577420269.015149,53.000000,0.000000,4234.871582,4390.256348,3961.538574,4058.461426,4256.922852,0.000000,4.000000,,,,0.000000,4.000000,4.000000,4.000000,4.000000,4.000000,,,,,,,,,,,,,,,,,,,,,,,,,,,,,,,,,,,,,,,,,,,,,,,,,,,,,,,,
1577420269.022847,54.000000,0.000000,4245.641113,4383.589844,3949.743652,4138.974121,4262.563965,0.000000,4.000000,,,,0.000000,4.000000,4.000000,4.000000,4.000000,4.000000,,,,,,,,,,,,,,,,,,,,,,,,,,,,,,,,,,,,,,,,,,,,,,,,,,,,,,,,
1577420269.030644,55.000000,0.000000,4267.692383,4391.282227,3968.718018,4162.563965,4283.589844,0.000000,4.000000,,,,0.000000,4.000000,4.000000,4.000000,4.000000,4.000000,,,,,,,,,,,,,,,,,,,,,,,,,,,,,,,,,,,,,,,,,,,,,,,,,,,,,,,,
1577420269.038341,56.000000,0.000000,4257.436035,4402.051270,3972.307617,4115.384766,4275.897461,0.000000,4.000000,,,,0.000000,4.000000,4.000000,4.000000,4.000000,4.000000,,,,,,,,,,,,,,,,,,,,,,,,,,,,,,,,,,,,,,,,,,,,,,,,,,,,,,,,
1577420269.046138,57.000000,0.000000,4243.077148,4390.769043,3957.948730,4133.333496,4258.461426,0.000000,4.000000,,,,0.000000,4.000000,4.000000,4.000000,4.000000,4.000000,,,,,,,,,,,,,,,,,,,,,,,,,,,,,,,,,,,,,,,,,,,,,,,,,,,,,,,,
1577420269.053835,58.000000,0.000000,4278.974121,4424.615234,3995.897461,4140.000000,4295.384766,0.000000,4.000000,,,,0.000000,4.000000,4.000000,4.000000,4.000000,4.000000,,,,,,,,,,,,,,,,,,,,,,,,,,,,,,,,,,,,,,,,,,,,,,,,,,,,,,,,
1577420269.061632,59.000000,0.000000,4316.410156,4501.538574,4046.153809,4061.025635,4341.538574,0.000000,4.000000,,,,0.000000,4.000000,4.000000,4.000000,4.000000,4.000000,,,,,,,,,,,,,,,,,,,,,,,,,,,,,,,,,,,,,,,,,,,,,,,,,,,,,,,,
1577420269.069329,60.000000,0.000000,4303.589844,4501.025879,4033.846191,4183.589844,4327.179688,0.000000,4.000000,,,,0.000000,4.000000,4.000000,4.000000,4.000000,4.000000,,,,,,,,,,,,,,,,,,,,,,,,,,,,,,,,,,,,,,,,,,,,,,,,,,,,,,,,
1577420269.077226,61.000000,0.000000,4291.794922,4449.230957,4020.000000,4322.051270,4316.410156,0.000000,4.000000,,,,0.000000,4.000000,4.000000,4.000000,4.000000,4.000000,,,,,,,,,,,,,,,,,,,,,,,,,,,,,,,,,,,,,,,,,,,,,,,,,,,,,,,,
1577420269.085023,62.000000,0.000000,4312.307617,4471.794922,4044.615479,4098.461426,4346.153809,0.000000,4.000000,,,,0.000000,4.000000,4.000000,4.000000,4.000000,4.000000,,,,,,,,,,,,,,,,,,,,,,,,,,,,,,,,,,,,,,,,,,,,,,,,,,,,,,,,
1577420269.092920,63.000000,0.000000,4311.282227,4497.436035,4043.076904,4076.923096,4338.461426,0.000000,4.000000,,,,0.000000,4.000000,4.000000,4.000000,4.000000,4.000000,,,,,,,,,,,,,,,,,,,,,,,,,,,,,,,,,,,,,,,,,,,,,,,,,,,,,,,,
1577420269.100817,64.000000,0.000000,4282.051270,4450.256348,4009.743652,4332.307617,4303.589844,450.000000,4.000000,,,,0.000000,4.000000,4.000000,4.000000,4.000000,4.000000,,,,,,,,,,,,,,,,,,,,,,,,,,,,,,,,,,,,,,,,,,,,,,,,,,,,,,,,
1577420269.108614,65.000000,0.000000,4283.589844,4436.410156,4013.846191,4188.205078,4314.358887,450.000000,4.000000,,,,0.000000,4.000000,4.000000,4.000000,4.000000,4.000000,,,,,,,,,,,,,,,,,,,,,,,,,,,,,,,,,,,,,,,,,,,,,,,,,,,,,,,,
1577420269.116411,66.000000,0.000000,4316.922852,4467.179688,4042.564209,4049.743652,4350.256348,16220.000000,4.000000,,,,0.000000,4.000000,4.000000,4.000000,4.000000,4.000000,,,,,,,,,,,,,,,,,,,,,,,,,,,,,,,,,,,,,,,,,,,,,,,,,,,,,,,,
1577420269.124307,67.000000,0.000000,4329.230957,4459.487305,4035.384521,4246.666504,4360.512695,450.000000,4.000000,,,,0.000000,4.000000,4.000000,4.000000,4.000000,4.000000,,,,,,,,,,,,,,,,,,,,,,,,,,,,,,,,,,,,,,,,,,,,,,,,,,,,,,,,
1577420269.132104,68.000000,0.000000,4322.563965,4424.615234,4012.820557,4330.256348,4357.948730,16185.000000,4.000000,,,,0.000000,4.000000,4.000000,4.000000,4.000000,4.000000,,,,,,,,,,,,,,,,,,,,,,,,,,,,,,,,11.967975,22.710396,8.079844,6.144328,17.482824,5.931296,8.936553,3.759776,3.881054,15.885200,10.468021,12.513099,7.026244,6.944348,16.166903,6.286061,7.497889,12.687384,27.273998,58.172443,7.128500,13.254985,6.443889,4.235292,10.860708
1577420269.140001,69.000000,0.000000,4326.153809,4402.051270,4001.025635,4263.077148,4364.102539,450.000000,4.000000,,,,0.000000,4.000000,4.000000,4.000000,4.000000,4.000000,,,,,,,,,,,,,,,,,,,,,,,,,,,,,,,,,,,,,,,,,,,,,,,,,,,,,,,,
1577420269.147798,70.000000,0.000000,4333.333496,4427.692383,3996.410156,4200.000000,4371.794922,16179.000000,4.000000,,,,0.000000,4.000000,4.000000,4.000000,4.000000,4.000000,,,,,,,,,,,,,,,,,,,,,,,,,,,,,,,,,,,,,,,,,,,,,,,,,,,,,,,,
1577420269.155495,71.000000,0.000000,4334.871582,4460.512695,4000.000000,4186.666504,4374.871582,450.000000,4.000000,,,,0.000000,4.000000,4.000000,4.000000,4.000000,4.000000,,,,,,,,,,,,,,,,,,,,,,,,,,,,,,,,,,,,,,,,,,,,,,,,,,,,,,,,
1577420269.163292,72.000000,0.000000,4341.025879,4433.846191,4009.230713,4262.563965,4383.589844,450.000000,4.000000,,,,0.000000,4.000000,4.000000,4.000000,4.000000,4.000000,,,,,,,,,,,,,,,,,,,,,,,,,,,,,,,,,,,,,,,,,,,,,,,,,,,,,,,,
1577420269.170990,73.000000,0.000000,4356.922852,4413.846191,4020.000000,4222.563965,4397.436035,16214.000000,4.000000,,,,0.000000,4.000000,4.000000,4.000000,4.000000,4.000000,,,,,,,,,,,,,,,,,,,,,,,,,,,,,,,,,,,,,,,,,,,,,,,,,,,,,,,,
1577420269.178787,74.000000,0.000000,4348.717773,4430.769043,4011.281982,4110.256348,4388.205078,450.000000,4.000000,,,,0.000000,4.000000,4.000000,4.000000,4.000000,4.000000,,,,,,,,,,,,,,,,,,,,,,,,,,,,,,,,,,,,,,,,,,,,,,,,,,,,,,,,
1577420269.186484,75.000000,0.000000,4329.743652,4410.769043,3998.974365,4178.461426,4370.769043,16210.000000,4.000000,,,,0.000000,4.000000,4.000000,4.000000,4.000000,4.000000,,,,,,,,,,,,,,,,,,,,,,,,,,,,,,,,,,,,,,,,,,,,,,,,,,,,,,,,
1577420269.194281,76.000000,0.000000,4336.922852,4382.563965,4003.589844,4228.717773,4382.051270,450.000000,4.000000,,,,0.000000,4.000000,4.000000,4.000000,4.000000,4.000000,,,,,,,,,,,,,,,,,,,,,,,,,,,,,,,,,,,,,,,,,,,,,,,,,,,,,,,,
1577420269.201978,77.000000,0.000000,4354.871582,4416.922852,4020.000000,4200.512695,4403.077148,450.000000,4.000000,,,,0.000000,4.000000,4.000000,4.000000,4.000000,4.000000,,,,,,,,,,,,,,,,,,,,,,,,,,,,,,,,,,,,,,,,,,,,,,,,,,,,,,,,
1577420269.209775,78.000000,0.000000,4351.794922,4443.077148,4025.128174,4235.384766,4400.512695,450.000000,4.000000,,,,0.000000,4.000000,4.000000,4.000000,4.000000,4.000000,,,,,,,,,,,,,,,,,,,,,,,,,,,,,,,,,,,,,,,,,,,,,,,,,,,,,,,,
1577420269.217472,79.000000,0.000000,4327.692383,4415.384766,4007.692383,4102.563965,4380.512695,16210.000000,4.000000,,,,0.000000,4.000000,4.000000,4.000000,4.000000,4.000000,,,,,,,,,,,,,,,,,,,,,,,,,,,,,,,,,,,,,,,,,,,,,,,,,,,,,,,,
1577420269.225369,80.000000,0.000000,4317.436035,4392.307617,3998.461426,4057.435791,4373.846191,450.000000,4.000000,,,,0.000000,4.000000,4.000000,4.000000,4.000000,4.000000,,,,,,,,,,,,,,,,,,,,,,,,,,,,,,,,,,,,,,,,,,,,,,,,,,,,,,,,
1577420269.233166,81.000000,0.000000,4330.769043,4402.563965,4011.794922,4248.717773,4387.179688,450.000000,4.000000,,,,0.000000,4.000000,4.000000,4.000000,4.000000,4.000000,,,,,,,,,,,,,,,,,,,,,,,,,,,,,,,,,,,,,,,,,,,,,,,,,,,,,,,,
1577420269.240963,82.000000,0.000000,4342.051270,4425.641113,4025.128174,4205.641113,4403.077148,450.000000,4.000000,,,,0.000000,4.000000,4.000000,4.000000,4.000000,4.000000,,,,,,,,,,,,,,,,,,,,,,,,,,,,,,,,,,,,,,,,,,,,,,,,,,,,,,,,
1577420269.248660,83.000000,0.000000,4332.307617,4422.051270,4019.487061,4116.922852,4397.948730,16210.000000,4.000000,,,,0.000000,4.000000,4.000000,4.000000,4.000000,4.000000,,,,,,,,,,,,,,,,,,,,,,,,,,,,,,,,,,,,,,,,,,,,,,,,,,,,,,,,
1577420269.256557,84.000000,0.000000,4302.563965,4388.717773,3996.410156,4203.077148,4374.358887,450.000000,4.000000,,,,0.000000,4.000000,4.000000,4.000000,4.000000,4.000000,,,,,,,,,,,,,,,,,,,,,,,,,,,,,,,,15.233382,27.724745,8.244644,6.409419,21.115820,7.004967,10.421794,3.876032,4.146012,19.393124,10.791317,14.059505,6.794171,7.280708,19.566637,7.163692,8.222548,9.683396,28.679594,68.591110,8.962132,16.062231,6.672979,3.960945,13.009881
1577420269.264354,85.000000,0.000000,4283.589844,4389.230957,3984.615479,4109.743652,4367.692383,450.000000,4.000000,,,,0.000000,4.000000,4.000000,4.000000,4.000000,4.000000,,,,,,,,,,,,,,,,,,,,,,,,,,,,,,,,,,,,,,,,,,,,,,,,,,,,,,,,
1577420269.272251,86.000000,0.000000,4285.128418,4422.051270,3992.307617,4008.718018,4378.461426,450.000000,4.000000,,,,0.000000,4.000000,4.000000,4.000000,4.000000,4.000000,,,,,,,,,,,,,,,,,,,,,,,,,,,,,,,,,,,,,,,,,,,,,,,,,,,,,,,,
1577420269.280048,87.000000,0.000000,4284.102539,4400.000000,3995.384521,4189.743652,4380.000000,16210.000000,4.000000,,,,0.000000,4.000000,4.000000,4.000000,4.000000,4.000000,,,,,,,,,,,,,,,,,,,,,,,,,,,,,,,,,,,,,,,,,,,,,,,,,,,,,,,,
1577420269.287945,88.000000,0.000000,4283.077148,4368.205078,3995.384521,4228.205078,4378.461426,450.000000,4.000000,,,,0.000000,4.000000,4.000000,4.000000,4.000000,4.000000,,,,,,,,,,,,,,,,,,,,,,,,,,,,,,,,,,,,,,,,,,,,,,,,,,,,,,,,
1577420269.295742,89.000000,0.000000,4289.743652,4399.487305,4001.538574,4066.153809,4387.692383,450.000000,4.000000,,,,0.000000,4.000000,4.000000,4.000000,4.000000,4.000000,,,,,,,,,,,,,,,,,,,,,,,,,,,,,,,,,,,,,,,,,,,,,,,,,,,,,,,,
1577420269.303639,90.000000,0.000000,4288.717773,4418.461426,4000.512939,4130.256348,4389.743652,450.000000,4.000000,,,,0.000000,4.000000,4.000000,4.000000,4.000000,4.000000,,,,,,,,,,,,,,,,,,,,,,,,,,,,,,,,,,,,,,,,,,,,,,,,,,,,,,,,
1577420269.311436,91.000000,0.000000,4293.333496,4402.563965,4007.179443,4206.666504,4392.307617,16210.000000,4.000000,,,,0.000000,4.000000,4.000000,4.000000,4.000000,4.000000,,,,,,,,,,,,,,,,,,,,,,,,,,,,,,,,,,,,,,,,,,,,,,,,,,,,,,,,
1577420269.319332,92.000000,0.000000,4313.846191,4402.051270,4031.281982,4134.871582,4413.846191,450.000000,4.000000,,,,0.000000,4.000000,4.000000,4.000000,4.000000,4.000000,,,,,,,,,,,,,,,,,,,,,,,,,,,,,,,,,,,,,,,,,,,,,,,,,,,,,,,,
1577420269.327129,93.000000,0.000000,4314.871582,4411.794922,4035.897461,4101.538574,4417.436035,450.000000,4.000000,,,,0.000000,4.000000,4.000000,4.000000,4.000000,4.000000,,,,,,,,,,,,,,,,,,,,,,,,,,,,,,,,,,,,,,,,,,,,,,,,,,,,,,,,
1577420269.335026,94.000000,0.000000,4288.717773,4418.461426,4014.871826,4055.897461,4385.128418,450.000000,4.000000,,,,0.000000,4.000000,4.000000,4.000000,4.000000,4.000000,,,,,,,,,,,,,,,,,,,,,,,,,,,,,,,,,,,,,,,,,,,,,,,,,,,,,,,,
1577420269.342823,95.000000,0.000000,4292.307617,4416.922852,4015.897461,4113.846191,4381.025879,16210.000000,4.000000,,,,0.000000,4.000000,4.000000,4.000000,4.000000,4.000000,,,,,,,,,,,,,,,,,,,,,,,,,,,,,,,,,,,,,,,,,,,,,,,,,,,,,,,,
1577420269.350620,96.000000,0.000000,4321.025879,4397.436035,4036.923096,4268.717773,4406.666504,450.000000,4.000000,,,,0.000000,4.000000,4.000000,4.000000,4.000000,4.000000,,,,,,,,,,,,,,,,,,,,,,,,,,,,,,,,,,,,,,,,,,,,,,,,,,,,,,,,
1577420269.358517,97.000000,0.000000,4322.051270,4394.358887,4039.487061,4150.256348,4404.615234,450.000000,4.000000,,,,0.000000,4.000000,4.000000,4.000000,4.000000,4.000000,,,,,,,,,,,,,,,,,,,,,,,,,,,,,,,,,,,,,,,,,,,,,,,,,,,,,,,,
1577420269.366314,98.000000,0.000000,4311.794922,4431.794922,4035.897461,3998.974365,4391.794922,450.000000,4.000000,,,,0.000000,4.000000,4.000000,4.000000,4.000000,4.000000,,,,,,,,,,,,,,,,,,,,,,,,,,,,,,,,,,,,,,,,,,,,,,,,,,,,,,,,
1577420269.374211,99.000000,0.000000,4327.179688,4454.871582,4052.307617,4159.487305,4406.666504,16210.000000,4.000000,,,,0.000000,4.000000,4.000000,4.000000,4.000000,4.000000,,,,,,,,,,,,,,,,,,,,,,,,,,,,,,,,,,,,,,,,,,,,,,,,,,,,,,,,
1577420269.382008,100.000000,0.000000,4342.051270,4429.230957,4066.153809,4201.025879,4426.153809,450.000000,4.000000,,,,0.000000,4.000000,4.000000,4.000000,4.000000,4.000000,,,,,,,,,,,,,,,,,,,,,,,,,,,,,,,,17.821508,29.626982,7.830555,6.214040,22.178797,9.630549,10.727617,3.846492,4.235265,20.811451,10.406774,14.113383,6.101637,7.033252,20.542164,8.553359,8.097734,7.097288,29.386618,75.686508,10.705332,17.443365,6.452347,3.552715,13.646949
1577420269.389905,101.000000,0.000000,4325.128418,4413.333496,4049.743652,4061.025635,4406.153809,450.000000,4.000000,,,,0.000000,4.000000,4.000000,4.000000,4.000000,4.000000,,,,,,,,,,,,,,,,,,,,,,,,,,,,,,,,,,,,,,,,,,,,,,,,,,,,,,,,
1577420269.397702,102.000000,0.000000,4297.948730,4413.846191,4017.435791,4068.718018,4370.769043,450.000000,4.000000,,,,0.000000,4.000000,4.000000,4.000000,4.000000,4.000000,,,,,,,,,,,,,,,,,,,,,,,,,,,,,,,,,,,,,,,,,,,,,,,,,,,,,,,,
1577420269.405599,103.000000,0.000000,4299.487305,4399.487305,4013.333252,4168.205078,4373.333496,16210.000000,4.000000,,,,0.000000,4.000000,4.000000,4.000000,4.000000,4.000000,,,,,,,,,,,,,,,,,,,,,,,,,,,,,,,,,,,,,,,,,,,,,,,,,,,,,,,,
1577420269.413396,104.000000,0.000000,4307.692383,4382.563965,4024.102539,4204.615234,4386.666504,450.000000,4.000000,,,,0.000000,4.000000,4.000000,4.000000,4.000000,4.000000,,,,,,,,,,,,,,,,,,,,,,,,,,,,,,,,,,,,,,,,,,,,,,,,,,,,,,,,
1577420269.421293,105.000000,0.000000,4302.563965,4412.307617,4011.281982,4136.922852,4376.922852,450.000000,4.000000,,,,0.000000,4.000000,4.000000,4.000000,4.000000,4.000000,,,,,,,,,,,,,,,,,,,,,,,,,,,,,,,,,,,,,,,,,,,,,,,,,,,,,,,,
1577420269.429090,106.000000,1.000000,4298.141113,4408.589844,4010.384521,4133.910156,4382.243652,450.000000,4.000000,,,,0.000000,4.000000,4.000000,4.000000,4.000000,4.000000,,,,,,,,,,,,,,,,,,,,,,,,,,,,,,,,,,,,,,,,,,,,,,,,,,,,,,,,
1577420269.436887,107.000000,1.000000,4293.717773,4404.871582,4009.487061,4130.897461,4387.563965,450.000000,4.000000,,,,0.000000,4.000000,4.000000,4.000000,4.000000,4.000000,,,,,,,,,,,,,,,,,,,,,,,,,,,,,,,,,,,,,,,,,,,,,,,,,,,,,,,,
1577420269.444684,108.000000,1.000000,4289.294922,4401.153809,4008.589844,4127.884766,4392.884766,450.000000,4.000000,,,,0.000000,4.000000,4.000000,4.000000,4.000000,4.000000,,,,,,,,,,,,,,,,,,,,,,,,,,,,,,,,,,,,,,,,,,,,,,,,,,,,,,,,
1577420269.452481,109.000000,1.000000,4284.871582,4397.436035,4007.692383,4124.871582,4398.205078,450.000000,4.000000,,,,0.000000,4.000000,4.000000,4.000000,4.000000,4.000000,,,,,,,,,,,,,,,,,,,,,,,,,,,,,,,,,,,,,,,,,,,,,,,,,,,,,,,,
1577420269.460278,110.000000,1.000000,4280.448730,4393.717773,4006.794922,4121.858887,4403.525879,450.000000,4.000000,,,,0.000000,4.000000,4.000000,4.000000,4.000000,4.000000,,,,,,,,,,,,,,,,,,,,,,,,,,,,,,,,,,,,,,,,,,,,,,,,,,,,,,,,
1577420269.468075,111.000000,1.000000,4276.025879,4390.000000,4005.897461,4118.846191,4408.846191,450.000000,4.000000,,,,0.000000,4.000000,4.000000,4.000000,4.000000,4.000000,,,,,,,,,,,,,,,,,,,,,,,,,,,,,,,,,,,,,,,,,,,,,,,,,,,,,,,,
1577420269.475872,112.000000,1.000000,4271.602539,4386.282227,4005.000000,4115.833496,4414.166504,450.000000,4.000000,,,,0.000000,4.000000,4.000000,4.000000,4.000000,4.000000,,,,,,,,,,,,,,,,,,,,,,,,,,,,,,,,,,,,,,,,,,,,,,,,,,,,,,,,
1577420269.483669,113.000000,0.000000,4267.179688,4382.563965,4004.102539,4112.820313,4419.487305,450.000000,4.000000,,,,0.000000,4.000000,4.000000,4.000000,4.000000,4.000000,,,,,,,,,,,,,,,,,,,,,,,,,,,,,,,,,,,,,,,,,,,,,,,,,,,,,,,,
1577420269.491466,114.000000,0.000000,4263.589844,4447.179688,4020.512939,4037.948730,4445.641113,450.000000,4.000000,,,,0.000000,4.000000,4.000000,4.000000,4.000000,4.000000,,,,,,,,,,,,,,,,,,,,,,,,,,,,,,,,,,,,,,,,,,,,,,,,,,,,,,,,
1577420269.499162,115.000000,0.000000,4191.282227,4405.641113,3998.974365,4070.256348,4417.948730,16210.000000,4.000000,,,,0.000000,4.000000,4.000000,4.000000,4.000000,4.000000,,,,,,,,,,,,,,,,,,,,,,,,,,,,,,,,,,,,,,,,,,,,,,,,,,,,,,,,
1577420269.506959,116.000000,0.000000,4147.692383,4346.153809,3996.923096,4168.717773,4405.128418,450.000000,4.000000,,,,0.000000,4.000000,4.000000,4.000000,4.000000,4.000000,,,,,,,,,,,,,,,,,,,,,,,,,,,,,,,,19.545265,27.807615,6.801103,5.488538,20.319317,14.600430,9.869259,3.659626,4.098571,19.711472,10.163152,12.791378,5.096294,6.159289,18.761530,10.998514,7.210029,5.475247,29.388336,79.067856,11.999134,16.977684,5.779825,3.024372,12.583303
1577420269.514655,117.000000,0.000000,4142.563965,4385.641113,4006.153809,4075.897461,4411.282227,450.000000,4.000000,,,,0.000000,4.000000,4.000000,4.000000,4.000000,4.000000,,,,,,,,,,,,,,,,,,,,,,,,,,,,,,,,,,,,,,,,,,,,,,,,,,,,,,,,
1577420269.522451,118.000000,0.000000,4121.025879,4422.563965,3998.974365,3991.281982,4409.743652,450.000000,4.000000,,,,0.000000,4.000000,4.000000,4.000000,4.000000,4.000000,,,,,,,,,,,,,,,,,,,,,,,,,,,,,,,,,,,,,,,,,,,,,,,,,,,,,,,,
1577420269.530148,119.000000,0.000000,4106.666504,4369.743652,4003.589844,4100.000000,4410.256348,16210.000000,4.000000,,,,0.000000,4.000000,4.000000,4.000000,4.000000,4.000000,,,,,,,,,,,,,,,,,,,,,,,,,,,,,,,,,,,,,,,,,,,,,,,,,,,,,,,,
1577420269.537944,120.000000,0.000000,4104.102539,4342.051270,4012.820557,4124.615234,4411.282227,450.000000,4.000000,,,,0.000000,4.000000,4.000000,4.000000,4.000000,4.000000,,,,,,,,,,,,,,,,,,,,,,,,,,,,,,,,,,,,,,,,,,,,,,,,,,,,,,,,
1577420269.545640,121.000000,0.000000,4085.641113,4372.307617,4003.076904,4016.923096,4404.102539,450.000000,4.000000,,,,0.000000,4.000000,4.000000,4.000000,4.000000,4.000000,,,,,,,,,,,,,,,,,,,,,,,,,,,,,,,,,,,,,,,,,,,,,,,,,,,,,,,,
1577420269.553337,122.000000,0.000000,4086.153809,4383.077148,4004.615479,4041.025635,4414.358887,450.000000,4.000000,,,,0.000000,4.000000,4.000000,4.000000,4.000000,4.000000,,,,,,,,,,,,,,,,,,,,,,,,,,,,,,,,,,,,,,,,,,,,,,,,,,,,,,,,
1577420269.561133,123.000000,0.000000,4090.769287,4379.487305,3998.974365,4144.615234,4418.461426,16210.000000,4.000000,,,,0.000000,4.000000,4.000000,4.000000,4.000000,4.000000,,,,,,,,,,,,,,,,,,,,,,,,,,,,,,,,,,,,,,,,,,,,,,,,,,,,,,,,
1577420269.568830,124.000000,0.000000,4055.897461,4366.666504,3967.179443,4028.205078,4392.820313,450.000000,4.000000,,,,0.000000,4.000000,4.000000,4.000000,4.000000,4.000000,,,,,,,,,,,,,,,,,,,,,,,,,,,,,,,,,,,,,,,,,,,,,,,,,,,,,,,,
1577420269.576627,125.000000,0.000000,4042.051270,4331.282227,3964.102539,3905.641113,4386.153809,450.000000,4.000000,,,,0.000000,4.000000,4.000000,4.000000,4.000000,4.000000,,,,,,,,,,,,,,,,,,,,,,,,,,,,,,,,,,,,,,,,,,,,,,,,,,,,,,,,
1577420269.584323,126.000000,0.000000,4069.743652,4325.641113,3983.589844,4015.897461,4405.128418,450.000000,4.000000,,,,0.000000,4.000000,4.000000,4.000000,4.000000,4.000000,,,,,,,,,,,,,,,,,,,,,,,,,,,,,,,,,,,,,,,,,,,,,,,,,,,,,,,,
1577420269.592020,127.000000,0.000000,4078.461426,4372.820313,3979.487061,4130.256348,4408.717773,236.000000,4.000000,,,,0.000000,4.000000,4.000000,4.000000,4.000000,4.000000,,,,,,,,,,,,,,,,,,,,,,,,,,,,,,,,,,,,,,,,,,,,,,,,,,,,,,,,
1577420269.599816,0.000000,0.000000,4057.435791,4382.563965,3961.538574,4129.230957,4393.333496,450.000000,4.000000,,,,0.000000,4.000000,4.000000,4.000000,4.000000,4.000000,,,,,,,,,,,,,,,,,,,,,,,,,,,,,,,,,,,,,,,,,,,,,,,,,,,,,,,,
1577420269.607613,1.000000,0.000000,4047.692383,4359.487305,3962.051270,4004.102539,4389.743652,450.000000,4.000000,,,,0.000000,4.000000,4.000000,4.000000,4.000000,4.000000,,,,,,,,,,,,,,,,,,,,,,,,,,,,,,,,,,,,,,,,,,,,,,,,,,,,,,,,
1577420269.615309,2.000000,0.000000,4064.615479,4386.666504,3986.153809,3922.564209,4410.769043,16229.000000,4.000000,,,,0.000000,4.000000,4.000000,4.000000,4.000000,4.000000,,,,,,,,,,,,,,,,,,,,,,,,,,,,,,,,,,,,,,,,,,,,,,,,,,,,,,,,
1577420269.623105,3.000000,0.000000,4067.179443,4417.436035,4001.025635,4068.718018,4418.974121,450.000000,4.000000,,,,0.000000,4.000000,4.000000,4.000000,4.000000,4.000000,,,,,,,,,,,,,,,,,,,,,,,,,,,,,,,,,,,,,,,,,,,,,,,,,,,,,,,,
1577420269.630802,4.000000,0.000000,4046.666748,4414.871582,3997.435791,4164.102539,4400.000000,16204.000000,4.000000,,,,0.000000,4.000000,4.000000,4.000000,4.000000,4.000000,,,,,,,,,,,,,,,,,,,,,,,,,,,,,,,,21.034300,22.922274,5.356976,4.366177,16.222673,21.690670,8.225693,3.327649,3.773641,16.576948,10.594328,10.606773,4.035076,4.839499,14.877249,14.712619,5.910104,4.799865,28.675278,79.706902,13.304986,14.857301,4.815566,2.448372,10.234041
1577420269.638598,5.000000,0.000000,4049.230713,4413.333496,4003.076904,4054.871826,4394.871582,450.000000,4.000000,,,,0.000000,4.000000,4.000000,4.000000,4.000000,4.000000,,,,,,,,,,,,,,,,,,,,,,,,,,,,,,,,,,,,,,,,,,,,,,,,,,,,,,,,
1577420269.646294,6.000000,0.000000,4047.692383,4413.846191,3994.871826,4008.718018,4389.230957,16193.000000,4.000000,,,,0.000000,4.000000,4.000000,4.000000,4.000000,4.000000,,,,,,,,,,,,,,,,,,,,,,,,,,,,,,,,,,,,,,,,,,,,,,,,,,,,,,,,
1577420269.654091,7.000000,0.000000,4029.230713,4429.743652,3979.487061,3975.384521,4382.051270,450.000000,4.000000,,,,0.000000,4.000000,4.000000,4.000000,4.000000,4.000000,,,,,,,,,,,,,,,,,,,,,,,,,,,,,,,,,,,,,,,,,,,,,,,,,,,,,,,,
1577420269.661787,8.000000,0.000000,4048.718018,4449.230957,4003.589844,3974.358887,4415.384766,450.000000,4.000000,,,,0.000000,4.000000,4.000000,4.000000,4.000000,4.000000,,,,,,,,,,,,,,,,,,,,,,,,,,,,,,,,,,,,,,,,,,,,,,,,,,,,,,,,
1577420269.669583,9.000000,0.000000,4061.025635,4445.641113,4017.948730,4169.230957,4426.153809,16112.000000,4.000000,,,,0.000000,4.000000,4.000000,4.000000,4.000000,4.000000,,,,,,,,,,,,,,,,,,,,,,,,,,,,,,,,,,,,,,,,,,,,,,,,,,,,,,,,
1577420269.677280,10.000000,0.000000,4016.923096,4436.410156,3984.102539,4169.230957,4385.128418,450.000000,4.000000,,,,0.000000,4.000000,4.000000,4.000000,4.000000,4.000000,,,,,,,,,,,,,,,,,,,,,,,,,,,,,,,,,,,,,,,,,,,,,,,,,,,,,,,,
1577420269.685076,11.000000,0.000000,3995.897461,4414.871582,3979.487061,3976.410156,4380.512695,16218.000000,4.000000,,,,0.000000,4.000000,4.000000,4.000000,4.000000,4.000000,,,,,,,,,,,,,,,,,,,,,,,,,,,,,,,,,,,,,,,,,,,,,,,,,,,,,,,,
1577420269.692772,12.000000,0.000000,4018.461426,4384.102539,4007.692383,3992.820557,4414.871582,450.000000,4.000000,,,,0.000000,4.000000,4.000000,4.000000,4.000000,4.000000,,,,,,,,,,,,,,,,,,,,,,,,,,,,,,,,,,,,,,,,,,,,,,,,,,,,,,,,
1577420269.700469,13.000000,0.000000,4017.948730,4397.948730,4001.538574,4083.589844,4415.897461,450.000000,4.000000,,,,0.000000,4.000000,4.000000,4.000000,4.000000,4.000000,,,,,,,,,,,,,,,,,,,,,,,,,,,,,,,,,,,,,,,,,,,,,,,,,,,,,,,,
1577420269.708266,14.000000,0.000000,4009.230713,4426.666504,3982.564209,4059.487061,4395.897461,450.000000,4.000000,,,,0.000000,4.000000,4.000000,4.000000,4.000000,4.000000,,,,,,,,,,,,,,,,,,,,,,,,,,,,,,,,,,,,,,,,,,,,,,,,,,,,,,,,
1577420269.716062,15.000000,0.000000,4015.897461,4400.000000,3982.051270,4055.384521,4396.410156,16218.000000,4.000000,,,,0.000000,4.000000,4.000000,4.000000,4.000000,4.000000,,,,,,,,,,,,,,,,,,,,,,,,,,,,,,,,,,,,,,,,,,,,,,,,,,,,,,,,
1577420269.723759,16.000000,0.000000,4031.281982,4379.487305,3995.897461,4050.256348,4416.410156,0.000000,4.000000,,,,0.000000,4.000000,4.000000,4.000000,4.000000,4.000000,,,,,,,,,,,,,,,,,,,,,,,,,,,,,,,,,,,,,,,,,,,,,,,,,,,,,,,,
1577420269.731455,17.000000,0.000000,4028.205078,4389.743652,3996.923096,3969.230713,4407.179688,0.000000,4.000000,,,,0.000000,4.000000,4.000000,4.000000,4.000000,4.000000,,,,,,,,,,,,,,,,,,,,,,,,,,,,,,,,,,,,,,,,,,,,,,,,,,,,,,,,
1577420269.739252,18.000000,0.000000,4001.025635,4381.538574,3979.487061,3956.923096,4377.948730,0.000000,4.000000,,,,0.000000,4.000000,4.000000,4.000000,4.000000,4.000000,,,,,,,,,,,,,,,,,,,,,,,,,,,,,,,,,,,,,,,,,,,,,,,,,,,,,,,,
1577420269.746948,19.000000,0.000000,4004.102539,4382.051270,3983.589844,4026.666748,4386.153809,0.000000,4.000000,,,,0.000000,4.000000,4.000000,4.000000,4.000000,4.000000,,,,,,,,,,,,,,,,,,,,,,,,,,,,,,,,,,,,,,,,,,,,,,,,,,,,,,,,
1577420269.754745,20.000000,0.000000,4024.102539,4391.794922,4000.000000,4075.384521,4397.948730,0.000000,4.000000,,,,0.000000,4.000000,4.000000,4.000000,4.000000,4.000000,,,,,,,,,,,,,,,,,,,,,,,,,,,,,,,,22.731739,16.720097,3.874325,3.152116,11.270967,29.157980,6.339294,2.901052,3.388941,12.559184,11.949028,8.187278,3.165308,3.425528,10.197811,19.177475,4.657002,4.697162,27.011728,78.976791,13.739013,11.747301,3.807565,1.930890,7.402874
1577420269.762441,21.000000,0.000000,4035.384521,4405.128418,4017.948730,4024.615479,4402.051270,0.000000,4.000000,,,,0.000000,4.000000,4.000000,4.000000,4.000000,4.000000,,,,,,,,,,,,,,,,,,,,,,,,,,,,,,,,,,,,,,,,,,,,,,,,,,,,,,,,
1577420269.770238,22.000000,0.000000,4045.641113,4420.512695,4034.358887,3971.281982,4416.410156,0.000000,4.000000,,,,0.000000,4.000000,4.000000,4.000000,4.000000,4.000000,,,,,,,,,,,,,,,,,,,,,,,,,,,,,,,,,,,,,,,,,,,,,,,,,,,,,,,,
1577420269.777934,23.000000,0.000000,4034.871826,4394.871582,4023.076904,4074.358887,4402.563965,0.000000,4.000000,,,,0.000000,4.000000,4.000000,4.000000,4.000000,4.000000,,,,,,,,,,,,,,,,,,,,,,,,,,,,,,,,,,,,,,,,,,,,,,,,,,,,,,,,
1577420269.785731,24.000000,0.000000,4017.435791,4358.974121,4009.743652,4101.025879,4380.000000,0.000000,4.000000,,,,0.000000,4.000000,4.000000,4.000000,4.000000,4.000000,,,,,,,,,,,,,,,,,,,,,,,,,,,,,,,,,,,,,,,,,,,,,,,,,,,,,,,,
1577420269.793427,25.000000,0.000000,4001.025635,4373.846191,4005.128174,3934.358887,4359.487305,0.000000,4.000000,,,,0.000000,4.000000,4.000000,4.000000,4.000000,4.000000,,,,,,,,,,,,,,,,,,,,,,,,,,,,,,,,,,,,,,,,,,,,,,,,,,,,,,,,
1577420269.801223,26.000000,0.000000,3988.718018,4402.051270,3998.461426,3969.230713,4338.974121,0.000000,4.000000,,,,0.000000,4.000000,4.000000,4.000000,4.000000,4.000000,,,,,,,,,,,,,,,,,,,,,,,,,,,,,,,,,,,,,,,,,,,,,,,,,,,,,,,,
1577420269.808920,27.000000,0.000000,4024.615479,4391.794922,4026.153809,4132.307617,4360.000000,0.000000,4.000000,,,,0.000000,4.000000,4.000000,4.000000,4.000000,4.000000,,,,,,,,,,,,,,,,,,,,,,,,,,,,,,,,,,,,,,,,,,,,,,,,,,,,,,,,
1577420269.816716,28.000000,0.000000,4066.666748,4374.358887,4056.923096,4022.564209,4397.948730,0.000000,4.000000,,,,0.000000,4.000000,4.000000,4.000000,4.000000,4.000000,,,,,,,,,,,,,,,,,,,,,,,,,,,,,,,,,,,,,,,,,,,,,,,,,,,,,,,,
1577420269.824412,29.000000,0.000000,4034.358887,4385.641113,4023.589844,3937.435791,4366.666504,0.000000,4.000000,,,,0.000000,4.000000,4.000000,4.000000,4.000000,4.000000,,,,,,,,,,,,,,,,,,,,,,,,,,,,,,,,,,,,,,,,,,,,,,,,,,,,,,,,
1577420269.832209,30.000000,0.000000,3997.435791,4397.948730,3989.230713,4049.743652,4316.410156,0.000000,4.000000,,,,0.000000,4.000000,4.000000,4.000000,4.000000,4.000000,,,,,,,,,,,,,,,,,,,,,,,,,,,,,,,,,,,,,,,,,,,,,,,,,,,,,,,,
1577420269.839905,31.000000,0.000000,4026.153809,4377.948730,4008.205078,4074.871826,4329.743652,0.000000,4.000000,,,,0.000000,4.000000,4.000000,4.000000,4.000000,4.000000,,,,,,,,,,,,,,,,,,,,,,,,,,,,,,,,,,,,,,,,,,,,,,,,,,,,,,,,
1577420269.847602,32.000000,0.000000,4054.871826,4360.000000,4030.769287,4058.974365,4356.922852,0.000000,4.000000,,,,0.000000,4.000000,4.000000,4.000000,4.000000,4.000000,,,,,,,,,,,,,,,,,,,,,,,,,,,,,,,,,,,,,,,,,,,,,,,,,,,,,,,,
1577420269.855398,33.000000,0.000000,4045.641113,4361.025879,4025.128174,4080.512939,4353.846191,0.000000,4.000000,,,,0.000000,4.000000,4.000000,4.000000,4.000000,4.000000,,,,,,,,,,,,,,,,,,,,,,,,,,,,,,,,,,,,,,,,,,,,,,,,,,,,,,,,
1577420269.863095,34.000000,0.000000,4045.128174,4377.436035,4023.076904,4087.179443,4351.794922,0.000000,4.000000,,,,0.000000,4.000000,4.000000,4.000000,4.000000,4.000000,,,,,,,,,,,,,,,,,,,,,,,,,,,,,,,,,,,,,,,,,,,,,,,,,,,,,,,,
1577420269.870891,35.000000,0.000000,4084.102539,4392.307617,4042.051270,4113.846191,4371.794922,0.000000,4.000000,,,,0.000000,4.000000,4.000000,4.000000,4.000000,4.000000,,,,,,,,,,,,,,,,,,,,,,,,,,,,,,,,,,,,,,,,,,,,,,,,,,,,,,,,
1577420269.878588,36.000000,0.000000,4109.230957,4382.051270,4047.692383,4013.333252,4384.615234,0.000000,4.000000,,,,0.000000,4.000000,4.000000,4.000000,4.000000,4.000000,,,,,,,,,,,,,,,,,,,,,,,,,,,,,,,,24.446213,11.068598,2.731323,2.177226,6.896052,34.924629,4.657514,2.438443,3.065751,8.928045,13.553082,6.031385,2.630356,2.273616,6.073423,22.948906,3.736154,4.678351,24.612280,77.873466,13.784636,8.470762,3.000682,1.565249,4.905694
1577420269.886385,37.000000,0.000000,4084.102539,4367.179688,4025.128174,3910.769287,4360.000000,0.000000,4.000000,,,,0.000000,4.000000,4.000000,4.000000,4.000000,4.000000,,,,,,,,,,,,,,,,,,,,,,,,,,,,,,,,,,,,,,,,,,,,,,,,,,,,,,,,
1577420269.894081,38.000000,0.000000,4068.718018,4374.358887,4014.871826,4121.538574,4341.538574,0.000000,4.000000,,,,0.000000,4.000000,4.000000,4.000000,4.000000,4.000000,,,,,,,,,,,,,,,,,,,,,,,,,,,,,,,,,,,,,,,,,,,,,,,,,,,,,,,,
1577420269.901878,39.000000,0.000000,4089.230713,4381.538574,4026.666748,4214.358887,4353.333496,0.000000,4.000000,,,,0.000000,4.000000,4.000000,4.000000,4.000000,4.000000,,,,,,,,,,,,,,,,,,,,,,,,,,,,,,,,,,,,,,,,,,,,,,,,,,,,,,,,
1577420269.909574,40.000000,0.000000,4095.384521,4361.025879,4025.641113,3995.897461,4351.282227,0.000000,4.000000,,,,0.000000,4.000000,4.000000,4.000000,4.000000,4.000000,,,,,,,,,,,,,,,,,,,,,,,,,,,,,,,,,,,,,,,,,,,,,,,,,,,,,,,,
1577420269.917371,41.000000,0.000000,4085.128174,4354.871582,4011.794922,3988.718018,4333.333496,0.000000,4.000000,,,,0.000000,4.000000,4.000000,4.000000,4.000000,4.000000,,,,,,,,,,,,,,,,,,,,,,,,,,,,,,,,,,,,,,,,,,,,,,,,,,,,,,,,
1577420269.925067,42.000000,0.000000,4091.794922,4371.794922,4011.281982,4207.179688,4333.333496,0.000000,4.000000,,,,0.000000,4.000000,4.000000,4.000000,4.000000,4.000000,,,,,,,,,,,,,,,,,,,,,,,,,,,,,,,,,,,,,,,,,,,,,,,,,,,,,,,,
1577420269.932864,43.000000,0.000000,4103.077148,4364.102539,4005.128174,4135.897461,4318.461426,0.000000,4.000000,,,,0.000000,4.000000,4.000000,4.000000,4.000000,4.000000,,,,,,,,,,,,,,,,,,,,,,,,,,,,,,,,,,,,,,,,,,,,,,,,,,,,,,,,
1577420269.940561,44.000000,0.000000,4103.077148,4355.897461,3989.230713,3905.641113,4295.384766,0.000000,4.000000,,,,0.000000,4.000000,4.000000,4.000000,4.000000,4.000000,,,,,,,,,,,,,,,,,,,,,,,,,,,,,,,,,,,,,,,,,,,,,,,,,,,,,,,,
1577420269.948357,45.000000,0.000000,4111.794922,4375.384766,3990.769287,4034.871826,4298.974121,0.000000,4.000000,,,,0.000000,4.000000,4.000000,4.000000,4.000000,4.000000,,,,,,,,,,,,,,,,,,,,,,,,,,,,,,,,,,,,,,,,,,,,,,,,,,,,,,,,
1577420269.956054,46.000000,0.000000,4134.871582,4360.000000,4002.564209,4176.410156,4305.641113,0.000000,4.000000,,,,0.000000,4.000000,4.000000,4.000000,4.000000,4.000000,,,,,,,,,,,,,,,,,,,,,,,,,,,,,,,,,,,,,,,,,,,,,,,,,,,,,,,,
1577420269.963850,47.000000,0.000000,4174.358887,4335.897461,4012.820557,4027.179443,4310.769043,0.000000,4.000000,,,,0.000000,4.000000,4.000000,4.000000,4.000000,4.000000,,,,,,,,,,,,,,,,,,,,,,,,,,,,,,,,,,,,,,,,,,,,,,,,,,,,,,,,
1577420269.971547,48.000000,0.000000,4219.487305,4370.256348,4020.512939,4014.871826,4319.487305,0.000000,4.000000,,,,0.000000,4.000000,4.000000,4.000000,4.000000,4.000000,,,,,,,,,,,,,,,,,,,,,,,,,,,,,,,,,,,,,,,,,,,,,,,,,,,,,,,,
1577420269.979343,49.000000,0.000000,4241.538574,4395.384766,4016.410156,4122.563965,4311.282227,0.000000,4.000000,,,,0.000000,4.000000,4.000000,4.000000,4.000000,4.000000,,,,,,,,,,,,,,,,,,,,,,,,,,,,,,,,,,,,,,,,,,,,,,,,,,,,,,,,
1577420269.987039,50.000000,0.000000,4240.512695,4373.333496,4014.871826,4129.230957,4293.333496,0.000000,4.000000,,,,0.000000,4.000000,4.000000,4.000000,4.000000,4.000000,,,,,,,,,,,,,,,,,,,,,,,,,,,,,,,,,,,,,,,,,,,,,,,,,,,,,,,,
1577420269.994836,51.000000,0.000000,4220.000000,4373.333496,4029.230713,4093.846191,4293.333496,0.000000,4.000000,,,,0.000000,4.000000,4.000000,4.000000,4.000000,4.000000,,,,,,,,,,,,,,,,,,,,,,,,,,,,,,,,,,,,,,,,,,,,,,,,,,,,,,,,
1577420270.002532,52.000000,0.000000,4234.358887,4409.230957,4050.769287,4079.487061,4317.948730,0.000000,4.000000,,,,0.000000,4.000000,4.000000,4.000000,4.000000,4.000000,,,,,,,,,,,,,,,,,,,,,,,,,,,,,,,,27.284218,7.118563,2.081271,1.638418,3.971965,36.878113,3.399216,1.999466,2.870424,6.490107,14.833294,4.353633,2.393275,1.570783,3.321871,25.238916,3.214722,4.561036,22.352793,76.661415,12.880454,5.664168,2.469458,1.378430,3.229944
1577420270.010328,53.000000,0.000000,4332.820313,4425.128418,4070.256348,4152.820313,4337.436035,0.000000,4.000000,,,,0.000000,4.000000,4.000000,4.000000,4.000000,4.000000,,,,,,,,,,,,,,,,,,,,,,,,,,,,,,,,,,,,,,,,,,,,,,,,,,,,,,,,
1577420270.018025,54.000000,0.000000,4450.256348,4420.512695,4090.769287,4243.589844,4348.205078,0.000000,4.000000,,,,0.000000,4.000000,4.000000,4.000000,4.000000,4.000000,,,,,,,,,,,,,,,,,,,,,,,,,,,,,,,,,,,,,,,,,,,,,,,,,,,,,,,,
1577420270.025721,55.000000,0.000000,4531.794922,4418.974121,4107.692383,4162.051270,4368.205078,0.000000,4.000000,,,,0.000000,4.000000,4.000000,4.000000,4.000000,4.000000,,,,,,,,,,,,,,,,,,,,,,,,,,,,,,,,,,,,,,,,,,,,,,,,,,,,,,,,
1577420270.033518,56.000000,0.000000,4610.769043,4400.000000,4104.615234,4089.743652,4385.128418,0.000000,4.000000,,,,0.000000,4.000000,4.000000,4.000000,4.000000,4.000000,,,,,,,,,,,,,,,,,,,,,,,,,,,,,,,,,,,,,,,,,,,,,,,,,,,,,,,,
1577420270.041314,57.000000,0.000000,4664.615234,4365.641113,4092.820557,4154.358887,4380.000000,0.000000,4.000000,,,,0.000000,4.000000,4.000000,4.000000,4.000000,4.000000,,,,,,,,,,,,,,,,,,,,,,,,,,,,,,,,,,,,,,,,,,,,,,,,,,,,,,,,
1577420270.049011,58.000000,0.000000,4640.000000,4338.974121,4091.794922,4113.333496,4372.820313,0.000000,4.000000,,,,0.000000,4.000000,4.000000,4.000000,4.000000,4.000000,,,,,,,,,,,,,,,,,,,,,,,,,,,,,,,,,,,,,,,,,,,,,,,,,,,,,,,,
1577420270.056807,59.000000,0.000000,4587.179688,4332.820313,4085.641113,4051.794922,4378.974121,0.000000,4.000000,,,,0.000000,4.000000,4.000000,4.000000,4.000000,4.000000,,,,,,,,,,,,,,,,,,,,,,,,,,,,,,,,,,,,,,,,,,,,,,,,,,,,,,,,
1577420270.064503,60.000000,0.000000,4526.666504,4324.615234,4061.538574,4094.871826,4362.051270,0.000000,4.000000,,,,0.000000,4.000000,4.000000,4.000000,4.000000,4.000000,,,,,,,,,,,,,,,,,,,,,,,,,,,,,,,,,,,,,,,,,,,,,,,,,,,,,,,,
1577420270.072300,61.000000,0.000000,4428.205078,4280.000000,4044.102539,4131.794922,4342.563965,0.000000,4.000000,,,,0.000000,4.000000,4.000000,4.000000,4.000000,4.000000,,,,,,,,,,,,,,,,,,,,,,,,,,,,,,,,,,,,,,,,,,,,,,,,,,,,,,,,
1577420270.079996,62.000000,0.000000,4331.282227,4248.717773,4040.512939,4153.846191,4353.846191,0.000000,4.000000,,,,0.000000,4.000000,4.000000,4.000000,4.000000,4.000000,,,,,,,,,,,,,,,,,,,,,,,,,,,,,,,,,,,,,,,,,,,,,,,,,,,,,,,,
1577420270.087792,63.000000,0.000000,4228.205078,4263.077148,4009.230713,4100.512695,4332.820313,0.000000,4.000000,,,,0.000000,4.000000,4.000000,4.000000,4.000000,4.000000,,,,,,,,,,,,,,,,,,,,,,,,,,,,,,,,,,,,,,,,,,,,,,,,,,,,,,,,
1577420270.095489,64.000000,0.000000,4101.538574,4253.333496,3960.000000,4060.512939,4270.256348,450.000000,4.000000,,,,0.000000,4.000000,4.000000,4.000000,4.000000,4.000000,,,,,,,,,,,,,,,,,,,,,,,,,,,,,,,,,,,,,,,,,,,,,,,,,,,,,,,,
1577420270.103285,65.000000,0.000000,4061.025635,4237.948730,3953.846191,4086.666748,4252.307617,450.000000,4.000000,,,,0.000000,4.000000,4.000000,4.000000,4.000000,4.000000,,,,,,,,,,,,,,,,,,,,,,,,,,,,,,,,,,,,,,,,,,,,,,,,,,,,,,,,
1577420270.110982,66.000000,0.000000,4136.922852,4263.589844,3959.487061,4138.461426,4254.358887,16224.000000,4.000000,,,,0.000000,4.000000,4.000000,4.000000,4.000000,4.000000,,,,,,,,,,,,,,,,,,,,,,,,,,,,,,,,,,,,,,,,,,,,,,,,,,,,,,,,
1577420270.118778,67.000000,0.000000,4225.641113,4262.051270,3928.718018,4069.743652,4227.179688,450.000000,4.000000,,,,0.000000,4.000000,4.000000,4.000000,4.000000,4.000000,,,,,,,,,,,,,,,,,,,,,,,,,,,,,,,,,,,,,,,,,,,,,,,,,,,,,,,,
1577420270.126474,68.000000,0.000000,4291.282227,4229.230957,3904.102539,3937.435791,4199.487305,16182.000000,4.000000,,,,0.000000,4.000000,4.000000,4.000000,4.000000,4.000000,,,,,,,,,,,,,,,,,,,,,,,,,,,,,,,,28.625868,4.965670,1.902906,1.557709,2.562839,34.820183,2.581387,1.642115,2.782924,5.306654,14.901525,3.127388,2.307909,1.295575,1.994400,24.960524,3.031681,4.535613,21.201006,75.106308,11.480435,3.602952,2.169821,1.356616,2.403391
1577420270.134171,69.000000,0.000000,4352.307617,4262.563965,3897.948730,4069.230713,4174.871582,450.000000,4.000000,,,,0.000000,4.000000,4.000000,4.000000,4.000000,4.000000,,,,,,,,,,,,,,,,,,,,,,,,,,,,,,,,,,,,,,,,,,,,,,,,,,,,,,,,
1577420270.141967,70.000000,0.000000,4430.256348,4322.051270,3908.205078,4201.025879,4178.974121,16179.000000,4.000000,,,,0.000000,4.000000,4.000000,4.000000,4.000000,4.000000,,,,,,,,,,,,,,,,,,,,,,,,,,,,,,,,,,,,,,,,,,,,,,,,,,,,,,,,
1577420270.149664,71.000000,0.000000,4503.589844,4308.717773,3937.948730,3984.102539,4210.256348,450.000000,4.000000,,,,0.000000,4.000000,4.000000,4.000000,4.000000,4.000000,,,,,,,,,,,,,,,,,,,,,,,,,,,,,,,,,,,,,,,,,,,,,,,,,,,,,,,,
1577420270.157460,72.000000,0.000000,4546.153809,4286.153809,3957.948730,3991.794922,4227.692383,450.000000,4.000000,,,,0.000000,4.000000,4.000000,4.000000,4.000000,4.000000,,,,,,,,,,,,,,,,,,,,,,,,,,,,,,,,,,,,,,,,,,,,,,,,,,,,,,,,
1577420270.165157,73.000000,0.000000,4562.563965,4309.230957,3949.743652,4323.077148,4219.487305,16122.000000,4.000000,,,,0.000000,4.000000,4.000000,4.000000,4.000000,4.000000,,,,,,,,,,,,,,,,,,,,,,,,,,,,,,,,,,,,,,,,,,,,,,,,,,,,,,,,
1577420270.172954,74.000000,0.000000,4550.769043,4334.358887,3927.692383,4148.205078,4188.717773,450.000000,4.000000,,,,0.000000,4.000000,4.000000,4.000000,4.000000,4.000000,,,,,,,,,,,,,,,,,,,,,,,,,,,,,,,,,,,,,,,,,,,,,,,,,,,,,,,,
1577420270.180650,75.000000,0.000000,4541.025879,4338.461426,3922.051270,3862.564209,4169.230957,16206.000000,4.000000,,,,0.000000,4.000000,4.000000,4.000000,4.000000,4.000000,,,,,,,,,,,,,,,,,,,,,,,,,,,,,,,,,,,,,,,,,,,,,,,,,,,,,,,,
1577420270.188446,76.000000,0.000000,4555.384766,4307.179688,3937.948730,4125.128418,4178.974121,450.000000,4.000000,,,,0.000000,4.000000,4.000000,4.000000,4.000000,4.000000,,,,,,,,,,,,,,,,,,,,,,,,,,,,,,,,,,,,,,,,,,,,,,,,,,,,,,,,
1577420270.196143,77.000000,0.000000,4556.922852,4280.000000,3945.641113,4260.000000,4183.589844,450.000000,4.000000,,,,0.000000,4.000000,4.000000,4.000000,4.000000,4.000000,,,,,,,,,,,,,,,,,,,,,,,,,,,,,,,,,,,,,,,,,,,,,,,,,,,,,,,,
1577420270.203939,78.000000,0.000000,4533.846191,4329.743652,3939.487061,4068.718018,4164.102539,450.000000,4.000000,,,,0.000000,4.000000,4.000000,4.000000,4.000000,4.000000,,,,,,,,,,,,,,,,,,,,,,,,,,,,,,,,,,,,,,,,,,,,,,,,,,,,,,,,
1577420270.211635,79.000000,0.000000,4534.358887,4376.922852,3948.205078,4018.974365,4165.128418,16206.000000,4.000000,,,,0.000000,4.000000,4.000000,4.000000,4.000000,4.000000,,,,,,,,,,,,,,,,,,,,,,,,,,,,,,,,,,,,,,,,,,,,,,,,,,,,,,,,
1577420270.219432,80.000000,0.000000,4546.153809,4326.666504,3960.512939,4145.128418,4188.205078,450.000000,4.000000,,,,0.000000,4.000000,4.000000,4.000000,4.000000,4.000000,,,,,,,,,,,,,,,,,,,,,,,,,,,,,,,,,,,,,,,,,,,,,,,,,,,,,,,,
1577420270.227128,81.000000,0.000000,4523.589844,4313.333496,3956.923096,4109.743652,4180.512695,450.000000,4.000000,,,,0.000000,4.000000,4.000000,4.000000,4.000000,4.000000,,,,,,,,,,,,,,,,,,,,,,,,,,,,,,,,,,,,,,,,,,,,,,,,,,,,,,,,
1577420270.234924,82.000000,0.000000,4498.461426,4368.717773,3957.435791,3987.692383,4168.717773,450.000000,4.000000,,,,0.000000,4.000000,4.000000,4.000000,4.000000,4.000000,,,,,,,,,,,,,,,,,,,,,,,,,,,,,,,,,,,,,,,,,,,,,,,,,,,,,,,,
1577420270.242621,83.000000,0.000000,4503.077148,4346.666504,3961.538574,4123.589844,4185.128418,16206.000000,4.000000,,,,0.000000,4.000000,4.000000,4.000000,4.000000,4.000000,,,,,,,,,,,,,,,,,,,,,,,,,,,,,,,,,,,,,,,,,,,,,,,,,,,,,,,,
1577420270.250417,84.000000,0.000000,4509.743652,4301.538574,3952.820557,4274.358887,4189.743652,450.000000,4.000000,,,,0.000000,4.000000,4.000000,4.000000,4.000000,4.000000,,,,,,,,,,,,,,,,,,,,,,,,,,,,,,,,30.352034,4.932210,2.442508,1.870458,2.129356,29.434010,2.134354,1.402291,2.733320,4.867983,14.019854,2.201967,2.235804,1.287868,1.570233,22.394135,3.134010,4.883656,21.563713,73.123749,9.621541,2.240276,1.982305,1.468492,2.112795
1577420270.258113,85.000000,0.000000,4494.358887,4320.000000,3938.461426,4140.512695,4172.820313,450.000000,4.000000,,,,0.000000,4.000000,4.000000,4.000000,4.000000,4.000000,,,,,,,,,,,,,,,,,,,,,,,,,,,,,,,,,,,,,,,,,,,,,,,,,,,,,,,,
1577420270.265910,86.000000,0.000000,4476.922852,4331.794922,3940.000000,3998.461426,4167.692383,450.000000,4.000000,,,,0.000000,4.000000,4.000000,4.000000,4.000000,4.000000,,,,,,,,,,,,,,,,,,,,,,,,,,,,,,,,,,,,,,,,,,,,,,,,,,,,,,,,
1577420270.273606,87.000000,0.000000,4477.436035,4333.333496,3953.333252,4091.794922,4183.077148,16206.000000,4.000000,,,,0.000000,4.000000,4.000000,4.000000,4.000000,4.000000,,,,,,,,,,,,,,,,,,,,,,,,,,,,,,,,,,,,,,,,,,,,,,,,,,,,,,,,
1577420270.281303,88.000000,0.000000,4496.410156,4350.256348,3965.641113,4178.974121,4203.077148,450.000000,4.000000,,,,0.000000,4.000000,4.000000,4.000000,4.000000,4.000000,,,,,,,,,,,,,,,,,,,,,,,,,,,,,,,,,,,,,,,,,,,,,,,,,,,,,,,,
1577420270.289099,89.000000,0.000000,4506.666504,4335.897461,3963.076904,4197.948730,4210.256348,450.000000,4.000000,,,,0.000000,4.000000,4.000000,4.000000,4.000000,4.000000,,,,,,,,,,,,,,,,,,,,,,,,,,,,,,,,,,,,,,,,,,,,,,,,,,,,,,,,
1577420270.296796,90.000000,0.000000,4488.717773,4296.922852,3945.128174,4164.615234,4193.333496,450.000000,4.000000,,,,0.000000,4.000000,4.000000,4.000000,4.000000,4.000000,,,,,,,,,,,,,,,,,,,,,,,,,,,,,,,,,,,,,,,,,,,,,,,,,,,,,,,,
1577420270.304592,91.000000,0.000000,4477.436035,4291.282227,3935.384521,4105.128418,4171.794922,16206.000000,4.000000,,,,0.000000,4.000000,4.000000,4.000000,4.000000,4.000000,,,,,,,,,,,,,,,,,,,,,,,,,,,,,,,,,,,,,,,,,,,,,,,,,,,,,,,,
1577420270.312289,92.000000,0.000000,4497.436035,4317.948730,3948.205078,4163.077148,4176.922852,450.000000,4.000000,,,,0.000000,4.000000,4.000000,4.000000,4.000000,4.000000,,,,,,,,,,,,,,,,,,,,,,,,,,,,,,,,,,,,,,,,,,,,,,,,,,,,,,,,
1577420270.320086,93.000000,0.000000,4513.333496,4356.922852,3962.051270,4169.743652,4188.205078,450.000000,4.000000,,,,0.000000,4.000000,4.000000,4.000000,4.000000,4.000000,,,,,,,,,,,,,,,,,,,,,,,,,,,,,,,,,,,,,,,,,,,,,,,,,,,,,,,,
1577420270.327782,94.000000,0.000000,4504.615234,4350.256348,3962.564209,4119.487305,4173.333496,450.000000,4.000000,,,,0.000000,4.000000,4.000000,4.000000,4.000000,4.000000,,,,,,,,,,,,,,,,,,,,,,,,,,,,,,,,,,,,,,,,,,,,,,,,,,,,,,,,
1577420270.335579,95.000000,0.000000,4510.769043,4309.230957,3976.410156,4160.000000,4170.769043,16206.000000,4.000000,,,,0.000000,4.000000,4.000000,4.000000,4.000000,4.000000,,,,,,,,,,,,,,,,,,,,,,,,,,,,,,,,,,,,,,,,,,,,,,,,,,,,,,,,
1577420270.343275,96.000000,0.000000,4520.512695,4307.179688,3987.692383,4176.922852,4182.563965,450.000000,4.000000,,,,0.000000,4.000000,4.000000,4.000000,4.000000,4.000000,,,,,,,,,,,,,,,,,,,,,,,,,,,,,,,,,,,,,,,,,,,,,,,,,,,,,,,,
1577420270.351072,97.000000,0.000000,4508.717773,4358.461426,3978.974365,4086.666748,4178.461426,450.000000,4.000000,,,,0.000000,4.000000,4.000000,4.000000,4.000000,4.000000,,,,,,,,,,,,,,,,,,,,,,,,,,,,,,,,,,,,,,,,,,,,,,,,,,,,,,,,
1577420270.358769,98.000000,0.000000,4526.666504,4376.410156,3994.871826,4143.077148,4187.179688,450.000000,4.000000,,,,0.000000,4.000000,4.000000,4.000000,4.000000,4.000000,,,,,,,,,,,,,,,,,,,,,,,,,,,,,,,,,,,,,,,,,,,,,,,,,,,,,,,,
1577420270.366565,99.000000,0.000000,4536.410156,4318.461426,4002.051270,4219.487305,4184.102539,16206.000000,4.000000,,,,0.000000,4.000000,4.000000,4.000000,4.000000,4.000000,,,,,,,,,,,,,,,,,,,,,,,,,,,,,,,,,,,,,,,,,,,,,,,,,,,,,,,,
1577420270.374261,100.000000,0.000000,4482.563965,4283.077148,3960.512939,4106.666504,4141.025879,450.000000,4.000000,,,,0.000000,4.000000,4.000000,4.000000,4.000000,4.000000,,,,,,,,,,,,,,,,,,,,,,,,,,,,,,,,46.934555,11.955565,4.030742,2.499870,2.051219,23.780222,2.096232,1.265450,2.649642,4.584053,13.851077,1.591591,2.076734,1.373479,1.450720,18.504618,3.566917,5.886119,22.978518,71.264221,9.081269,1.485123,1.789869,1.670595,2.004359
1577420270.382058,101.000000,0.000000,4466.153809,4315.384766,3958.974365,4100.000000,4144.102539,450.000000,4.000000,,,,0.000000,4.000000,4.000000,4.000000,4.000000,4.000000,,,,,,,,,,,,,,,,,,,,,,,,,,,,,,,,,,,,,,,,,,,,,,,,,,,,,,,,
1577420270.389754,102.000000,0.000000,4506.153809,4345.641113,3998.461426,4192.820313,4183.589844,450.000000,4.000000,,,,0.000000,4.000000,4.000000,4.000000,4.000000,4.000000,,,,,,,,,,,,,,,,,,,,,,,,,,,,,,,,,,,,,,,,,,,,,,,,,,,,,,,,
1577420270.397451,103.000000,0.000000,4502.051270,4346.153809,3996.923096,4169.230957,4176.922852,16206.000000,4.000000,,,,0.000000,4.000000,4.000000,4.000000,4.000000,4.000000,,,,,,,,,,,,,,,,,,,,,,,,,,,,,,,,,,,,,,,,,,,,,,,,,,,,,,,,
1577420270.405247,104.000000,0.000000,4477.948730,4337.948730,3988.718018,4128.205078,4166.153809,450.000000,4.000000,,,,0.000000,4.000000,4.000000,4.000000,4.000000,4.000000,,,,,,,,,,,,,,,,,,,,,,,,,,,,,,,,,,,,,,,,,,,,,,,,,,,,,,,,
1577420270.412944,105.000000,0.000000,4480.000000,4318.461426,3999.487061,4196.410156,4178.974121,450.000000,4.000000,,,,0.000000,4.000000,4.000000,4.000000,4.000000,4.000000,,,,,,,,,,,,,,,,,,,,,,,,,,,,,,,,,,,,,,,,,,,,,,,,,,,,,,,,
1577420270.420740,106.000000,0.000000,4482.563965,4325.641113,4007.179443,4175.384766,4181.025879,450.000000,4.000000,,,,0.000000,4.000000,4.000000,4.000000,4.000000,4.000000,,,,,,,,,,,,,,,,,,,,,,,,,,,,,,,,,,,,,,,,,,,,,,,,,,,,,,,,
1577420270.428537,107.000000,0.000000,4483.077148,4361.538574,4018.974365,4103.077148,4192.307617,16206.000000,4.000000,,,,0.000000,4.000000,4.000000,4.000000,4.000000,4.000000,,,,,,,,,,,,,,,,,,,,,,,,,,,,,,,,,,,,,,,,,,,,,,,,,,,,,,,,
1577420270.436233,108.000000,0.000000,4485.641113,4355.897461,4038.461426,4195.897461,4222.051270,450.000000,4.000000,,,,0.000000,4.000000,4.000000,4.000000,4.000000,4.000000,,,,,,,,,,,,,,,,,,,,,,,,,,,,,,,,,,,,,,,,,,,,,,,,,,,,,,,,
1577420270.443930,109.000000,0.000000,4480.512695,4337.436035,4049.230713,4290.769043,4229.743652,450.000000,4.000000,,,,0.000000,4.000000,4.000000,4.000000,4.000000,4.000000,,,,,,,,,,,,,,,,,,,,,,,,,,,,,,,,,,,,,,,,,,,,,,,,,,,,,,,,
1577420270.451726,110.000000,0.000000,4458.974121,4333.333496,4040.512939,4215.384766,4213.846191,450.000000,4.000000,,,,0.000000,4.000000,4.000000,4.000000,4.000000,4.000000,,,,,,,,,,,,,,,,,,,,,,,,,,,,,,,,,,,,,,,,,,,,,,,,,,,,,,,,
1577420270.459423,111.000000,0.000000,4432.820313,4338.461426,4027.179443,4095.897461,4208.205078,16206.000000,4.000000,,,,0.000000,4.000000,4.000000,4.000000,4.000000,4.000000,,,,,,,,,,,,,,,,,,,,,,,,,,,,,,,,,,,,,,,,,,,,,,,,,,,,,,,,
1577420270.467220,112.000000,0.000000,4426.666504,4341.025879,4025.641113,4151.282227,4213.333496,450.000000,4.000000,,,,0.000000,4.000000,4.000000,4.000000,4.000000,4.000000,,,,,,,,,,,,,,,,,,,,,,,,,,,,,,,,,,,,,,,,,,,,,,,,,,,,,,,,
1577420270.474916,113.000000,0.000000,4432.820313,4338.461426,4036.410156,4262.563965,4212.820313,450.000000,4.000000,,,,0.000000,4.000000,4.000000,4.000000,4.000000,4.000000,,,,,,,,,,,,,,,,,,,,,,,,,,,,,,,,,,,,,,,,,,,,,,,,,,,,,,,,
1577420270.482713,114.000000,0.000000,4416.922852,4341.538574,4034.358887,4213.846191,4198.974121,450.000000,4.000000,,,,0.000000,4.000000,4.000000,4.000000,4.000000,4.000000,,,,,,,,,,,,,,,,,,,,,,,,,,,,,,,,,,,,,,,,,,,,,,,,,,,,,,,,
1577420270.490509,115.000000,0.000000,4400.000000,4324.102539,4025.128174,4117.436035,4190.769043,16206.000000,4.000000,,,,0.000000,4.000000,4.000000,4.000000,4.000000,4.000000,,,,,,,,,,,,,,,,,,,,,,,,,,,,,,,,,,,,,,,,,,,,,,,,,,,,,,,,
1577420270.498206,116.000000,0.000000,4413.333496,4320.000000,4032.307617,4195.384766,4203.077148,450.000000,4.000000,,,,0.000000,4.000000,4.000000,4.000000,4.000000,4.000000,,,,,,,,,,,,,,,,,,,,,,,,,,,,,,,,97.352631,33.315346,7.134464,3.402743,2.071943,21.120501,2.572091,1.197969,2.510848,4.252133,16.724630,1.363868,1.860318,1.485439,1.382093,15.171227,4.389841,7.621845,24.435492,70.968681,11.531747,1.275400,1.623749,1.924577,1.941354
1577420270.505902,117.000000,0.000000,4407.692383,4344.102539,4029.743652,4226.153809,4194.358887,450.000000,4.000000,,,,0.000000,4.000000,4.000000,4.000000,4.000000,4.000000,,,,,,,,,,,,,,,,,,,,,,,,,,,,,,,,,,,,,,,,,,,,,,,,,,,,,,,,
1577420270.513699,118.000000,0.000000,4372.307617,4311.282227,4004.102539,4112.307617,4163.589844,450.000000,4.000000,,,,0.000000,4.000000,4.000000,4.000000,4.000000,4.000000,,,,,,,,,,,,,,,,,,,,,,,,,,,,,,,,,,,,,,,,,,,,,,,,,,,,,,,,
1577420270.521395,119.000000,0.000000,4373.846191,4276.410156,4009.230713,4160.512695,4169.230957,16206.000000,4.000000,,,,0.000000,4.000000,4.000000,4.000000,4.000000,4.000000,,,,,,,,,,,,,,,,,,,,,,,,,,,,,,,,,,,,,,,,,,,,,,,,,,,,,,,,
1577420270.529192,120.000000,0.000000,4392.307617,4310.769043,4038.461426,4285.128418,4192.820313,450.000000,4.000000,,,,0.000000,4.000000,4.000000,4.000000,4.000000,4.000000,,,,,,,,,,,,,,,,,,,,,,,,,,,,,,,,,,,,,,,,,,,,,,,,,,,,,,,,
1577420270.536889,121.000000,0.000000,4370.256348,4343.077148,4046.153809,4160.512695,4189.230957,450.000000,4.000000,,,,0.000000,4.000000,4.000000,4.000000,4.000000,4.000000,,,,,,,,,,,,,,,,,,,,,,,,,,,,,,,,,,,,,,,,,,,,,,,,,,,,,,,,
1577420270.544685,122.000000,0.000000,4354.358887,4332.820313,4054.358887,4094.358887,4193.846191,450.000000,4.000000,,,,0.000000,4.000000,4.000000,4.000000,4.000000,4.000000,,,,,,,,,,,,,,,,,,,,,,,,,,,,,,,,,,,,,,,,,,,,,,,,,,,,,,,,
1577420270.552482,123.000000,0.000000,4342.051270,4294.358887,4050.769287,4262.563965,4191.794922,16206.000000,4.000000,,,,0.000000,4.000000,4.000000,4.000000,4.000000,4.000000,,,,,,,,,,,,,,,,,,,,,,,,,,,,,,,,,,,,,,,,,,,,,,,,,,,,,,,,
1577420270.560178,124.000000,0.000000,4298.461426,4258.974121,4022.564209,4218.974121,4154.871582,450.000000,4.000000,,,,0.000000,4.000000,4.000000,4.000000,4.000000,4.000000,,,,,,,,,,,,,,,,,,,,,,,,,,,,,,,,,,,,,,,,,,,,,,,,,,,,,,,,
1577420270.567874,125.000000,0.000000,4296.410156,4287.179688,4037.948730,4107.692383,4162.051270,450.000000,4.000000,,,,0.000000,4.000000,4.000000,4.000000,4.000000,4.000000,,,,,,,,,,,,,,,,,,,,,,,,,,,,,,,,,,,,,,,,,,,,,,,,,,,,,,,,
1577420270.575671,126.000000,0.000000,4334.871582,4346.153809,4086.666748,4284.102539,4213.846191,450.000000,4.000000,,,,0.000000,4.000000,4.000000,4.000000,4.000000,4.000000,,,,,,,,,,,,,,,,,,,,,,,,,,,,,,,,,,,,,,,,,,,,,,,,,,,,,,,,
1577420270.583367,127.000000,0.000000,4325.128418,4332.307617,4089.743652,4320.000000,4213.333496,236.000000,4.000000,,,,0.000000,4.000000,4.000000,4.000000,4.000000,4.000000,,,,,,,,,,,,,,,,,,,,,,,,,,,,,,,,,,,,,,,,,,,,,,,,,,,,,,,,
1577420270.591064,0.000000,0.000000,4280.000000,4279.487305,4054.871826,4088.205078,4172.820313,450.000000,4.000000,,,,0.000000,4.000000,4.000000,4.000000,4.000000,4.000000,,,,,,,,,,,,,,,,,,,,,,,,,,,,,,,,,,,,,,,,,,,,,,,,,,,,,,,,
1577420270.598860,1.000000,0.000000,4264.615234,4291.282227,4042.564209,4104.615234,4161.025879,450.000000,4.000000,,,,0.000000,4.000000,4.000000,4.000000,4.000000,4.000000,,,,,,,,,,,,,,,,,,,,,,,,,,,,,,,,,,,,,,,,,,,,,,,,,,,,,,,,
1577420270.606557,2.000000,0.000000,4272.820313,4316.410156,4054.871826,4308.717773,4173.846191,16212.000000,4.000000,,,,0.000000,4.000000,4.000000,4.000000,4.000000,4.000000,,,,,,,,,,,,,,,,,,,,,,,,,,,,,,,,,,,,,,,,,,,,,,,,,,,,,,,,
1577420270.614353,3.000000,0.000000,4284.102539,4305.641113,4067.692383,4248.717773,4194.871582,450.000000,4.000000,,,,0.000000,4.000000,4.000000,4.000000,4.000000,4.000000,,,,,,,,,,,,,,,,,,,,,,,,,,,,,,,,,,,,,,,,,,,,,,,,,,,,,,,,
1577420270.622050,4.000000,0.000000,4300.000000,4319.487305,4084.102539,4089.230713,4204.615234,16176.000000,4.000000,,,,0.000000,4.000000,4.000000,4.000000,4.000000,4.000000,,,,,,,,,,,,,,,,,,,,,,,,,,,,,,,,192.264084,72.332741,11.673285,4.475275,2.171764,23.448837,3.495376,1.186149,2.351815,3.976517,23.712904,1.485557,1.684012,1.629809,1.345836,13.710113,5.489274,9.784143,25.078762,73.437370,17.661953,1.542726,1.584845,2.187382,1.925955
1577420270.629847,5.000000,0.000000,4309.743652,4349.743652,4098.461426,4203.589844,4200.512695,450.000000,4.000000,,,,0.000000,4.000000,4.000000,4.000000,4.000000,4.000000,,,,,,,,,,,,,,,,,,,,,,,,,,,,,,,,,,,,,,,,,,,,,,,,,,,,,,,,
1577420270.637543,6.000000,0.000000,4297.948730,4328.205078,4095.897461,4325.641113,4200.512695,16159.000000,4.000000,,,,0.000000,4.000000,4.000000,4.000000,4.000000,4.000000,,,,,,,,,,,,,,,,,,,,,,,,,,,,,,,,,,,,,,,,,,,,,,,,,,,,,,,,
1577420270.645340,7.000000,0.000000,4283.077148,4307.692383,4086.153809,4212.307617,4201.025879,450.000000,4.000000,,,,0.000000,4.000000,4.000000,4.000000,4.000000,4.000000,,,,,,,,,,,,,,,,,,,,,,,,,,,,,,,,,,,,,,,,,,,,,,,,,,,,,,,,
1577420270.653036,8.000000,0.000000,4294.871582,4322.563965,4092.820557,4203.589844,4206.666504,450.000000,4.000000,,,,0.000000,4.000000,4.000000,4.000000,4.000000,4.000000,,,,,,,,,,,,,,,,,,,,,,,,,,,,,,,,,,,,,,,,,,,,,,,,,,,,,,,,
1577420270.660833,9.000000,0.000000,4302.051270,4315.384766,4100.000000,4272.307617,4206.666504,16130.000000,4.000000,,,,0.000000,4.000000,4.000000,4.000000,4.000000,4.000000,,,,,,,,,,,,,,,,,,,,,,,,,,,,,,,,,,,,,,,,,,,,,,,,,,,,,,,,
1577420270.668530,10.000000,0.000000,4271.794922,4307.179688,4081.538574,4168.205078,4178.974121,450.000000,4.000000,,,,0.000000,4.000000,4.000000,4.000000,4.000000,4.000000,,,,,,,,,,,,,,,,,,,,,,,,,,,,,,,,,,,,,,,,,,,,,,,,,,,,,,,,
1577420270.676326,11.000000,0.000000,4262.563965,4306.666504,4075.897461,4157.436035,4169.230957,16199.000000,4.000000,,,,0.000000,4.000000,4.000000,4.000000,4.000000,4.000000,,,,,,,,,,,,,,,,,,,,,,,,,,,,,,,,,,,,,,,,,,,,,,,,,,,,,,,,
1577420270.684023,12.000000,0.000000,4276.410156,4292.820313,4088.205078,4307.179688,4173.846191,450.000000,4.000000,,,,0.000000,4.000000,4.000000,4.000000,4.000000,4.000000,,,,,,,,,,,,,,,,,,,,,,,,,,,,,,,,,,,,,,,,,,,,,,,,,,,,,,,,
1577420270.691719,13.000000,0.000000,4262.563965,4310.769043,4082.564209,4207.179688,4157.436035,450.000000,4.000000,,,,0.000000,4.000000,4.000000,4.000000,4.000000,4.000000,,,,,,,,,,,,,,,,,,,,,,,,,,,,,,,,,,,,,,,,,,,,,,,,,,,,,,,,
1577420270.699516,14.000000,0.000000,4264.615234,4332.307617,4088.205078,4077.948730,4161.025879,450.000000,4.000000,,,,0.000000,4.000000,4.000000,4.000000,4.000000,4.000000,,,,,,,,,,,,,,,,,,,,,,,,,,,,,,,,,,,,,,,,,,,,,,,,,,,,,,,,
1577420270.707212,15.000000,0.000000,4276.410156,4301.538574,4094.871826,4178.461426,4168.717773,16199.000000,4.000000,,,,0.000000,4.000000,4.000000,4.000000,4.000000,4.000000,,,,,,,,,,,,,,,,,,,,,,,,,,,,,,,,,,,,,,,,,,,,,,,,,,,,,,,,
1577420270.715009,16.000000,0.000000,4258.461426,4284.615234,4077.435791,4188.205078,4148.205078,0.000000,4.000000,,,,0.000000,4.000000,4.000000,4.000000,4.000000,4.000000,,,,,,,,,,,,,,,,,,,,,,,,,,,,,,,,,,,,,,,,,,,,,,,,,,,,,,,,
1577420270.722706,17.000000,0.000000,4265.128418,4304.615234,4089.230713,4182.051270,4160.512695,0.000000,4.000000,,,,0.000000,4.000000,4.000000,4.000000,4.000000,4.000000,,,,,,,,,,,,,,,,,,,,,,,,,,,,,,,,,,,,,,,,,,,,,,,,,,,,,,,,
1577420270.730502,18.000000,0.000000,4293.846191,4299.487305,4122.051270,4251.282227,4193.333496,0.000000,4.000000,,,,0.000000,4.000000,4.000000,4.000000,4.000000,4.000000,,,,,,,,,,,,,,,,,,,,,,,,,,,,,,,,,,,,,,,,,,,,,,,,,,,,,,,,
1577420270.738199,19.000000,0.000000,4288.205078,4322.051270,4116.922852,4241.025879,4181.538574,0.000000,4.000000,,,,0.000000,4.000000,4.000000,4.000000,4.000000,4.000000,,,,,,,,,,,,,,,,,,,,,,,,,,,,,,,,,,,,,,,,,,,,,,,,,,,,,,,,
1577420270.745995,20.000000,0.000000,4284.615234,4343.077148,4110.256348,4250.769043,4175.384766,0.000000,4.000000,,,,0.000000,4.000000,4.000000,4.000000,4.000000,4.000000,,,,,,,,,,,,,,,,,,,,,,,,,,,,,,,,320.239655,124.012749,16.822664,5.486105,2.310918,29.924313,4.599737,1.228186,2.225276,3.889749,33.543175,1.828971,1.622397,1.797242,1.323517,14.162805,6.520599,11.763403,24.574976,78.427704,26.298130,2.124215,1.729069,2.402924,1.937185
1577420270.753692,21.000000,0.000000,4305.641113,4289.743652,4127.692383,4230.256348,4201.538574,0.000000,4.000000,,,,0.000000,4.000000,4.000000,4.000000,4.000000,4.000000,,,,,,,,,,,,,,,,,,,,,,,,,,,,,,,,,,,,,,,,,,,,,,,,,,,,,,,,
1577420270.761488,22.000000,0.000000,4301.025879,4284.102539,4124.615234,4091.281982,4192.820313,0.000000,4.000000,,,,0.000000,4.000000,4.000000,4.000000,4.000000,4.000000,,,,,,,,,,,,,,,,,,,,,,,,,,,,,,,,,,,,,,,,,,,,,,,,,,,,,,,,
1577420270.769185,23.000000,0.000000,4278.461426,4329.230957,4109.230957,4160.000000,4165.641113,0.000000,4.000000,,,,0.000000,4.000000,4.000000,4.000000,4.000000,4.000000,,,,,,,,,,,,,,,,,,,,,,,,,,,,,,,,,,,,,,,,,,,,,,,,,,,,,,,,
1577420270.776982,24.000000,0.000000,4282.563965,4302.563965,4117.948730,4332.307617,4174.871582,0.000000,4.000000,,,,0.000000,4.000000,4.000000,4.000000,4.000000,4.000000,,,,,,,,,,,,,,,,,,,,,,,,,,,,,,,,,,,,,,,,,,,,,,,,,,,,,,,,
1577420270.784678,25.000000,0.000000,4308.717773,4276.410156,4136.410156,4224.615234,4198.461426,0.000000,4.000000,,,,0.000000,4.000000,4.000000,4.000000,4.000000,4.000000,,,,,,,,,,,,,,,,,,,,,,,,,,,,,,,,,,,,,,,,,,,,,,,,,,,,,,,,
1577420270.792475,26.000000,0.000000,4317.436035,4307.179688,4138.461426,4161.538574,4206.666504,0.000000,4.000000,,,,0.000000,4.000000,4.000000,4.000000,4.000000,4.000000,,,,,,,,,,,,,,,,,,,,,,,,,,,,,,,,,,,,,,,,,,,,,,,,,,,,,,,,
1577420270.800171,27.000000,0.000000,4306.153809,4315.897461,4130.769043,4249.743652,4201.025879,0.000000,4.000000,,,,0.000000,4.000000,4.000000,4.000000,4.000000,4.000000,,,,,,,,,,,,,,,,,,,,,,,,,,,,,,,,,,,,,,,,,,,,,,,,,,,,,,,,
1577420270.807968,28.000000,0.000000,4295.384766,4288.717773,4123.589844,4206.666504,4186.153809,0.000000,4.000000,,,,0.000000,4.000000,4.000000,4.000000,4.000000,4.000000,,,,,,,,,,,,,,,,,,,,,,,,,,,,,,,,,,,,,,,,,,,,,,,,,,,,,,,,
1577420270.815665,29.000000,0.000000,4284.615234,4266.153809,4115.897461,4170.769043,4170.769043,0.000000,4.000000,,,,0.000000,4.000000,4.000000,4.000000,4.000000,4.000000,,,,,,,,,,,,,,,,,,,,,,,,,,,,,,,,,,,,,,,,,,,,,,,,,,,,,,,,
1577420270.823361,30.000000,0.000000,4281.538574,4272.307617,4113.333496,4177.436035,4165.641113,0.000000,4.000000,,,,0.000000,4.000000,4.000000,4.000000,4.000000,4.000000,,,,,,,,,,,,,,,,,,,,,,,,,,,,,,,,,,,,,,,,,,,,,,,,,,,,,,,,
1577420270.831158,31.000000,0.000000,4309.230957,4308.717773,4134.358887,4183.589844,4189.230957,0.000000,4.000000,,,,0.000000,4.000000,4.000000,4.000000,4.000000,4.000000,,,,,,,,,,,,,,,,,,,,,,,,,,,,,,,,,,,,,,,,,,,,,,,,,,,,,,,,
1577420270.838954,32.000000,0.000000,4346.153809,4313.333496,4165.641113,4297.436035,4220.512695,0.000000,4.000000,,,,0.000000,4.000000,4.000000,4.000000,4.000000,4.000000,,,,,,,,,,,,,,,,,,,,,,,,,,,,,,,,,,,,,,,,,,,,,,,,,,,,,,,,
1577420270.846651,33.000000,0.000000,4348.205078,4288.717773,4170.769043,4257.436035,4216.922852,0.000000,4.000000,,,,0.000000,4.000000,4.000000,4.000000,4.000000,4.000000,,,,,,,,,,,,,,,,,,,,,,,,,,,,,,,,,,,,,,,,,,,,,,,,,,,,,,,,
1577420270.854348,34.000000,0.000000,4343.589844,4320.512695,4168.205078,4165.641113,4213.333496,0.000000,4.000000,,,,0.000000,4.000000,4.000000,4.000000,4.000000,4.000000,,,,,,,,,,,,,,,,,,,,,,,,,,,,,,,,,,,,,,,,,,,,,,,,,,,,,,,,
1577420270.862144,35.000000,0.000000,4331.794922,4321.025879,4167.692383,4271.282227,4216.410156,0.000000,4.000000,,,,0.000000,4.000000,4.000000,4.000000,4.000000,4.000000,,,,,,,,,,,,,,,,,,,,,,,,,,,,,,,,,,,,,,,,,,,,,,,,,,,,,,,,
1577420270.869841,36.000000,0.000000,4297.436035,4268.205078,4160.000000,4207.692383,4196.922852,0.000000,4.000000,,,,0.000000,4.000000,4.000000,4.000000,4.000000,4.000000,,,,,,,,,,,,,,,,,,,,,,,,,,,,,,,,448.519562,175.238983,21.116989,6.157520,2.432646,37.370914,5.510466,1.332602,2.192010,4.061092,43.214203,2.249773,1.675288,1.974992,1.295489,15.621969,7.187301,12.891303,23.418968,84.328430,34.961033,2.842276,2.009247,2.528297,1.943935
1577420270.877637,37.000000,0.000000,4291.282227,4285.641113,4176.410156,4117.948730,4201.025879,0.000000,4.000000,,,,0.000000,4.000000,4.000000,4.000000,4.000000,4.000000,,,,,,,,,,,,,,,,,,,,,,,,,,,,,,,,,,,,,,,,,,,,,,,,,,,,,,,,
1577420270.885334,38.000000,0.000000,4295.897461,4322.563965,4192.307617,4335.897461,4223.077148,0.000000,4.000000,,,,0.000000,4.000000,4.000000,4.000000,4.000000,4.000000,,,,,,,,,,,,,,,,,,,,,,,,,,,,,,,,,,,,,,,,,,,,,,,,,,,,,,,,
1577420270.893130,39.000000,0.000000,4277.948730,4306.666504,4183.589844,4345.128418,4218.974121,0.000000,4.000000,,,,0.000000,4.000000,4.000000,4.000000,4.000000,4.000000,,,,,,,,,,,,,,,,,,,,,,,,,,,,,,,,,,,,,,,,,,,,,,,,,,,,,,,,
1577420270.900827,40.000000,0.000000,4278.974121,4309.230957,4190.769043,4125.641113,4218.461426,0.000000,4.000000,,,,0.000000,4.000000,4.000000,4.000000,4.000000,4.000000,,,,,,,,,,,,,,,,,,,,,,,,,,,,,,,,,,,,,,,,,,,,,,,,,,,,,,,,
1577420270.908624,41.000000,0.000000,4282.051270,4309.743652,4191.282227,4202.051270,4222.563965,0.000000,4.000000,,,,0.000000,4.000000,4.000000,4.000000,4.000000,4.000000,,,,,,,,,,,,,,,,,,,,,,,,,,,,,,,,,,,,,,,,,,,,,,,,,,,,,,,,
1577420270.916320,42.000000,0.000000,4249.230957,4267.692383,4155.897461,4249.230957,4198.974121,0.000000,4.000000,,,,0.000000,4.000000,4.000000,4.000000,4.000000,4.000000,,,,,,,,,,,,,,,,,,,,,,,,,,,,,,,,,,,,,,,,,,,,,,,,,,,,,,,,
1577420270.924117,43.000000,0.000000,4233.846191,4265.641113,4139.487305,4163.589844,4180.000000,0.000000,4.000000,,,,0.000000,4.000000,4.000000,4.000000,4.000000,4.000000,,,,,,,,,,,,,,,,,,,,,,,,,,,,,,,,,,,,,,,,,,,,,,,,,,,,,,,,
1577420270.931813,44.000000,0.000000,4261.025879,4291.794922,4157.948730,4254.358887,4197.436035,0.000000,4.000000,,,,0.000000,4.000000,4.000000,4.000000,4.000000,4.000000,,,,,,,,,,,,,,,,,,,,,,,,,,,,,,,,,,,,,,,,,,,,,,,,,,,,,,,,
1577420270.939610,45.000000,0.000000,4268.717773,4281.025879,4158.974121,4287.179688,4201.025879,0.000000,4.000000,,,,0.000000,4.000000,4.000000,4.000000,4.000000,4.000000,,,,,,,,,,,,,,,,,,,,,,,,,,,,,,,,,,,,,,,,,,,,,,,,,,,,,,,,
1577420270.947306,46.000000,0.000000,4245.641113,4277.948730,4139.487305,4156.410156,4178.461426,0.000000,4.000000,,,,0.000000,4.000000,4.000000,4.000000,4.000000,4.000000,,,,,,,,,,,,,,,,,,,,,,,,,,,,,,,,,,,,,,,,,,,,,,,,,,,,,,,,
1577420270.955103,47.000000,0.000000,4257.948730,4291.794922,4150.769043,4169.743652,4190.769043,0.000000,4.000000,,,,0.000000,4.000000,4.000000,4.000000,4.000000,4.000000,,,,,,,,,,,,,,,,,,,,,,,,,,,,,,,,,,,,,,,,,,,,,,,,,,,,,,,,
1577420270.962899,48.000000,0.000000,4295.897461,4305.128418,4185.128418,4245.641113,4229.230957,0.000000,4.000000,,,,0.000000,4.000000,4.000000,4.000000,4.000000,4.000000,,,,,,,,,,,,,,,,,,,,,,,,,,,,,,,,,,,,,,,,,,,,,,,,,,,,,,,,
1577420270.970596,49.000000,0.000000,4292.307617,4304.102539,4184.102539,4207.692383,4230.256348,0.000000,4.000000,,,,0.000000,4.000000,4.000000,4.000000,4.000000,4.000000,,,,,,,,,,,,,,,,,,,,,,,,,,,,,,,,,,,,,,,,,,,,,,,,,,,,,,,,
1577420270.978293,50.000000,0.000000,4267.179688,4276.410156,4163.589844,4235.897461,4199.487305,0.000000,4.000000,,,,0.000000,4.000000,4.000000,4.000000,4.000000,4.000000,,,,,,,,,,,,,,,,,,,,,,,,,,,,,,,,,,,,,,,,,,,,,,,,,,,,,,,,
1577420270.986089,51.000000,0.000000,4262.051270,4267.179688,4158.974121,4289.230957,4189.230957,0.000000,4.000000,,,,0.000000,4.000000,4.000000,4.000000,4.000000,4.000000,,,,,,,,,,,,,,,,,,,,,,,,,,,,,,,,,,,,,,,,,,,,,,,,,,,,,,,,
1577420270.993786,52.000000,0.000000,4276.410156,4299.487305,4168.205078,4192.307617,4215.897461,0.000000,4.000000,,,,0.000000,4.000000,4.000000,4.000000,4.000000,4.000000,,,,,,,,,,,,,,,,,,,,,,,,,,,,,,,,535.088074,209.634308,23.143572,6.295221,2.488177,42.287754,5.888694,1.453282,2.287909,4.454761,49.070477,2.639957,1.784134,2.149171,1.255579,16.566389,7.379271,12.802530,22.374037,88.987717,40.651974,3.560427,2.299886,2.555424,1.928247
1577420271.001482,53.000000,0.000000,4304.615234,4320.000000,4185.641113,4141.538574,4248.205078,0.000000,4.000000,,,,0.000000,4.000000,4.000000,4.000000,4.000000,4.000000,,,,,,,,,,,,,,,,,,,,,,,,,,,,,,,,,,,,,,,,,,,,,,,,,,,,,,,,
1577420271.009279,54.000000,0.000000,4320.000000,4303.077148,4185.641113,4297.436035,4251.282227,0.000000,4.000000,,,,0.000000,4.000000,4.000000,4.000000,4.000000,4.000000,,,,,,,,,,,,,,,,,,,,,,,,,,,,,,,,,,,,,,,,,,,,,,,,,,,,,,,,
1577420271.016975,55.000000,0.000000,4307.179688,4283.589844,4161.025879,4394.358887,4235.897461,0.000000,4.000000,,,,0.000000,4.000000,4.000000,4.000000,4.000000,4.000000,,,,,,,,,,,,,,,,,,,,,,,,,,,,,,,,,,,,,,,,,,,,,,,,,,,,,,,,
1577420271.024772,56.000000,0.000000,4297.948730,4267.179688,4147.692383,4249.743652,4232.307617,0.000000,4.000000,,,,0.000000,4.000000,4.000000,4.000000,4.000000,4.000000,,,,,,,,,,,,,,,,,,,,,,,,,,,,,,,,,,,,,,,,,,,,,,,,,,,,,,,,
1577420271.032569,57.000000,0.000000,4290.256348,4254.871582,4140.512695,4118.974121,4222.051270,0.000000,4.000000,,,,0.000000,4.000000,4.000000,4.000000,4.000000,4.000000,,,,,,,,,,,,,,,,,,,,,,,,,,,,,,,,,,,,,,,,,,,,,,,,,,,,,,,,
1577420271.040265,58.000000,0.000000,4282.051270,4265.641113,4129.743652,4181.025879,4204.615234,0.000000,4.000000,,,,0.000000,4.000000,4.000000,4.000000,4.000000,4.000000,,,,,,,,,,,,,,,,,,,,,,,,,,,,,,,,,,,,,,,,,,,,,,,,,,,,,,,,
1577420271.048062,59.000000,0.000000,4290.769043,4282.051270,4131.282227,4271.794922,4210.769043,0.000000,4.000000,,,,0.000000,4.000000,4.000000,4.000000,4.000000,4.000000,,,,,,,,,,,,,,,,,,,,,,,,,,,,,,,,,,,,,,,,,,,,,,,,,,,,,,,,
1577420271.055758,60.000000,0.000000,4292.307617,4274.358887,4127.179688,4227.179688,4216.410156,0.000000,4.000000,,,,0.000000,4.000000,4.000000,4.000000,4.000000,4.000000,,,,,,,,,,,,,,,,,,,,,,,,,,,,,,,,,,,,,,,,,,,,,,,,,,,,,,,,
1577420271.063555,61.000000,0.000000,4280.512695,4258.461426,4113.333496,4225.128418,4199.487305,0.000000,4.000000,,,,0.000000,4.000000,4.000000,4.000000,4.000000,4.000000,,,,,,,,,,,,,,,,,,,,,,,,,,,,,,,,,,,,,,,,,,,,,,,,,,,,,,,,
1577420271.071251,62.000000,0.000000,4286.153809,4270.769043,4117.948730,4230.256348,4204.615234,0.000000,4.000000,,,,0.000000,4.000000,4.000000,4.000000,4.000000,4.000000,,,,,,,,,,,,,,,,,,,,,,,,,,,,,,,,,,,,,,,,,,,,,,,,,,,,,,,,
1577420271.079048,63.000000,0.000000,4313.333496,4303.077148,4146.153809,4148.717773,4238.461426,0.000000,4.000000,,,,0.000000,4.000000,4.000000,4.000000,4.000000,4.000000,,,,,,,,,,,,,,,,,,,,,,,,,,,,,,,,,,,,,,,,,,,,,,,,,,,,,,,,
1577420271.086745,64.000000,0.000000,4320.512695,4295.897461,4160.000000,4267.692383,4245.641113,450.000000,4.000000,,,,0.000000,4.000000,4.000000,4.000000,4.000000,4.000000,,,,,,,,,,,,,,,,,,,,,,,,,,,,,,,,,,,,,,,,,,,,,,,,,,,,,,,,
1577420271.094441,65.000000,0.000000,4300.512695,4267.179688,4142.051270,4448.717773,4224.615234,450.000000,4.000000,,,,0.000000,4.000000,4.000000,4.000000,4.000000,4.000000,,,,,,,,,,,,,,,,,,,,,,,,,,,,,,,,,,,,,,,,,,,,,,,,,,,,,,,,
1577420271.102238,66.000000,0.000000,4289.230957,4289.743652,4130.256348,4242.051270,4218.461426,16212.000000,4.000000,,,,0.000000,4.000000,4.000000,4.000000,4.000000,4.000000,,,,,,,,,,,,,,,,,,,,,,,,,,,,,,,,,,,,,,,,,,,,,,,,,,,,,,,,
1577420271.110034,67.000000,0.000000,4305.128418,4322.563965,4151.794922,4080.512939,4240.000000,450.000000,4.000000,,,,0.000000,4.000000,4.000000,4.000000,4.000000,4.000000,,,,,,,,,,,,,,,,,,,,,,,,,,,,,,,,,,,,,,,,,,,,,,,,,,,,,,,,
1577420271.117731,68.000000,0.000000,4313.846191,4309.230957,4169.230957,4285.128418,4246.153809,16201.000000,4.000000,,,,0.000000,4.000000,4.000000,4.000000,4.000000,4.000000,,,,,,,,,,,,,,,,,,,,,,,,,,,,,,,,548.013489,214.960464,22.197884,5.891045,2.458191,42.229683,5.549861,1.516846,2.505670,4.950104,48.415768,2.927636,1.861039,2.314776,1.215935,16.112110,7.217853,11.589678,22.049913,90.673103,41.609245,4.115372,2.456582,2.525632,1.896586
1577420271.125428,69.000000,0.000000,4293.846191,4280.000000,4154.871582,4321.025879,4223.077148,450.000000,4.000000,,,,0.000000,4.000000,4.000000,4.000000,4.000000,4.000000,,,,,,,,,,,,,,,,,,,,,,,,,,,,,,,,,,,,,,,,,,,,,,,,,,,,,,,,
1577420271.133124,70.000000,0.000000,4287.692383,4280.512695,4150.769043,4253.333496,4218.461426,16172.000000,4.000000,,,,0.000000,4.000000,4.000000,4.000000,4.000000,4.000000,,,,,,,,,,,,,,,,,,,,,,,,,,,,,,,,,,,,,,,,,,,,,,,,,,,,,,,,
1577420271.140921,71.000000,0.000000,4299.487305,4317.948730,4163.077148,4261.025879,4227.179688,450.000000,4.000000,,,,0.000000,4.000000,4.000000,4.000000,4.000000,4.000000,,,,,,,,,,,,,,,,,,,,,,,,,,,,,,,,,,,,,,,,,,,,,,,,,,,,,,,,
1577420271.148717,72.000000,0.000000,4291.282227,4327.692383,4166.153809,4136.410156,4223.077148,450.000000,4.000000,,,,0.000000,4.000000,4.000000,4.000000,4.000000,4.000000,,,,,,,,,,,,,,,,,,,,,,,,,,,,,,,,,,,,,,,,,,,,,,,,,,,,,,,,
1577420271.156414,73.000000,0.000000,4283.077148,4276.922852,4166.153809,4236.922852,4225.641113,16120.000000,4.000000,,,,0.000000,4.000000,4.000000,4.000000,4.000000,4.000000,,,,,,,,,,,,,,,,,,,,,,,,,,,,,,,,,,,,,,,,,,,,,,,,,,,,,,,,
1577420271.164210,74.000000,0.000000,4297.948730,4255.384766,4166.153809,4430.769043,4243.077148,450.000000,4.000000,,,,0.000000,4.000000,4.000000,4.000000,4.000000,4.000000,,,,,,,,,,,,,,,,,,,,,,,,,,,,,,,,,,,,,,,,,,,,,,,,,,,,,,,,
1577420271.171907,75.000000,0.000000,4305.641113,4312.307617,4155.897461,4196.410156,4254.871582,16212.000000,4.000000,,,,0.000000,4.000000,4.000000,4.000000,4.000000,4.000000,,,,,,,,,,,,,,,,,,,,,,,,,,,,,,,,,,,,,,,,,,,,,,,,,,,,,,,,
1577420271.179704,76.000000,0.000000,4300.000000,4315.384766,4147.179688,4096.922852,4251.794922,450.000000,4.000000,,,,0.000000,4.000000,4.000000,4.000000,4.000000,4.000000,,,,,,,,,,,,,,,,,,,,,,,,,,,,,,,,,,,,,,,,,,,,,,,,,,,,,,,,
1577420271.187400,77.000000,0.000000,4290.769043,4263.589844,4145.128418,4391.282227,4241.538574,450.000000,4.000000,,,,0.000000,4.000000,4.000000,4.000000,4.000000,4.000000,,,,,,,,,,,,,,,,,,,,,,,,,,,,,,,,,,,,,,,,,,,,,,,,,,,,,,,,
1577420271.195197,78.000000,0.000000,4285.128418,4276.922852,4145.641113,4304.102539,4240.512695,450.000000,4.000000,,,,0.000000,4.000000,4.000000,4.000000,4.000000,4.000000,,,,,,,,,,,,,,,,,,,,,,,,,,,,,,,,,,,,,,,,,,,,,,,,,,,,,,,,
1577420271.202893,79.000000,0.000000,4282.563965,4289.743652,4145.641113,4040.000000,4239.487305,16212.000000,4.000000,,,,0.000000,4.000000,4.000000,4.000000,4.000000,4.000000,,,,,,,,,,,,,,,,,,,,,,,,,,,,,,,,,,,,,,,,,,,,,,,,,,,,,,,,
1577420271.210690,80.000000,0.000000,4272.820313,4262.563965,4132.820313,4257.948730,4227.179688,450.000000,4.000000,,,,0.000000,4.000000,4.000000,4.000000,4.000000,4.000000,,,,,,,,,,,,,,,,,,,,,,,,,,,,,,,,,,,,,,,,,,,,,,,,,,,,,,,,
1577420271.218386,81.000000,0.000000,4250.769043,4253.846191,4108.717773,4420.000000,4211.282227,450.000000,4.000000,,,,0.000000,4.000000,4.000000,4.000000,4.000000,4.000000,,,,,,,,,,,,,,,,,,,,,,,,,,,,,,,,,,,,,,,,,,,,,,,,,,,,,,,,
1577420271.226183,82.000000,0.000000,4222.563965,4250.256348,4088.205078,4169.743652,4190.769043,450.000000,4.000000,,,,0.000000,4.000000,4.000000,4.000000,4.000000,4.000000,,,,,,,,,,,,,,,,,,,,,,,,,,,,,,,,,,,,,,,,,,,,,,,,,,,,,,,,
1577420271.233880,83.000000,0.000000,4211.282227,4247.179688,4090.769287,4091.281982,4179.487305,16212.000000,4.000000,,,,0.000000,4.000000,4.000000,4.000000,4.000000,4.000000,,,,,,,,,,,,,,,,,,,,,,,,,,,,,,,,,,,,,,,,,,,,,,,,,,,,,,,,
1577420271.241676,84.000000,0.000000,4210.256348,4234.358887,4097.948730,4295.897461,4181.025879,450.000000,4.000000,,,,0.000000,4.000000,4.000000,4.000000,4.000000,4.000000,,,,,,,,,,,,,,,,,,,,,,,,,,,,,,,,482.138672,189.292847,18.513294,5.144777,2.353595,37.212006,4.712134,1.471429,2.805048,5.378306,41.687675,3.160252,1.836266,2.476579,1.195092,14.247517,7.073505,9.742102,22.784431,88.777153,37.280270,4.417290,2.388793,2.520861,1.866584
1577420271.249373,85.000000,0.000000,4198.461426,4201.538574,4078.974365,4256.922852,4176.410156,450.000000,4.000000,,,,0.000000,4.000000,4.000000,4.000000,4.000000,4.000000,,,,,,,,,,,,,,,,,,,,,,,,,,,,,,,,,,,,,,,,,,,,,,,,,,,,,,,,
1577420271.257069,86.000000,0.000000,4174.358887,4184.102539,4054.871826,4080.000000,4154.871582,450.000000,4.000000,,,,0.000000,4.000000,4.000000,4.000000,4.000000,4.000000,,,,,,,,,,,,,,,,,,,,,,,,,,,,,,,,,,,,,,,,,,,,,,,,,,,,,,,,
1577420271.264866,87.000000,0.000000,4144.102539,4192.820313,4042.051270,4163.077148,4126.153809,16212.000000,4.000000,,,,0.000000,4.000000,4.000000,4.000000,4.000000,4.000000,,,,,,,,,,,,,,,,,,,,,,,,,,,,,,,,,,,,,,,,,,,,,,,,,,,,,,,,
1577420271.272563,88.000000,0.000000,4145.641113,4182.051270,4047.179443,4238.461426,4124.615234,450.000000,4.000000,,,,0.000000,4.000000,4.000000,4.000000,4.000000,4.000000,,,,,,,,,,,,,,,,,,,,,,,,,,,,,,,,,,,,,,,,,,,,,,,,,,,,,,,,
1577420271.280359,89.000000,0.000000,4173.333496,4177.948730,4068.205078,4131.282227,4143.077148,450.000000,4.000000,,,,0.000000,4.000000,4.000000,4.000000,4.000000,4.000000,,,,,,,,,,,,,,,,,,,,,,,,,,,,,,,,,,,,,,,,,,,,,,,,,,,,,,,,
1577420271.288056,90.000000,0.000000,4173.333496,4205.128418,4070.769287,4140.000000,4146.153809,450.000000,4.000000,,,,0.000000,4.000000,4.000000,4.000000,4.000000,4.000000,,,,,,,,,,,,,,,,,,,,,,,,,,,,,,,,,,,,,,,,,,,,,,,,,,,,,,,,
1577420271.295852,91.000000,0.000000,4161.025879,4190.256348,4062.051270,4265.128418,4142.563965,16212.000000,4.000000,,,,0.000000,4.000000,4.000000,4.000000,4.000000,4.000000,,,,,,,,,,,,,,,,,,,,,,,,,,,,,,,,,,,,,,,,,,,,,,,,,,,,,,,,
1577420271.303549,92.000000,0.000000,4185.128418,4152.307617,4073.333252,4256.410156,4157.948730,450.000000,4.000000,,,,0.000000,4.000000,4.000000,4.000000,4.000000,4.000000,,,,,,,,,,,,,,,,,,,,,,,,,,,,,,,,,,,,,,,,,,,,,,,,,,,,,,,,
1577420271.311345,93.000000,0.000000,4212.820313,4202.563965,4086.153809,4097.436035,4174.871582,450.000000,4.000000,,,,0.000000,4.000000,4.000000,4.000000,4.000000,4.000000,,,,,,,,,,,,,,,,,,,,,,,,,,,,,,,,,,,,,,,,,,,,,,,,,,,,,,,,
1577420271.319042,94.000000,0.000000,4204.102539,4272.307617,4079.487061,4098.974121,4170.256348,450.000000,4.000000,,,,0.000000,4.000000,4.000000,4.000000,4.000000,4.000000,,,,,,,,,,,,,,,,,,,,,,,,,,,,,,,,,,,,,,,,,,,,,,,,,,,,,,,,
1577420271.326839,95.000000,0.000000,4203.077148,4224.102539,4072.307617,4317.436035,4163.077148,16212.000000,4.000000,,,,0.000000,4.000000,4.000000,4.000000,4.000000,4.000000,,,,,,,,,,,,,,,,,,,,,,,,,,,,,,,,,,,,,,,,,,,,,,,,,,,,,,,,
1577420271.334535,96.000000,0.000000,4208.205078,4150.256348,4070.256348,4280.000000,4155.384766,450.000000,4.000000,,,,0.000000,4.000000,4.000000,4.000000,4.000000,4.000000,,,,,,,,,,,,,,,,,,,,,,,,,,,,,,,,,,,,,,,,,,,,,,,,,,,,,,,,
1577420271.342332,97.000000,0.000000,4180.000000,4183.589844,4058.461426,4083.076904,4128.205078,450.000000,4.000000,,,,0.000000,4.000000,4.000000,4.000000,4.000000,4.000000,,,,,,,,,,,,,,,,,,,,,,,,,,,,,,,,,,,,,,,,,,,,,,,,,,,,,,,,
1577420271.350028,98.000000,0.000000,4168.205078,4237.948730,4055.897461,4177.436035,4115.384766,450.000000,4.000000,,,,0.000000,4.000000,4.000000,4.000000,4.000000,4.000000,,,,,,,,,,,,,,,,,,,,,,,,,,,,,,,,,,,,,,,,,,,,,,,,,,,,,,,,
1577420271.357825,99.000000,0.000000,4188.717773,4210.769043,4067.692383,4295.897461,4126.666504,16212.000000,4.000000,,,,0.000000,4.000000,4.000000,4.000000,4.000000,4.000000,,,,,,,,,,,,,,,,,,,,,,,,,,,,,,,,,,,,,,,,,,,,,,,,,,,,,,,,
1577420271.365521,100.000000,0.000000,4201.538574,4171.282227,4079.487061,4176.922852,4141.025879,450.000000,4.000000,,,,0.000000,4.000000,4.000000,4.000000,4.000000,4.000000,,,,,,,,,,,,,,,,,,,,,,,,,,,,,,,,360.443451,141.923248,13.316598,4.344702,2.199057,28.759100,3.705173,1.302958,3.106400,5.590142,30.936445,3.423300,1.687546,2.616493,1.201525,11.394701,7.209735,7.831018,24.580023,84.269989,29.607916,4.486455,2.103041,2.591327,1.846569
1577420271.373318,101.000000,0.000000,4207.692383,4206.666504,4089.230713,4077.435791,4149.743652,450.000000,4.000000,,,,0.000000,4.000000,4.000000,4.000000,4.000000,4.000000,,,,,,,,,,,,,,,,,,,,,,,,,,,,,,,,,,,,,,,,,,,,,,,,,,,,,,,,
1577420271.381015,102.000000,0.000000,4223.077148,4246.153809,4096.410156,4167.179688,4151.282227,450.000000,4.000000,,,,0.000000,4.000000,4.000000,4.000000,4.000000,4.000000,,,,,,,,,,,,,,,,,,,,,,,,,,,,,,,,,,,,,,,,,,,,,,,,,,,,,,,,
1577420271.388711,103.000000,0.000000,4236.922852,4213.333496,4099.487305,4287.179688,4158.461426,16212.000000,4.000000,,,,0.000000,4.000000,4.000000,4.000000,4.000000,4.000000,,,,,,,,,,,,,,,,,,,,,,,,,,,,,,,,,,,,,,,,,,,,,,,,,,,,,,,,
1577420271.396508,104.000000,0.000000,4225.641113,4201.538574,4083.076904,4207.179688,4149.230957,450.000000,4.000000,,,,0.000000,4.000000,4.000000,4.000000,4.000000,4.000000,,,,,,,,,,,,,,,,,,,,,,,,,,,,,,,,,,,,,,,,,,,,,,,,,,,,,,,,
1577420271.404204,105.000000,0.000000,4218.461426,4243.077148,4068.205078,4079.487061,4133.333496,450.000000,4.000000,,,,0.000000,4.000000,4.000000,4.000000,4.000000,4.000000,,,,,,,,,,,,,,,,,,,,,,,,,,,,,,,,,,,,,,,,,,,,,,,,,,,,,,,,
1577420271.412001,106.000000,0.000000,4242.563965,4230.256348,4085.128174,4278.461426,4148.205078,450.000000,4.000000,,,,0.000000,4.000000,4.000000,4.000000,4.000000,4.000000,,,,,,,,,,,,,,,,,,,,,,,,,,,,,,,,,,,,,,,,,,,,,,,,,,,,,,,,
1577420271.419698,107.000000,0.000000,4246.666504,4185.128418,4089.230713,4369.230957,4153.846191,16212.000000,4.000000,,,,0.000000,4.000000,4.000000,4.000000,4.000000,4.000000,,,,,,,,,,,,,,,,,,,,,,,,,,,,,,,,,,,,,,,,,,,,,,,,,,,,,,,,
1577420271.427494,108.000000,0.000000,4223.589844,4191.794922,4067.692383,4085.128174,4134.358887,450.000000,4.000000,,,,0.000000,4.000000,4.000000,4.000000,4.000000,4.000000,,,,,,,,,,,,,,,,,,,,,,,,,,,,,,,,,,,,,,,,,,,,,,,,,,,,,,,,
1577420271.435191,109.000000,0.000000,4227.692383,4224.615234,4072.307617,4053.333252,4132.820313,450.000000,4.000000,,,,0.000000,4.000000,4.000000,4.000000,4.000000,4.000000,,,,,,,,,,,,,,,,,,,,,,,,,,,,,,,,,,,,,,,,,,,,,,,,,,,,,,,,
1577420271.442987,110.000000,0.000000,4231.794922,4226.153809,4081.538574,4258.974121,4133.333496,450.000000,4.000000,,,,0.000000,4.000000,4.000000,4.000000,4.000000,4.000000,,,,,,,,,,,,,,,,,,,,,,,,,,,,,,,,,,,,,,,,,,,,,,,,,,,,,,,,
1577420271.450684,111.000000,0.000000,4218.974121,4201.538574,4066.666748,4263.077148,4112.307617,16212.000000,4.000000,,,,0.000000,4.000000,4.000000,4.000000,4.000000,4.000000,,,,,,,,,,,,,,,,,,,,,,,,,,,,,,,,,,,,,,,,,,,,,,,,,,,,,,,,
1577420271.458480,112.000000,0.000000,4232.820313,4193.333496,4068.205078,4150.256348,4108.717773,450.000000,4.000000,,,,0.000000,4.000000,4.000000,4.000000,4.000000,4.000000,,,,,,,,,,,,,,,,,,,,,,,,,,,,,,,,,,,,,,,,,,,,,,,,,,,,,,,,
1577420271.466177,113.000000,0.000000,4247.692383,4229.230957,4078.974365,4096.922852,4114.871582,450.000000,4.000000,,,,0.000000,4.000000,4.000000,4.000000,4.000000,4.000000,,,,,,,,,,,,,,,,,,,,,,,,,,,,,,,,,,,,,,,,,,,,,,,,,,,,,,,,
1577420271.473974,114.000000,0.000000,4241.025879,4241.538574,4066.666748,4197.948730,4100.000000,450.000000,4.000000,,,,0.000000,4.000000,4.000000,4.000000,4.000000,4.000000,,,,,,,,,,,,,,,,,,,,,,,,,,,,,,,,,,,,,,,,,,,,,,,,,,,,,,,,
1577420271.481670,115.000000,0.000000,4237.436035,4192.820313,4047.692383,4294.871582,4085.128174,16212.000000,4.000000,,,,0.000000,4.000000,4.000000,4.000000,4.000000,4.000000,,,,,,,,,,,,,,,,,,,,,,,,,,,,,,,,,,,,,,,,,,,,,,,,,,,,,,,,
1577420271.489467,116.000000,0.000000,4242.051270,4194.358887,4046.666748,4132.307617,4089.743652,450.000000,4.000000,,,,0.000000,4.000000,4.000000,4.000000,4.000000,4.000000,,,,,,,,,,,,,,,,,,,,,,,,,,,,,,,,223.253387,88.887894,8.217427,3.732610,2.023710,19.438232,2.897412,1.055030,3.314918,5.534277,20.222124,3.759217,1.443249,2.701140,1.227479,8.391277,7.712834,6.384352,27.039154,79.772652,20.651823,4.469124,1.708754,2.735281,1.828727
1577420271.497163,117.000000,0.000000,4272.820313,4241.538574,4067.692383,3974.358887,4114.871582,450.000000,4.000000,,,,0.000000,4.000000,4.000000,4.000000,4.000000,4.000000,,,,,,,,,,,,,,,,,,,,,,,,,,,,,,,,,,,,,,,,,,,,,,,,,,,,,,,,
1577420271.504960,118.000000,0.000000,4311.282227,4229.743652,4076.410156,4145.128418,4133.333496,450.000000,4.000000,,,,0.000000,4.000000,4.000000,4.000000,4.000000,4.000000,,,,,,,,,,,,,,,,,,,,,,,,,,,,,,,,,,,,,,,,,,,,,,,,,,,,,,,,
1577420271.512656,119.000000,0.000000,4313.333496,4207.692383,4064.102539,4337.436035,4117.436035,16212.000000,4.000000,,,,0.000000,4.000000,4.000000,4.000000,4.000000,4.000000,,,,,,,,,,,,,,,,,,,,,,,,,,,,,,,,,,,,,,,,,,,,,,,,,,,,,,,,
1577420271.520453,120.000000,0.000000,4322.051270,4235.897461,4073.846191,4253.333496,4112.307617,450.000000,4.000000,,,,0.000000,4.000000,4.000000,4.000000,4.000000,4.000000,,,,,,,,,,,,,,,,,,,,,,,,,,,,,,,,,,,,,,,,,,,,,,,,,,,,,,,,
1577420271.528150,121.000000,0.000000,4364.615234,4258.461426,4095.897461,4089.230713,4140.000000,450.000000,4.000000,,,,0.000000,4.000000,4.000000,4.000000,4.000000,4.000000,,,,,,,,,,,,,,,,,,,,,,,,,,,,,,,,,,,,,,,,,,,,,,,,,,,,,,,,
1577420271.535946,122.000000,0.000000,4377.948730,4240.000000,4077.435791,4115.384766,4142.563965,450.000000,4.000000,,,,0.000000,4.000000,4.000000,4.000000,4.000000,4.000000,,,,,,,,,,,,,,,,,,,,,,,,,,,,,,,,,,,,,,,,,,,,,,,,,,,,,,,,
1577420271.543643,123.000000,0.000000,4363.589844,4205.641113,4048.718018,4156.922852,4122.051270,16212.000000,4.000000,,,,0.000000,4.000000,4.000000,4.000000,4.000000,4.000000,,,,,,,,,,,,,,,,,,,,,,,,,,,,,,,,,,,,,,,,,,,,,,,,,,,,,,,,
1577420271.551439,124.000000,0.000000,4396.410156,4187.692383,4066.153809,4119.487305,4140.512695,450.000000,4.000000,,,,0.000000,4.000000,4.000000,4.000000,4.000000,4.000000,,,,,,,,,,,,,,,,,,,,,,,,,,,,,,,,,,,,,,,,,,,,,,,,,,,,,,,,
1577420271.559136,125.000000,0.000000,4436.410156,4206.666504,4075.384521,4190.769043,4158.461426,450.000000,4.000000,,,,0.000000,4.000000,4.000000,4.000000,4.000000,4.000000,,,,,,,,,,,,,,,,,,,,,,,,,,,,,,,,,,,,,,,,,,,,,,,,,,,,,,,,
1577420271.566833,126.000000,0.000000,4431.282227,4237.436035,4051.794922,4199.487305,4147.179688,450.000000,4.000000,,,,0.000000,4.000000,4.000000,4.000000,4.000000,4.000000,,,,,,,,,,,,,,,,,,,,,,,,,,,,,,,,,,,,,,,,,,,,,,,,,,,,,,,,
1577420271.574629,127.000000,0.000000,4455.897461,4256.410156,4070.769287,4095.897461,4173.333496,236.000000,4.000000,,,,0.000000,4.000000,4.000000,4.000000,4.000000,4.000000,,,,,,,,,,,,,,,,,,,,,,,,,,,,,,,,,,,,,,,,,,,,,,,,,,,,,,,,
1577420271.582426,0.000000,0.000000,4500.000000,4230.769043,4095.897461,4190.769043,4211.794922,450.000000,4.000000,,,,0.000000,4.000000,4.000000,4.000000,4.000000,4.000000,,,,,,,,,,,,,,,,,,,,,,,,,,,,,,,,,,,,,,,,,,,,,,,,,,,,,,,,
1577420271.590122,1.000000,0.000000,4496.410156,4195.897461,4075.384521,4253.333496,4207.179688,450.000000,4.000000,,,,0.000000,4.000000,4.000000,4.000000,4.000000,4.000000,,,,,,,,,,,,,,,,,,,,,,,,,,,,,,,,,,,,,,,,,,,,,,,,,,,,,,,,
1577420271.597919,2.000000,0.000000,4479.487305,4195.897461,4054.871826,4073.846191,4192.820313,16222.000000,4.000000,,,,0.000000,4.000000,4.000000,4.000000,4.000000,4.000000,,,,,,,,,,,,,,,,,,,,,,,,,,,,,,,,,,,,,,,,,,,,,,,,,,,,,,,,
1577420271.605615,3.000000,0.000000,4475.384766,4191.794922,4043.076904,4056.410156,4194.871582,450.000000,4.000000,,,,0.000000,4.000000,4.000000,4.000000,4.000000,4.000000,,,,,,,,,,,,,,,,,,,,,,,,,,,,,,,,,,,,,,,,,,,,,,,,,,,,,,,,
1577420271.613412,4.000000,0.000000,4467.692383,4182.563965,4025.641113,4226.153809,4198.974121,16201.000000,4.000000,,,,0.000000,4.000000,4.000000,4.000000,4.000000,4.000000,,,,,,,,,,,,,,,,,,,,,,,,,,,,,,,,110.627571,45.402748,4.413234,3.395245,1.850948,12.161049,2.533496,0.822713,3.372335,5.315046,12.852821,4.129407,1.187881,2.700938,1.251482,5.975198,8.474310,5.698674,29.580830,78.458282,13.546088,4.563815,1.374469,2.897931,1.790882
1577420271.621109,5.000000,0.000000,4458.974121,4180.000000,4022.564209,4152.307617,4202.051270,450.000000,4.000000,,,,0.000000,4.000000,4.000000,4.000000,4.000000,4.000000,,,,,,,,,,,,,,,,,,,,,,,,,,,,,,,,,,,,,,,,,,,,,,,,,,,,,,,,
1577420271.628905,6.000000,0.000000,4465.641113,4166.666504,4042.051270,4027.179443,4213.333496,16178.000000,4.000000,,,,0.000000,4.000000,4.000000,4.000000,4.000000,4.000000,,,,,,,,,,,,,,,,,,,,,,,,,,,,,,,,,,,,,,,,,,,,,,,,,,,,,,,,
1577420271.636602,7.000000,0.000000,4466.153809,4169.230957,4055.384521,4145.641113,4214.871582,450.000000,4.000000,,,,0.000000,4.000000,4.000000,4.000000,4.000000,4.000000,,,,,,,,,,,,,,,,,,,,,,,,,,,,,,,,,,,,,,,,,,,,,,,,,,,,,,,,
1577420271.644398,8.000000,0.000000,4443.589844,4195.384766,4050.256348,4226.666504,4203.077148,450.000000,4.000000,,,,0.000000,4.000000,4.000000,4.000000,4.000000,4.000000,,,,,,,,,,,,,,,,,,,,,,,,,,,,,,,,,,,,,,,,,,,,,,,,,,,,,,,,
1577420271.652095,9.000000,0.000000,4426.666504,4189.230957,4050.256348,4142.051270,4198.974121,16113.000000,4.000000,,,,0.000000,4.000000,4.000000,4.000000,4.000000,4.000000,,,,,,,,,,,,,,,,,,,,,,,,,,,,,,,,,,,,,,,,,,,,,,,,,,,,,,,,
1577420271.659891,10.000000,0.000000,4421.025879,4146.666504,4060.000000,4085.641113,4201.538574,450.000000,4.000000,,,,0.000000,4.000000,4.000000,4.000000,4.000000,4.000000,,,,,,,,,,,,,,,,,,,,,,,,,,,,,,,,,,,,,,,,,,,,,,,,,,,,,,,,
1577420271.667588,11.000000,0.000000,4403.589844,4163.589844,4069.743652,4105.641113,4196.922852,16221.000000,4.000000,,,,0.000000,4.000000,4.000000,4.000000,4.000000,4.000000,,,,,,,,,,,,,,,,,,,,,,,,,,,,,,,,,,,,,,,,,,,,,,,,,,,,,,,,
1577420271.675285,12.000000,0.000000,4380.000000,4222.563965,4081.025635,4082.564209,4188.717773,450.000000,4.000000,,,,0.000000,4.000000,4.000000,4.000000,4.000000,4.000000,,,,,,,,,,,,,,,,,,,,,,,,,,,,,,,,,,,,,,,,,,,,,,,,,,,,,,,,
1577420271.683081,13.000000,0.000000,4376.922852,4216.410156,4092.307617,4135.384766,4191.794922,450.000000,4.000000,,,,0.000000,4.000000,4.000000,4.000000,4.000000,4.000000,,,,,,,,,,,,,,,,,,,,,,,,,,,,,,,,,,,,,,,,,,,,,,,,,,,,,,,,
1577420271.690778,14.000000,0.000000,4386.666504,4182.563965,4106.153809,4291.794922,4198.974121,450.000000,4.000000,,,,0.000000,4.000000,4.000000,4.000000,4.000000,4.000000,,,,,,,,,,,,,,,,,,,,,,,,,,,,,,,,,,,,,,,,,,,,,,,,,,,,,,,,
1577420271.698574,15.000000,0.000000,4374.358887,4218.461426,4113.846191,4252.307617,4190.769043,16221.000000,4.000000,,,,0.000000,4.000000,4.000000,4.000000,4.000000,4.000000,,,,,,,,,,,,,,,,,,,,,,,,,,,,,,,,,,,,,,,,,,,,,,,,,,,,,,,,
1577420271.706271,16.000000,0.000000,4350.256348,4252.307617,4102.563965,4129.230957,4173.333496,0.000000,4.000000,,,,0.000000,4.000000,4.000000,4.000000,4.000000,4.000000,,,,,,,,,,,,,,,,,,,,,,,,,,,,,,,,,,,,,,,,,,,,,,,,,,,,,,,,
1577420271.714068,17.000000,0.000000,4333.333496,4206.153809,4089.743652,4162.563965,4159.487305,0.000000,4.000000,,,,0.000000,4.000000,4.000000,4.000000,4.000000,4.000000,,,,,,,,,,,,,,,,,,,,,,,,,,,,,,,,,,,,,,,,,,,,,,,,,,,,,,,,
1577420271.721764,18.000000,0.000000,4308.205078,4180.000000,4084.615479,4177.948730,4143.077148,0.000000,4.000000,,,,0.000000,4.000000,4.000000,4.000000,4.000000,4.000000,,,,,,,,,,,,,,,,,,,,,,,,,,,,,,,,,,,,,,,,,,,,,,,,,,,,,,,,
1577420271.729561,19.000000,0.000000,4269.743652,4208.205078,4071.794922,4085.128174,4118.974121,0.000000,4.000000,,,,0.000000,4.000000,4.000000,4.000000,4.000000,4.000000,,,,,,,,,,,,,,,,,,,,,,,,,,,,,,,,,,,,,,,,,,,,,,,,,,,,,,,,
1577420271.737257,20.000000,0.000000,4249.230957,4194.358887,4059.487061,4083.589844,4100.000000,0.000000,4.000000,,,,0.000000,4.000000,4.000000,4.000000,4.000000,4.000000,,,,,,,,,,,,,,,,,,,,,,,,,,,,,,,,43.447121,19.252872,2.345510,3.242105,1.697487,8.327829,2.603033,0.715432,3.279487,5.136050,10.211763,4.425670,1.034728,2.592908,1.254920,4.688729,9.266376,5.753317,31.618618,82.715317,9.709017,4.864617,1.257460,2.987509,1.713513
1577420271.745054,21.000000,0.000000,4247.179688,4162.051270,4065.641113,4205.128418,4093.333252,0.000000,4.000000,,,,0.000000,4.000000,4.000000,4.000000,4.000000,4.000000,,,,,,,,,,,,,,,,,,,,,,,,,,,,,,,,,,,,,,,,,,,,,,,,,,,,,,,,
1577420271.752750,22.000000,0.000000,4220.000000,4177.948730,4060.000000,4196.410156,4077.435791,0.000000,4.000000,,,,0.000000,4.000000,4.000000,4.000000,4.000000,4.000000,,,,,,,,,,,,,,,,,,,,,,,,,,,,,,,,,,,,,,,,,,,,,,,,,,,,,,,,
1577420271.760547,23.000000,0.000000,4183.077148,4201.538574,4042.051270,4118.461426,4056.923096,0.000000,4.000000,,,,0.000000,4.000000,4.000000,4.000000,4.000000,4.000000,,,,,,,,,,,,,,,,,,,,,,,,,,,,,,,,,,,,,,,,,,,,,,,,,,,,,,,,
1577420271.768244,24.000000,0.000000,4192.820313,4188.717773,4056.410156,4128.205078,4074.358887,0.000000,4.000000,,,,0.000000,4.000000,4.000000,4.000000,4.000000,4.000000,,,,,,,,,,,,,,,,,,,,,,,,,,,,,,,,,,,,,,,,,,,,,,,,,,,,,,,,
1577420271.776040,25.000000,0.000000,4207.692383,4177.436035,4074.358887,4145.128418,4090.256348,0.000000,4.000000,,,,0.000000,4.000000,4.000000,4.000000,4.000000,4.000000,,,,,,,,,,,,,,,,,,,,,,,,,,,,,,,,,,,,,,,,,,,,,,,,,,,,,,,,
1577420271.783737,26.000000,0.000000,4176.922852,4201.538574,4061.025635,4117.948730,4069.230713,0.000000,4.000000,,,,0.000000,4.000000,4.000000,4.000000,4.000000,4.000000,,,,,,,,,,,,,,,,,,,,,,,,,,,,,,,,,,,,,,,,,,,,,,,,,,,,,,,,
1577420271.791533,27.000000,0.000000,4171.794922,4228.205078,4068.718018,4149.230957,4074.871826,0.000000,4.000000,,,,0.000000,4.000000,4.000000,4.000000,4.000000,4.000000,,,,,,,,,,,,,,,,,,,,,,,,,,,,,,,,,,,,,,,,,,,,,,,,,,,,,,,,
