title:happy_0, start timestamp:2019-12-27T07:14:57.068657+03:00, stop timestamp:2019-12-27T07:15:28.000977+03:00, headset type:INSIGHT, headset serial:A2D200FB, headset firmware:930, subject name:Qasim, channels:75, sampling rate:eeg_128;pm_0.1;pow_8, samples:3967      , version:2.0
Timestamp,EEG.Counter,EEG.Interpolated,EEG.AF3,EEG.T7,EEG.Pz,EEG.T8,EEG.AF4,EEG.RawCq,EEG.Battery,MarkerIndex,MarkerType,MarkerValueInt,EEG.MarkerHardware,CQ.AF3,CQ.T7,CQ.Pz,CQ.T8,CQ.AF4,PM.Engagement.IsActive,PM.Engagement.Scaled,PM.Engagement.Raw,PM.Engagement.Min,PM.Engagement.Max,PM.Excitement.IsActive,PM.Excitement.Scaled,PM.Excitement.Raw,PM.Excitement.Min,PM.Excitement.Max,PM.LongTermExcitement,PM.Stress.IsActive,PM.Stress.Scaled,PM.Stress.Raw,PM.Stress.Min,PM.Stress.Max,PM.Relaxation.IsActive,PM.Relaxation.Scaled,PM.Relaxation.Raw,PM.Relaxation.Min,PM.Relaxation.Max,PM.Interest.IsActive,PM.Interest.Scaled,PM.Interest.Raw,PM.Interest.Min,PM.Interest.Max,PM.Focus.IsActive,PM.Focus.Scaled,PM.Focus.Raw,PM.Focus.Min,PM.Focus.Max,POW.AF3.Theta,POW.AF3.Alpha,POW.AF3.BetaL,POW.AF3.BetaH,POW.AF3.Gamma,POW.T7.Theta,POW.T7.Alpha,POW.T7.BetaL,POW.T7.BetaH,POW.T7.Gamma,POW.Pz.Theta,POW.Pz.Alpha,POW.Pz.BetaL,POW.Pz.BetaH,POW.Pz.Gamma,POW.T8.Theta,POW.T8.Alpha,POW.T8.BetaL,POW.T8.BetaH,POW.T8.Gamma,POW.AF4.Theta,POW.AF4.Alpha,POW.AF4.BetaL,POW.AF4.BetaH,POW.AF4.Gamma
1577420097.068657,16.000000,0.000000,4304.102539,4259.487305,4298.974121,4092.307617,4275.384766,0.000000,4.000000,,,,0.000000,4.000000,4.000000,4.000000,4.000000,4.000000,,,,,,,,,,,,,,,,,,,,,,,,,,,,,,,,,,,,,,,,,,,,,,,,,,,,,,,,
1577420097.076554,17.000000,0.000000,4307.692383,4297.436035,4330.256348,4140.512695,4289.743652,0.000000,4.000000,,,,0.000000,4.000000,4.000000,4.000000,4.000000,4.000000,,,,,,,,,,,,,,,,,,,,,,,,,,,,,,,,,,,,,,,,,,,,,,,,,,,,,,,,
1577420097.084351,18.000000,0.000000,4266.153809,4286.666504,4306.666504,4187.692383,4237.948730,0.000000,4.000000,,,,0.000000,4.000000,4.000000,4.000000,4.000000,4.000000,,,,,,,,,,,,,,,,,,,,,,,,,,,,,,,,,,,,,,,,,,,,,,,,,,,,,,,,
1577420097.092148,19.000000,0.000000,4271.794922,4308.205078,4304.102539,4131.282227,4251.282227,0.000000,4.000000,,,,0.000000,4.000000,4.000000,4.000000,4.000000,4.000000,,,,,,,,,,,,,,,,,,,,,,,,,,,,,,,,,,,,,,,,,,,,,,,,,,,,,,,,
1577420097.100045,20.000000,0.000000,4258.461426,4297.436035,4270.256348,4056.410156,4231.282227,0.000000,4.000000,,,,0.000000,4.000000,4.000000,4.000000,4.000000,4.000000,,,,,,,,,,,,,,,,,,,,,,,,,,,,,,,,50.923950,6.997743,1.052869,2.267700,3.867008,12.535959,1.275403,2.475653,1.538764,3.575338,4.225235,2.198889,1.202878,0.936431,1.006448,4.594614,1.040112,0.786395,9.847569,20.912868,24.376440,2.688526,1.104815,1.396876,1.542648
1577420097.107942,21.000000,0.000000,4238.974121,4297.948730,4290.769043,4163.589844,4223.077148,0.000000,4.000000,,,,0.000000,4.000000,4.000000,4.000000,4.000000,4.000000,,,,,,,,,,,,,,,,,,,,,,,,,,,,,,,,,,,,,,,,,,,,,,,,,,,,,,,,
1577420097.115740,22.000000,0.000000,4254.358887,4327.179688,4300.000000,4198.974121,4233.846191,0.000000,4.000000,,,,0.000000,4.000000,4.000000,4.000000,4.000000,4.000000,,,,,,,,,,,,,,,,,,,,,,,,,,,,,,,,,,,,,,,,,,,,,,,,,,,,,,,,
1577420097.123637,23.000000,0.000000,4256.410156,4332.820313,4278.461426,4025.641113,4227.179688,0.000000,4.000000,,,,0.000000,4.000000,4.000000,4.000000,4.000000,4.000000,,,,,,,,,,,,,,,,,,,,,,,,,,,,,,,,,,,,,,,,,,,,,,,,,,,,,,,,
1577420097.131434,24.000000,0.000000,4264.615234,4319.487305,4282.051270,4043.589844,4232.307617,0.000000,4.000000,,,,0.000000,4.000000,4.000000,4.000000,4.000000,4.000000,,,,,,,,,,,,,,,,,,,,,,,,,,,,,,,,,,,,,,,,,,,,,,,,,,,,,,,,
1577420097.139331,25.000000,0.000000,4277.436035,4325.128418,4296.410156,4201.538574,4241.538574,0.000000,4.000000,,,,0.000000,4.000000,4.000000,4.000000,4.000000,4.000000,,,,,,,,,,,,,,,,,,,,,,,,,,,,,,,,,,,,,,,,,,,,,,,,,,,,,,,,
1577420097.147128,26.000000,0.000000,4289.230957,4355.897461,4307.692383,4161.025879,4254.871582,0.000000,4.000000,,,,0.000000,4.000000,4.000000,4.000000,4.000000,4.000000,,,,,,,,,,,,,,,,,,,,,,,,,,,,,,,,,,,,,,,,,,,,,,,,,,,,,,,,
1577420097.154926,27.000000,0.000000,4285.641113,4338.974121,4306.666504,4087.179443,4253.846191,0.000000,4.000000,,,,0.000000,4.000000,4.000000,4.000000,4.000000,4.000000,,,,,,,,,,,,,,,,,,,,,,,,,,,,,,,,,,,,,,,,,,,,,,,,,,,,,,,,
1577420097.162823,28.000000,0.000000,4258.461426,4291.794922,4292.307617,4140.512695,4230.256348,0.000000,4.000000,,,,0.000000,4.000000,4.000000,4.000000,4.000000,4.000000,,,,,,,,,,,,,,,,,,,,,,,,,,,,,,,,,,,,,,,,,,,,,,,,,,,,,,,,
1577420097.170720,29.000000,0.000000,4244.615234,4308.205078,4288.205078,4095.897461,4221.538574,0.000000,4.000000,,,,0.000000,4.000000,4.000000,4.000000,4.000000,4.000000,,,,,,,,,,,,,,,,,,,,,,,,,,,,,,,,,,,,,,,,,,,,,,,,,,,,,,,,
1577420097.178517,30.000000,0.000000,4244.102539,4349.743652,4291.282227,4054.358887,4224.615234,0.000000,4.000000,,,,0.000000,4.000000,4.000000,4.000000,4.000000,4.000000,,,,,,,,,,,,,,,,,,,,,,,,,,,,,,,,,,,,,,,,,,,,,,,,,,,,,,,,
1577420097.186414,31.000000,0.000000,4254.358887,4349.743652,4303.077148,4168.205078,4240.000000,0.000000,4.000000,,,,0.000000,4.000000,4.000000,4.000000,4.000000,4.000000,,,,,,,,,,,,,,,,,,,,,,,,,,,,,,,,,,,,,,,,,,,,,,,,,,,,,,,,
1577420097.194211,32.000000,0.000000,4269.230957,4339.487305,4303.077148,4191.282227,4252.820313,0.000000,4.000000,,,,0.000000,4.000000,4.000000,4.000000,4.000000,4.000000,,,,,,,,,,,,,,,,,,,,,,,,,,,,,,,,,,,,,,,,,,,,,,,,,,,,,,,,
1577420097.202108,33.000000,0.000000,4210.769043,4304.615234,4265.641113,4095.384521,4202.563965,0.000000,4.000000,,,,0.000000,4.000000,4.000000,4.000000,4.000000,4.000000,,,,,,,,,,,,,,,,,,,,,,,,,,,,,,,,,,,,,,,,,,,,,,,,,,,,,,,,
1577420097.209905,34.000000,0.000000,4143.077148,4275.384766,4230.769043,4046.153809,4148.205078,0.000000,4.000000,,,,0.000000,4.000000,4.000000,4.000000,4.000000,4.000000,,,,,,,,,,,,,,,,,,,,,,,,,,,,,,,,,,,,,,,,,,,,,,,,,,,,,,,,
1577420097.217702,35.000000,0.000000,4158.461426,4305.641113,4221.025879,4037.435791,4150.256348,0.000000,4.000000,,,,0.000000,4.000000,4.000000,4.000000,4.000000,4.000000,,,,,,,,,,,,,,,,,,,,,,,,,,,,,,,,,,,,,,,,,,,,,,,,,,,,,,,,
1577420097.225399,36.000000,0.000000,4180.000000,4335.384766,4233.846191,4097.948730,4170.256348,0.000000,4.000000,,,,0.000000,4.000000,4.000000,4.000000,4.000000,4.000000,,,,,,,,,,,,,,,,,,,,,,,,,,,,,,,,41.967785,5.716623,1.270953,1.962573,3.078153,9.359042,1.184324,2.489294,1.389201,3.251683,3.544629,1.958966,1.223379,0.859031,0.949095,4.644442,1.172686,1.141156,10.236898,21.856739,21.138321,2.369709,1.168656,1.197802,1.322859
1577420097.233296,37.000000,0.000000,4186.666504,4329.230957,4252.820313,4187.692383,4187.179688,0.000000,4.000000,,,,0.000000,4.000000,4.000000,4.000000,4.000000,4.000000,,,,,,,,,,,,,,,,,,,,,,,,,,,,,,,,,,,,,,,,,,,,,,,,,,,,,,,,
1577420097.241093,38.000000,0.000000,4195.384766,4310.256348,4246.153809,4102.563965,4192.307617,0.000000,4.000000,,,,0.000000,4.000000,4.000000,4.000000,4.000000,4.000000,,,,,,,,,,,,,,,,,,,,,,,,,,,,,,,,,,,,,,,,,,,,,,,,,,,,,,,,
1577420097.248990,39.000000,0.000000,4206.666504,4317.948730,4243.589844,4067.179443,4203.589844,0.000000,4.000000,,,,0.000000,4.000000,4.000000,4.000000,4.000000,4.000000,,,,,,,,,,,,,,,,,,,,,,,,,,,,,,,,,,,,,,,,,,,,,,,,,,,,,,,,
1577420097.256787,40.000000,0.000000,4220.512695,4327.692383,4250.769043,4215.897461,4209.230957,0.000000,4.000000,,,,0.000000,4.000000,4.000000,4.000000,4.000000,4.000000,,,,,,,,,,,,,,,,,,,,,,,,,,,,,,,,,,,,,,,,,,,,,,,,,,,,,,,,
1577420097.264684,41.000000,0.000000,4206.666504,4300.512695,4238.461426,4126.666504,4188.717773,0.000000,4.000000,,,,0.000000,4.000000,4.000000,4.000000,4.000000,4.000000,,,,,,,,,,,,,,,,,,,,,,,,,,,,,,,,,,,,,,,,,,,,,,,,,,,,,,,,
1577420097.272481,42.000000,0.000000,4195.897461,4299.487305,4227.179688,3971.281982,4180.512695,0.000000,4.000000,,,,0.000000,4.000000,4.000000,4.000000,4.000000,4.000000,,,,,,,,,,,,,,,,,,,,,,,,,,,,,,,,,,,,,,,,,,,,,,,,,,,,,,,,
1577420097.280377,43.000000,0.000000,4211.794922,4340.512695,4230.769043,4129.743652,4190.769043,0.000000,4.000000,,,,0.000000,4.000000,4.000000,4.000000,4.000000,4.000000,,,,,,,,,,,,,,,,,,,,,,,,,,,,,,,,,,,,,,,,,,,,,,,,,,,,,,,,
1577420097.288174,44.000000,0.000000,4235.897461,4361.025879,4248.205078,4212.820313,4214.358887,0.000000,4.000000,,,,0.000000,4.000000,4.000000,4.000000,4.000000,4.000000,,,,,,,,,,,,,,,,,,,,,,,,,,,,,,,,,,,,,,,,,,,,,,,,,,,,,,,,
1577420097.296071,45.000000,0.000000,4242.563965,4338.461426,4257.948730,4089.230713,4225.641113,0.000000,4.000000,,,,0.000000,4.000000,4.000000,4.000000,4.000000,4.000000,,,,,,,,,,,,,,,,,,,,,,,,,,,,,,,,,,,,,,,,,,,,,,,,,,,,,,,,
1577420097.303868,46.000000,0.000000,4224.102539,4328.717773,4243.589844,4109.743652,4210.769043,0.000000,4.000000,,,,0.000000,4.000000,4.000000,4.000000,4.000000,4.000000,,,,,,,,,,,,,,,,,,,,,,,,,,,,,,,,,,,,,,,,,,,,,,,,,,,,,,,,
1577420097.311765,47.000000,0.000000,4223.077148,4365.641113,4240.000000,4140.512695,4205.128418,0.000000,4.000000,,,,0.000000,4.000000,4.000000,4.000000,4.000000,4.000000,,,,,,,,,,,,,,,,,,,,,,,,,,,,,,,,,,,,,,,,,,,,,,,,,,,,,,,,
1577420097.319662,48.000000,0.000000,4238.461426,4376.410156,4248.717773,4081.538574,4208.205078,0.000000,4.000000,,,,0.000000,4.000000,4.000000,4.000000,4.000000,4.000000,,,,,,,,,,,,,,,,,,,,,,,,,,,,,,,,,,,,,,,,,,,,,,,,,,,,,,,,
1577420097.327460,49.000000,0.000000,4239.487305,4325.641113,4238.974121,4178.974121,4204.615234,0.000000,4.000000,,,,0.000000,4.000000,4.000000,4.000000,4.000000,4.000000,,,,,,,,,,,,,,,,,,,,,,,,,,,,,,,,,,,,,,,,,,,,,,,,,,,,,,,,
1577420097.335257,50.000000,0.000000,4231.282227,4307.692383,4222.563965,4166.666504,4195.897461,0.000000,4.000000,,,,0.000000,4.000000,4.000000,4.000000,4.000000,4.000000,,,,,,,,,,,,,,,,,,,,,,,,,,,,,,,,,,,,,,,,,,,,,,,,,,,,,,,,
1577420097.343154,51.000000,0.000000,4235.897461,4350.256348,4229.743652,3977.948730,4201.538574,0.000000,4.000000,,,,0.000000,4.000000,4.000000,4.000000,4.000000,4.000000,,,,,,,,,,,,,,,,,,,,,,,,,,,,,,,,,,,,,,,,,,,,,,,,,,,,,,,,
1577420097.350951,52.000000,0.000000,4258.974121,4362.563965,4247.179688,4093.333252,4219.487305,0.000000,4.000000,,,,0.000000,4.000000,4.000000,4.000000,4.000000,4.000000,,,,,,,,,,,,,,,,,,,,,,,,,,,,,,,,33.116329,5.457578,2.059401,2.034710,2.921123,6.246833,1.234383,2.443723,1.508663,3.133763,4.014046,1.874552,1.295123,0.857370,0.923740,5.531918,1.643189,2.018228,11.203036,23.515154,18.122131,2.702399,1.577192,1.190080,1.196233
1577420097.358848,53.000000,0.000000,4263.589844,4324.102539,4246.666504,4278.974121,4212.820313,0.000000,4.000000,,,,0.000000,4.000000,4.000000,4.000000,4.000000,4.000000,,,,,,,,,,,,,,,,,,,,,,,,,,,,,,,,,,,,,,,,,,,,,,,,,,,,,,,,
1577420097.366645,54.000000,0.000000,4229.230957,4324.615234,4224.102539,4132.307617,4178.974121,0.000000,4.000000,,,,0.000000,4.000000,4.000000,4.000000,4.000000,4.000000,,,,,,,,,,,,,,,,,,,,,,,,,,,,,,,,,,,,,,,,,,,,,,,,,,,,,,,,
1577420097.374542,55.000000,0.000000,4218.461426,4374.358887,4221.538574,4018.461426,4172.307617,0.000000,4.000000,,,,0.000000,4.000000,4.000000,4.000000,4.000000,4.000000,,,,,,,,,,,,,,,,,,,,,,,,,,,,,,,,,,,,,,,,,,,,,,,,,,,,,,,,
1577420097.382339,56.000000,0.000000,4248.717773,4378.461426,4237.948730,4140.512695,4199.487305,0.000000,4.000000,,,,0.000000,4.000000,4.000000,4.000000,4.000000,4.000000,,,,,,,,,,,,,,,,,,,,,,,,,,,,,,,,,,,,,,,,,,,,,,,,,,,,,,,,
1577420097.390036,57.000000,0.000000,4251.282227,4338.461426,4224.615234,4164.615234,4196.410156,0.000000,4.000000,,,,0.000000,4.000000,4.000000,4.000000,4.000000,4.000000,,,,,,,,,,,,,,,,,,,,,,,,,,,,,,,,,,,,,,,,,,,,,,,,,,,,,,,,
1577420097.397933,58.000000,0.000000,4231.794922,4342.051270,4198.461426,4102.563965,4169.230957,0.000000,4.000000,,,,0.000000,4.000000,4.000000,4.000000,4.000000,4.000000,,,,,,,,,,,,,,,,,,,,,,,,,,,,,,,,,,,,,,,,,,,,,,,,,,,,,,,,
1577420097.405730,59.000000,0.000000,4239.487305,4375.384766,4206.666504,4150.256348,4177.436035,0.000000,4.000000,,,,0.000000,4.000000,4.000000,4.000000,4.000000,4.000000,,,,,,,,,,,,,,,,,,,,,,,,,,,,,,,,,,,,,,,,,,,,,,,,,,,,,,,,
1577420097.413626,60.000000,0.000000,4262.563965,4362.051270,4223.589844,4168.205078,4205.641113,0.000000,4.000000,,,,0.000000,4.000000,4.000000,4.000000,4.000000,4.000000,,,,,,,,,,,,,,,,,,,,,,,,,,,,,,,,,,,,,,,,,,,,,,,,,,,,,,,,
1577420097.421423,61.000000,0.000000,4262.051270,4340.000000,4207.179688,4106.153809,4198.974121,0.000000,4.000000,,,,0.000000,4.000000,4.000000,4.000000,4.000000,4.000000,,,,,,,,,,,,,,,,,,,,,,,,,,,,,,,,,,,,,,,,,,,,,,,,,,,,,,,,
1577420097.429320,62.000000,0.000000,4254.871582,4367.692383,4198.461426,4078.974365,4184.102539,0.000000,4.000000,,,,0.000000,4.000000,4.000000,4.000000,4.000000,4.000000,,,,,,,,,,,,,,,,,,,,,,,,,,,,,,,,,,,,,,,,,,,,,,,,,,,,,,,,
1577420097.437117,63.000000,0.000000,4266.666504,4380.512695,4213.333496,4131.794922,4188.205078,0.000000,4.000000,,,,0.000000,4.000000,4.000000,4.000000,4.000000,4.000000,,,,,,,,,,,,,,,,,,,,,,,,,,,,,,,,,,,,,,,,,,,,,,,,,,,,,,,,
1577420097.445014,64.000000,0.000000,4272.820313,4344.615234,4212.307617,4187.692383,4194.871582,450.000000,4.000000,,,,0.000000,4.000000,4.000000,4.000000,4.000000,4.000000,,,,,,,,,,,,,,,,,,,,,,,,,,,,,,,,,,,,,,,,,,,,,,,,,,,,,,,,
1577420097.452811,65.000000,0.000000,4267.692383,4339.487305,4204.102539,4141.025879,4195.897461,450.000000,4.000000,,,,0.000000,4.000000,4.000000,4.000000,4.000000,4.000000,,,,,,,,,,,,,,,,,,,,,,,,,,,,,,,,,,,,,,,,,,,,,,,,,,,,,,,,
1577420097.460708,66.000000,0.000000,4261.025879,4370.256348,4208.205078,4059.487061,4195.897461,16227.000000,4.000000,,,,0.000000,4.000000,4.000000,4.000000,4.000000,4.000000,,,,,,,,,,,,,,,,,,,,,,,,,,,,,,,,,,,,,,,,,,,,,,,,,,,,,,,,
1577420097.468505,67.000000,0.000000,4267.179688,4383.077148,4218.974121,4110.256348,4207.692383,450.000000,4.000000,,,,0.000000,4.000000,4.000000,4.000000,4.000000,4.000000,,,,,,,,,,,,,,,,,,,,,,,,,,,,,,,,,,,,,,,,,,,,,,,,,,,,,,,,
1577420097.476402,68.000000,0.000000,4275.897461,4360.000000,4219.487305,4201.538574,4214.358887,16198.000000,4.000000,,,,0.000000,4.000000,4.000000,4.000000,4.000000,4.000000,,,,,,,,,,,,,,,,,,,,,,,,,,,,,,,,27.701260,7.541351,4.024126,2.886713,4.089382,4.090038,1.569645,2.610164,2.066688,3.660428,6.377011,2.255811,1.530905,1.006583,1.016974,7.779885,2.881057,3.671131,12.736873,25.935345,16.732359,4.477070,2.671680,1.565515,1.285346
1577420097.484199,69.000000,0.000000,4255.897461,4336.922852,4210.256348,4143.077148,4195.384766,450.000000,4.000000,,,,0.000000,4.000000,4.000000,4.000000,4.000000,4.000000,,,,,,,,,,,,,,,,,,,,,,,,,,,,,,,,,,,,,,,,,,,,,,,,,,,,,,,,
1577420097.492096,70.000000,0.000000,4225.128418,4363.589844,4203.589844,4078.461426,4172.307617,16129.000000,4.000000,,,,0.000000,4.000000,4.000000,4.000000,4.000000,4.000000,,,,,,,,,,,,,,,,,,,,,,,,,,,,,,,,,,,,,,,,,,,,,,,,,,,,,,,,
1577420097.499993,71.000000,0.000000,4226.153809,4391.282227,4197.948730,4132.307617,4181.025879,450.000000,4.000000,,,,0.000000,4.000000,4.000000,4.000000,4.000000,4.000000,,,,,,,,,,,,,,,,,,,,,,,,,,,,,,,,,,,,,,,,,,,,,,,,,,,,,,,,
1577420097.507790,72.000000,0.000000,4248.205078,4372.820313,4188.205078,4143.589844,4215.897461,450.000000,4.000000,,,,0.000000,4.000000,4.000000,4.000000,4.000000,4.000000,,,,,,,,,,,,,,,,,,,,,,,,,,,,,,,,,,,,,,,,,,,,,,,,,,,,,,,,
1577420097.515688,73.000000,0.000000,4264.102539,4353.333496,4184.615234,4089.743652,4240.000000,16136.000000,4.000000,,,,0.000000,4.000000,4.000000,4.000000,4.000000,4.000000,,,,,,,,,,,,,,,,,,,,,,,,,,,,,,,,,,,,,,,,,,,,,,,,,,,,,,,,
1577420097.523485,74.000000,0.000000,4271.282227,4361.025879,4185.641113,4147.692383,4245.128418,450.000000,4.000000,,,,0.000000,4.000000,4.000000,4.000000,4.000000,4.000000,,,,,,,,,,,,,,,,,,,,,,,,,,,,,,,,,,,,,,,,,,,,,,,,,,,,,,,,
1577420097.531382,75.000000,0.000000,4271.282227,4375.384766,4186.153809,4211.794922,4247.179688,16219.000000,4.000000,,,,0.000000,4.000000,4.000000,4.000000,4.000000,4.000000,,,,,,,,,,,,,,,,,,,,,,,,,,,,,,,,,,,,,,,,,,,,,,,,,,,,,,,,
1577420097.539179,76.000000,0.000000,4271.282227,4386.153809,4194.358887,4137.436035,4253.846191,450.000000,4.000000,,,,0.000000,4.000000,4.000000,4.000000,4.000000,4.000000,,,,,,,,,,,,,,,,,,,,,,,,,,,,,,,,,,,,,,,,,,,,,,,,,,,,,,,,
1577420097.547076,77.000000,0.000000,4275.384766,4374.871582,4198.461426,4121.025879,4257.436035,450.000000,4.000000,,,,0.000000,4.000000,4.000000,4.000000,4.000000,4.000000,,,,,,,,,,,,,,,,,,,,,,,,,,,,,,,,,,,,,,,,,,,,,,,,,,,,,,,,
1577420097.554874,78.000000,0.000000,4292.820313,4357.948730,4202.563965,4207.179688,4268.205078,450.000000,4.000000,,,,0.000000,4.000000,4.000000,4.000000,4.000000,4.000000,,,,,,,,,,,,,,,,,,,,,,,,,,,,,,,,,,,,,,,,,,,,,,,,,,,,,,,,
1577420097.562771,79.000000,0.000000,4303.589844,4369.743652,4209.743652,4193.846191,4282.563965,16219.000000,4.000000,,,,0.000000,4.000000,4.000000,4.000000,4.000000,4.000000,,,,,,,,,,,,,,,,,,,,,,,,,,,,,,,,,,,,,,,,,,,,,,,,,,,,,,,,
1577420097.570568,80.000000,0.000000,4278.974121,4373.846191,4194.358887,4140.512695,4267.692383,450.000000,4.000000,,,,0.000000,4.000000,4.000000,4.000000,4.000000,4.000000,,,,,,,,,,,,,,,,,,,,,,,,,,,,,,,,,,,,,,,,,,,,,,,,,,,,,,,,
1577420097.578465,81.000000,0.000000,4254.871582,4345.641113,4179.487305,4148.717773,4244.615234,450.000000,4.000000,,,,0.000000,4.000000,4.000000,4.000000,4.000000,4.000000,,,,,,,,,,,,,,,,,,,,,,,,,,,,,,,,,,,,,,,,,,,,,,,,,,,,,,,,
1577420097.586262,82.000000,0.000000,4254.871582,4329.743652,4181.538574,4146.153809,4246.666504,450.000000,4.000000,,,,0.000000,4.000000,4.000000,4.000000,4.000000,4.000000,,,,,,,,,,,,,,,,,,,,,,,,,,,,,,,,,,,,,,,,,,,,,,,,,,,,,,,,
1577420097.594159,83.000000,0.000000,4248.205078,4352.307617,4176.922852,4184.102539,4245.128418,16219.000000,4.000000,,,,0.000000,4.000000,4.000000,4.000000,4.000000,4.000000,,,,,,,,,,,,,,,,,,,,,,,,,,,,,,,,,,,,,,,,,,,,,,,,,,,,,,,,
1577420097.601956,84.000000,0.000000,4233.333496,4349.230957,4169.230957,4236.410156,4233.333496,450.000000,4.000000,,,,0.000000,4.000000,4.000000,4.000000,4.000000,4.000000,,,,,,,,,,,,,,,,,,,,,,,,,,,,,,,,26.866873,12.547186,7.350332,4.656650,6.761759,3.156616,2.271985,3.202546,3.096134,5.049882,10.517148,3.267207,2.018954,1.337820,1.276043,11.235778,5.124100,6.121360,14.716720,29.323105,17.329584,8.118556,4.576715,2.421263,1.630204
1577420097.609853,85.000000,0.000000,4233.846191,4318.461426,4175.897461,4172.307617,4240.512695,450.000000,4.000000,,,,0.000000,4.000000,4.000000,4.000000,4.000000,4.000000,,,,,,,,,,,,,,,,,,,,,,,,,,,,,,,,,,,,,,,,,,,,,,,,,,,,,,,,
1577420097.617650,86.000000,0.000000,4237.948730,4339.487305,4178.461426,4075.384521,4249.230957,450.000000,4.000000,,,,0.000000,4.000000,4.000000,4.000000,4.000000,4.000000,,,,,,,,,,,,,,,,,,,,,,,,,,,,,,,,,,,,,,,,,,,,,,,,,,,,,,,,
1577420097.625447,87.000000,0.000000,4230.256348,4368.717773,4167.692383,4150.769043,4243.589844,16219.000000,4.000000,,,,0.000000,4.000000,4.000000,4.000000,4.000000,4.000000,,,,,,,,,,,,,,,,,,,,,,,,,,,,,,,,,,,,,,,,,,,,,,,,,,,,,,,,
1577420097.633144,88.000000,0.000000,4236.410156,4340.512695,4171.794922,4237.436035,4256.922852,450.000000,4.000000,,,,0.000000,4.000000,4.000000,4.000000,4.000000,4.000000,,,,,,,,,,,,,,,,,,,,,,,,,,,,,,,,,,,,,,,,,,,,,,,,,,,,,,,,
1577420097.641041,89.000000,0.000000,4256.922852,4329.743652,4181.538574,4146.153809,4275.897461,450.000000,4.000000,,,,0.000000,4.000000,4.000000,4.000000,4.000000,4.000000,,,,,,,,,,,,,,,,,,,,,,,,,,,,,,,,,,,,,,,,,,,,,,,,,,,,,,,,
1577420097.648838,90.000000,0.000000,4258.461426,4366.666504,4170.769043,4131.282227,4277.948730,450.000000,4.000000,,,,0.000000,4.000000,4.000000,4.000000,4.000000,4.000000,,,,,,,,,,,,,,,,,,,,,,,,,,,,,,,,,,,,,,,,,,,,,,,,,,,,,,,,
1577420097.656735,91.000000,0.000000,4240.512695,4364.102539,4153.846191,4207.179688,4265.128418,16219.000000,4.000000,,,,0.000000,4.000000,4.000000,4.000000,4.000000,4.000000,,,,,,,,,,,,,,,,,,,,,,,,,,,,,,,,,,,,,,,,,,,,,,,,,,,,,,,,
1577420097.664532,92.000000,0.000000,4227.179688,4327.692383,4153.846191,4178.974121,4254.358887,450.000000,4.000000,,,,0.000000,4.000000,4.000000,4.000000,4.000000,4.000000,,,,,,,,,,,,,,,,,,,,,,,,,,,,,,,,,,,,,,,,,,,,,,,,,,,,,,,,
1577420097.672428,93.000000,0.000000,4215.384766,4313.846191,4151.282227,4197.948730,4240.512695,450.000000,4.000000,,,,0.000000,4.000000,4.000000,4.000000,4.000000,4.000000,,,,,,,,,,,,,,,,,,,,,,,,,,,,,,,,,,,,,,,,,,,,,,,,,,,,,,,,
1577420097.680225,94.000000,0.000000,4197.948730,4334.871582,4143.077148,4183.589844,4223.589844,450.000000,4.000000,,,,0.000000,4.000000,4.000000,4.000000,4.000000,4.000000,,,,,,,,,,,,,,,,,,,,,,,,,,,,,,,,,,,,,,,,,,,,,,,,,,,,,,,,
1577420097.688122,95.000000,0.000000,4201.025879,4355.897461,4157.948730,4051.794922,4234.358887,16219.000000,4.000000,,,,0.000000,4.000000,4.000000,4.000000,4.000000,4.000000,,,,,,,,,,,,,,,,,,,,,,,,,,,,,,,,,,,,,,,,,,,,,,,,,,,,,,,,
1577420097.696019,96.000000,0.000000,4200.512695,4347.179688,4177.436035,4157.948730,4243.589844,450.000000,4.000000,,,,0.000000,4.000000,4.000000,4.000000,4.000000,4.000000,,,,,,,,,,,,,,,,,,,,,,,,,,,,,,,,,,,,,,,,,,,,,,,,,,,,,,,,
1577420097.703817,97.000000,0.000000,4182.563965,4342.051270,4171.282227,4265.641113,4229.743652,450.000000,4.000000,,,,0.000000,4.000000,4.000000,4.000000,4.000000,4.000000,,,,,,,,,,,,,,,,,,,,,,,,,,,,,,,,,,,,,,,,,,,,,,,,,,,,,,,,
1577420097.711714,98.000000,0.000000,4183.077148,4344.615234,4166.153809,4080.512939,4233.333496,450.000000,4.000000,,,,0.000000,4.000000,4.000000,4.000000,4.000000,4.000000,,,,,,,,,,,,,,,,,,,,,,,,,,,,,,,,,,,,,,,,,,,,,,,,,,,,,,,,
1577420097.719511,99.000000,0.000000,4192.820313,4347.179688,4173.846191,4100.512695,4243.589844,16219.000000,4.000000,,,,0.000000,4.000000,4.000000,4.000000,4.000000,4.000000,,,,,,,,,,,,,,,,,,,,,,,,,,,,,,,,,,,,,,,,,,,,,,,,,,,,,,,,
1577420097.727408,100.000000,0.000000,4194.358887,4361.025879,4177.948730,4271.794922,4237.948730,450.000000,4.000000,,,,0.000000,4.000000,4.000000,4.000000,4.000000,4.000000,,,,,,,,,,,,,,,,,,,,,,,,,,,,,,,,29.215906,19.839935,11.551221,7.049516,10.378498,3.262096,3.295813,4.236559,4.416577,7.106194,15.419045,4.784729,2.727100,1.805006,1.668752,15.188249,8.142271,8.999204,16.948400,33.828011,19.361759,13.329683,7.043176,3.663023,2.155881
1577420097.735205,101.000000,0.000000,4214.358887,4369.743652,4191.794922,4167.179688,4247.179688,450.000000,4.000000,,,,0.000000,4.000000,4.000000,4.000000,4.000000,4.000000,,,,,,,,,,,,,,,,,,,,,,,,,,,,,,,,,,,,,,,,,,,,,,,,,,,,,,,,
1577420097.743003,102.000000,0.000000,4228.205078,4361.538574,4198.461426,4076.410156,4253.333496,450.000000,4.000000,,,,0.000000,4.000000,4.000000,4.000000,4.000000,4.000000,,,,,,,,,,,,,,,,,,,,,,,,,,,,,,,,,,,,,,,,,,,,,,,,,,,,,,,,
1577420097.750700,103.000000,0.000000,4201.025879,4357.948730,4182.563965,4167.179688,4232.307617,16219.000000,4.000000,,,,0.000000,4.000000,4.000000,4.000000,4.000000,4.000000,,,,,,,,,,,,,,,,,,,,,,,,,,,,,,,,,,,,,,,,,,,,,,,,,,,,,,,,
1577420097.758597,104.000000,0.000000,4187.692383,4362.563965,4173.333496,4165.128418,4221.538574,450.000000,4.000000,,,,0.000000,4.000000,4.000000,4.000000,4.000000,4.000000,,,,,,,,,,,,,,,,,,,,,,,,,,,,,,,,,,,,,,,,,,,,,,,,,,,,,,,,
1577420097.766394,105.000000,0.000000,4207.179688,4375.384766,4182.051270,4137.436035,4233.333496,450.000000,4.000000,,,,0.000000,4.000000,4.000000,4.000000,4.000000,4.000000,,,,,,,,,,,,,,,,,,,,,,,,,,,,,,,,,,,,,,,,,,,,,,,,,,,,,,,,
1577420097.774291,106.000000,0.000000,4215.384766,4392.820313,4195.897461,4193.846191,4243.077148,450.000000,4.000000,,,,0.000000,4.000000,4.000000,4.000000,4.000000,4.000000,,,,,,,,,,,,,,,,,,,,,,,,,,,,,,,,,,,,,,,,,,,,,,,,,,,,,,,,
1577420097.782089,107.000000,0.000000,4221.025879,4375.384766,4213.333496,4211.282227,4244.615234,16219.000000,4.000000,,,,0.000000,4.000000,4.000000,4.000000,4.000000,4.000000,,,,,,,,,,,,,,,,,,,,,,,,,,,,,,,,,,,,,,,,,,,,,,,,,,,,,,,,
1577420097.789886,108.000000,0.000000,4229.230957,4356.922852,4229.230957,4125.128418,4246.666504,450.000000,4.000000,,,,0.000000,4.000000,4.000000,4.000000,4.000000,4.000000,,,,,,,,,,,,,,,,,,,,,,,,,,,,,,,,,,,,,,,,,,,,,,,,,,,,,,,,
1577420097.797583,109.000000,0.000000,4215.384766,4381.538574,4223.077148,4061.025635,4236.410156,450.000000,4.000000,,,,0.000000,4.000000,4.000000,4.000000,4.000000,4.000000,,,,,,,,,,,,,,,,,,,,,,,,,,,,,,,,,,,,,,,,,,,,,,,,,,,,,,,,
1577420097.805480,110.000000,0.000000,4202.051270,4387.692383,4207.692383,4177.436035,4225.128418,450.000000,4.000000,,,,0.000000,4.000000,4.000000,4.000000,4.000000,4.000000,,,,,,,,,,,,,,,,,,,,,,,,,,,,,,,,,,,,,,,,,,,,,,,,,,,,,,,,
1577420097.813377,111.000000,0.000000,4206.153809,4350.769043,4206.153809,4252.820313,4226.666504,16219.000000,4.000000,,,,0.000000,4.000000,4.000000,4.000000,4.000000,4.000000,,,,,,,,,,,,,,,,,,,,,,,,,,,,,,,,,,,,,,,,,,,,,,,,,,,,,,,,
1577420097.821174,112.000000,0.000000,4201.025879,4341.025879,4203.077148,4101.538574,4222.051270,450.000000,4.000000,,,,0.000000,4.000000,4.000000,4.000000,4.000000,4.000000,,,,,,,,,,,,,,,,,,,,,,,,,,,,,,,,,,,,,,,,,,,,,,,,,,,,,,,,
1577420097.828971,113.000000,0.000000,4187.692383,4367.692383,4190.256348,4057.948730,4220.512695,450.000000,4.000000,,,,0.000000,4.000000,4.000000,4.000000,4.000000,4.000000,,,,,,,,,,,,,,,,,,,,,,,,,,,,,,,,,,,,,,,,,,,,,,,,,,,,,,,,
1577420097.836868,114.000000,0.000000,4176.922852,4366.666504,4176.410156,4167.692383,4213.846191,450.000000,4.000000,,,,0.000000,4.000000,4.000000,4.000000,4.000000,4.000000,,,,,,,,,,,,,,,,,,,,,,,,,,,,,,,,,,,,,,,,,,,,,,,,,,,,,,,,
1577420097.844665,115.000000,0.000000,4175.384766,4342.563965,4168.717773,4150.256348,4197.436035,16219.000000,4.000000,,,,0.000000,4.000000,4.000000,4.000000,4.000000,4.000000,,,,,,,,,,,,,,,,,,,,,,,,,,,,,,,,,,,,,,,,,,,,,,,,,,,,,,,,
1577420097.852562,116.000000,0.000000,4193.846191,4352.820313,4176.410156,4106.153809,4212.307617,450.000000,4.000000,,,,0.000000,4.000000,4.000000,4.000000,4.000000,4.000000,,,,,,,,,,,,,,,,,,,,,,,,,,,,,,,,31.856049,27.742701,15.496423,9.398752,13.805655,3.838695,4.456851,5.451061,5.654292,9.246264,19.577496,6.424902,3.493925,2.287105,2.083492,18.460665,11.231273,11.550612,19.105080,39.184677,21.504585,19.058367,9.446732,5.007963,2.691437
1577420097.860359,117.000000,0.000000,4219.487305,4380.000000,4187.692383,4134.358887,4248.717773,450.000000,4.000000,,,,0.000000,4.000000,4.000000,4.000000,4.000000,4.000000,,,,,,,,,,,,,,,,,,,,,,,,,,,,,,,,,,,,,,,,,,,,,,,,,,,,,,,,
1577420097.868256,118.000000,0.000000,4212.820313,4360.512695,4174.358887,4120.512695,4242.051270,450.000000,4.000000,,,,0.000000,4.000000,4.000000,4.000000,4.000000,4.000000,,,,,,,,,,,,,,,,,,,,,,,,,,,,,,,,,,,,,,,,,,,,,,,,,,,,,,,,
1577420097.876053,119.000000,0.000000,4211.282227,4341.538574,4170.256348,4189.743652,4235.897461,16219.000000,4.000000,,,,0.000000,4.000000,4.000000,4.000000,4.000000,4.000000,,,,,,,,,,,,,,,,,,,,,,,,,,,,,,,,,,,,,,,,,,,,,,,,,,,,,,,,
1577420097.883950,120.000000,0.000000,4243.077148,4362.051270,4183.077148,4220.512695,4273.846191,450.000000,4.000000,,,,0.000000,4.000000,4.000000,4.000000,4.000000,4.000000,,,,,,,,,,,,,,,,,,,,,,,,,,,,,,,,,,,,,,,,,,,,,,,,,,,,,,,,
1577420097.891747,121.000000,0.000000,4233.333496,4347.692383,4150.769043,4108.717773,4266.666504,450.000000,4.000000,,,,0.000000,4.000000,4.000000,4.000000,4.000000,4.000000,,,,,,,,,,,,,,,,,,,,,,,,,,,,,,,,,,,,,,,,,,,,,,,,,,,,,,,,
1577420097.899644,122.000000,0.000000,4190.256348,4325.641113,4110.256348,4166.153809,4214.358887,450.000000,4.000000,,,,0.000000,4.000000,4.000000,4.000000,4.000000,4.000000,,,,,,,,,,,,,,,,,,,,,,,,,,,,,,,,,,,,,,,,,,,,,,,,,,,,,,,,
1577420097.907441,123.000000,0.000000,4204.102539,4346.666504,4124.102539,4226.153809,4228.205078,16219.000000,4.000000,,,,0.000000,4.000000,4.000000,4.000000,4.000000,4.000000,,,,,,,,,,,,,,,,,,,,,,,,,,,,,,,,,,,,,,,,,,,,,,,,,,,,,,,,
1577420097.915338,124.000000,0.000000,4253.333496,4347.692383,4150.256348,4072.820557,4284.615234,450.000000,4.000000,,,,0.000000,4.000000,4.000000,4.000000,4.000000,4.000000,,,,,,,,,,,,,,,,,,,,,,,,,,,,,,,,,,,,,,,,,,,,,,,,,,,,,,,,
1577420097.923135,125.000000,0.000000,4247.692383,4305.641113,4129.743652,4117.948730,4272.820313,450.000000,4.000000,,,,0.000000,4.000000,4.000000,4.000000,4.000000,4.000000,,,,,,,,,,,,,,,,,,,,,,,,,,,,,,,,,,,,,,,,,,,,,,,,,,,,,,,,
1577420097.930832,126.000000,0.000000,4219.487305,4315.384766,4105.641113,4224.102539,4236.922852,450.000000,4.000000,,,,0.000000,4.000000,4.000000,4.000000,4.000000,4.000000,,,,,,,,,,,,,,,,,,,,,,,,,,,,,,,,,,,,,,,,,,,,,,,,,,,,,,,,
1577420097.938629,127.000000,0.000000,4238.974121,4366.153809,4125.641113,4084.615479,4261.538574,236.000000,4.000000,,,,0.000000,4.000000,4.000000,4.000000,4.000000,4.000000,,,,,,,,,,,,,,,,,,,,,,,,,,,,,,,,,,,,,,,,,,,,,,,,,,,,,,,,
1577420097.946326,0.000000,0.000000,4272.307617,4358.461426,4145.641113,4121.538574,4294.358887,450.000000,4.000000,,,,0.000000,4.000000,4.000000,4.000000,4.000000,4.000000,,,,,,,,,,,,,,,,,,,,,,,,,,,,,,,,,,,,,,,,,,,,,,,,,,,,,,,,
1577420097.954223,1.000000,0.000000,4268.205078,4322.563965,4130.256348,4266.666504,4287.692383,450.000000,4.000000,,,,0.000000,4.000000,4.000000,4.000000,4.000000,4.000000,,,,,,,,,,,,,,,,,,,,,,,,,,,,,,,,,,,,,,,,,,,,,,,,,,,,,,,,
1577420097.962020,2.000000,0.000000,4246.666504,4326.153809,4107.179688,4183.077148,4259.487305,16231.000000,4.000000,,,,0.000000,4.000000,4.000000,4.000000,4.000000,4.000000,,,,,,,,,,,,,,,,,,,,,,,,,,,,,,,,,,,,,,,,,,,,,,,,,,,,,,,,
1577420097.969918,3.000000,0.000000,4249.230957,4355.897461,4109.230957,4170.256348,4254.358887,450.000000,4.000000,,,,0.000000,4.000000,4.000000,4.000000,4.000000,4.000000,,,,,,,,,,,,,,,,,,,,,,,,,,,,,,,,,,,,,,,,,,,,,,,,,,,,,,,,
1577420097.977715,4.000000,0.000000,4252.820313,4345.641113,4114.358887,4187.692383,4261.538574,16193.000000,4.000000,,,,0.000000,4.000000,4.000000,4.000000,4.000000,4.000000,,,,,,,,,,,,,,,,,,,,,,,,,,,,,,,,32.420769,33.995647,17.870361,10.949324,15.844572,4.469500,5.436439,6.410161,6.393051,10.760574,21.654581,7.700305,4.124539,2.643212,2.376485,19.867395,13.449564,12.981843,20.693853,44.610878,22.542099,23.687353,11.021870,6.078938,3.047344
1577420097.985612,5.000000,0.000000,4233.333496,4289.230957,4106.666504,4109.230957,4250.769043,450.000000,4.000000,,,,0.000000,4.000000,4.000000,4.000000,4.000000,4.000000,,,,,,,,,,,,,,,,,,,,,,,,,,,,,,,,,,,,,,,,,,,,,,,,,,,,,,,,
1577420097.993409,6.000000,0.000000,4229.230957,4281.025879,4115.897461,4157.948730,4251.282227,16128.000000,4.000000,,,,0.000000,4.000000,4.000000,4.000000,4.000000,4.000000,,,,,,,,,,,,,,,,,,,,,,,,,,,,,,,,,,,,,,,,,,,,,,,,,,,,,,,,
1577420098.001306,7.000000,0.000000,4244.615234,4312.820313,4130.769043,4249.743652,4266.666504,450.000000,4.000000,,,,0.000000,4.000000,4.000000,4.000000,4.000000,4.000000,,,,,,,,,,,,,,,,,,,,,,,,,,,,,,,,,,,,,,,,,,,,,,,,,,,,,,,,
1577420098.009103,8.000000,0.000000,4253.846191,4299.487305,4131.282227,4244.615234,4274.871582,450.000000,4.000000,,,,0.000000,4.000000,4.000000,4.000000,4.000000,4.000000,,,,,,,,,,,,,,,,,,,,,,,,,,,,,,,,,,,,,,,,,,,,,,,,,,,,,,,,
1577420098.017000,9.000000,0.000000,4266.666504,4270.256348,4137.436035,4286.153809,4283.077148,16164.000000,4.000000,,,,0.000000,4.000000,4.000000,4.000000,4.000000,4.000000,,,,,,,,,,,,,,,,,,,,,,,,,,,,,,,,,,,,,,,,,,,,,,,,,,,,,,,,
1577420098.024797,10.000000,0.000000,4262.051270,4293.846191,4141.025879,4221.025879,4276.410156,450.000000,4.000000,,,,0.000000,4.000000,4.000000,4.000000,4.000000,4.000000,,,,,,,,,,,,,,,,,,,,,,,,,,,,,,,,,,,,,,,,,,,,,,,,,,,,,,,,
1577420098.032693,11.000000,0.000000,4245.128418,4330.256348,4128.205078,4132.820313,4256.410156,16217.000000,4.000000,,,,0.000000,4.000000,4.000000,4.000000,4.000000,4.000000,,,,,,,,,,,,,,,,,,,,,,,,,,,,,,,,,,,,,,,,,,,,,,,,,,,,,,,,
1577420098.040490,12.000000,0.000000,4250.256348,4318.974121,4130.769043,4276.922852,4253.846191,450.000000,4.000000,,,,0.000000,4.000000,4.000000,4.000000,4.000000,4.000000,,,,,,,,,,,,,,,,,,,,,,,,,,,,,,,,,,,,,,,,,,,,,,,,,,,,,,,,
1577420098.048387,13.000000,0.000000,4241.025879,4279.487305,4130.256348,4300.000000,4248.205078,450.000000,4.000000,,,,0.000000,4.000000,4.000000,4.000000,4.000000,4.000000,,,,,,,,,,,,,,,,,,,,,,,,,,,,,,,,,,,,,,,,,,,,,,,,,,,,,,,,
1577420098.056184,14.000000,0.000000,4217.948730,4278.974121,4106.153809,4209.230957,4226.666504,450.000000,4.000000,,,,0.000000,4.000000,4.000000,4.000000,4.000000,4.000000,,,,,,,,,,,,,,,,,,,,,,,,,,,,,,,,,,,,,,,,,,,,,,,,,,,,,,,,
1577420098.064081,15.000000,0.000000,4221.025879,4312.307617,4092.307617,4248.717773,4211.794922,16217.000000,4.000000,,,,0.000000,4.000000,4.000000,4.000000,4.000000,4.000000,,,,,,,,,,,,,,,,,,,,,,,,,,,,,,,,,,,,,,,,,,,,,,,,,,,,,,,,
1577420098.071878,16.000000,0.000000,4224.102539,4313.846191,4097.436035,4218.461426,4206.666504,0.000000,4.000000,,,,0.000000,4.000000,4.000000,4.000000,4.000000,4.000000,,,,,,,,,,,,,,,,,,,,,,,,,,,,,,,,,,,,,,,,,,,,,,,,,,,,,,,,
1577420098.079775,17.000000,0.000000,4231.794922,4303.589844,4110.256348,4163.077148,4211.794922,0.000000,4.000000,,,,0.000000,4.000000,4.000000,4.000000,4.000000,4.000000,,,,,,,,,,,,,,,,,,,,,,,,,,,,,,,,,,,,,,,,,,,,,,,,,,,,,,,,
1577420098.087572,18.000000,0.000000,4255.384766,4313.846191,4123.077148,4191.282227,4226.153809,0.000000,4.000000,,,,0.000000,4.000000,4.000000,4.000000,4.000000,4.000000,,,,,,,,,,,,,,,,,,,,,,,,,,,,,,,,,,,,,,,,,,,,,,,,,,,,,,,,
1577420098.095269,19.000000,0.000000,4258.974121,4322.563965,4127.179688,4194.871582,4228.717773,0.000000,4.000000,,,,0.000000,4.000000,4.000000,4.000000,4.000000,4.000000,,,,,,,,,,,,,,,,,,,,,,,,,,,,,,,,,,,,,,,,,,,,,,,,,,,,,,,,
1577420098.103166,20.000000,0.000000,4262.563965,4324.615234,4137.948730,4223.589844,4233.846191,0.000000,4.000000,,,,0.000000,4.000000,4.000000,4.000000,4.000000,4.000000,,,,,,,,,,,,,,,,,,,,,,,,,,,,,,,,30.213131,36.497849,17.888685,11.173861,15.751781,4.822948,5.903534,6.738364,6.348233,11.137670,21.262190,8.164966,4.479413,2.764742,2.435850,18.901730,14.064299,12.803948,21.218252,49.106644,21.837585,25.703913,11.264594,6.552041,3.099044
1577420098.110964,21.000000,0.000000,4275.384766,4310.769043,4150.769043,4285.128418,4248.717773,0.000000,4.000000,,,,0.000000,4.000000,4.000000,4.000000,4.000000,4.000000,,,,,,,,,,,,,,,,,,,,,,,,,,,,,,,,,,,,,,,,,,,,,,,,,,,,,,,,
1577420098.118861,22.000000,0.000000,4256.922852,4303.589844,4142.051270,4208.205078,4235.897461,0.000000,4.000000,,,,0.000000,4.000000,4.000000,4.000000,4.000000,4.000000,,,,,,,,,,,,,,,,,,,,,,,,,,,,,,,,,,,,,,,,,,,,,,,,,,,,,,,,
1577420098.126658,23.000000,0.000000,4234.871582,4313.846191,4133.846191,4138.461426,4213.846191,0.000000,4.000000,,,,0.000000,4.000000,4.000000,4.000000,4.000000,4.000000,,,,,,,,,,,,,,,,,,,,,,,,,,,,,,,,,,,,,,,,,,,,,,,,,,,,,,,,
1577420098.134555,24.000000,0.000000,4237.436035,4299.487305,4148.717773,4244.102539,4221.538574,0.000000,4.000000,,,,0.000000,4.000000,4.000000,4.000000,4.000000,4.000000,,,,,,,,,,,,,,,,,,,,,,,,,,,,,,,,,,,,,,,,,,,,,,,,,,,,,,,,
1577420098.142352,25.000000,0.000000,4245.128418,4285.641113,4166.153809,4267.179688,4238.974121,0.000000,4.000000,,,,0.000000,4.000000,4.000000,4.000000,4.000000,4.000000,,,,,,,,,,,,,,,,,,,,,,,,,,,,,,,,,,,,,,,,,,,,,,,,,,,,,,,,
1577420098.150250,26.000000,0.000000,4226.666504,4310.769043,4158.974121,4184.615234,4223.077148,0.000000,4.000000,,,,0.000000,4.000000,4.000000,4.000000,4.000000,4.000000,,,,,,,,,,,,,,,,,,,,,,,,,,,,,,,,,,,,,,,,,,,,,,,,,,,,,,,,
1577420098.158047,27.000000,0.000000,4218.974121,4318.974121,4161.538574,4235.897461,4208.717773,0.000000,4.000000,,,,0.000000,4.000000,4.000000,4.000000,4.000000,4.000000,,,,,,,,,,,,,,,,,,,,,,,,,,,,,,,,,,,,,,,,,,,,,,,,,,,,,,,,
1577420098.165944,28.000000,0.000000,4241.538574,4288.717773,4192.307617,4324.615234,4224.102539,0.000000,4.000000,,,,0.000000,4.000000,4.000000,4.000000,4.000000,4.000000,,,,,,,,,,,,,,,,,,,,,,,,,,,,,,,,,,,,,,,,,,,,,,,,,,,,,,,,
1577420098.173741,29.000000,0.000000,4253.333496,4291.794922,4214.358887,4280.000000,4243.077148,0.000000,4.000000,,,,0.000000,4.000000,4.000000,4.000000,4.000000,4.000000,,,,,,,,,,,,,,,,,,,,,,,,,,,,,,,,,,,,,,,,,,,,,,,,,,,,,,,,
1577420098.181638,30.000000,0.000000,4247.179688,4328.717773,4216.410156,4280.512695,4245.128418,0.000000,4.000000,,,,0.000000,4.000000,4.000000,4.000000,4.000000,4.000000,,,,,,,,,,,,,,,,,,,,,,,,,,,,,,,,,,,,,,,,,,,,,,,,,,,,,,,,
1577420098.189435,31.000000,0.000000,4231.282227,4335.384766,4199.487305,4348.717773,4225.128418,0.000000,4.000000,,,,0.000000,4.000000,4.000000,4.000000,4.000000,4.000000,,,,,,,,,,,,,,,,,,,,,,,,,,,,,,,,,,,,,,,,,,,,,,,,,,,,,,,,
1577420098.197332,32.000000,0.000000,4235.897461,4324.102539,4196.922852,4291.794922,4227.179688,0.000000,4.000000,,,,0.000000,4.000000,4.000000,4.000000,4.000000,4.000000,,,,,,,,,,,,,,,,,,,,,,,,,,,,,,,,,,,,,,,,,,,,,,,,,,,,,,,,
1577420098.205129,33.000000,0.000000,4258.974121,4333.846191,4214.871582,4272.820313,4246.666504,0.000000,4.000000,,,,0.000000,4.000000,4.000000,4.000000,4.000000,4.000000,,,,,,,,,,,,,,,,,,,,,,,,,,,,,,,,,,,,,,,,,,,,,,,,,,,,,,,,
1577420098.213026,34.000000,0.000000,4253.333496,4330.256348,4204.615234,4370.256348,4237.948730,0.000000,4.000000,,,,0.000000,4.000000,4.000000,4.000000,4.000000,4.000000,,,,,,,,,,,,,,,,,,,,,,,,,,,,,,,,,,,,,,,,,,,,,,,,,,,,,,,,
1577420098.220823,35.000000,0.000000,4236.410156,4292.307617,4170.769043,4345.641113,4217.948730,0.000000,4.000000,,,,0.000000,4.000000,4.000000,4.000000,4.000000,4.000000,,,,,,,,,,,,,,,,,,,,,,,,,,,,,,,,,,,,,,,,,,,,,,,,,,,,,,,,
1577420098.228620,36.000000,0.000000,4250.769043,4291.282227,4166.153809,4261.025879,4235.897461,0.000000,4.000000,,,,0.000000,4.000000,4.000000,4.000000,4.000000,4.000000,,,,,,,,,,,,,,,,,,,,,,,,,,,,,,,,25.822603,34.532047,15.621641,10.008451,13.564415,4.725196,5.703654,6.302927,5.516341,10.307491,18.757286,7.625268,4.540231,2.622271,2.240083,15.923354,12.949130,11.163213,20.463068,51.845940,19.362562,24.525028,10.154570,6.288913,2.849061
1577420098.236317,37.000000,0.000000,4271.282227,4333.846191,4183.589844,4267.692383,4272.820313,0.000000,4.000000,,,,0.000000,4.000000,4.000000,4.000000,4.000000,4.000000,,,,,,,,,,,,,,,,,,,,,,,,,,,,,,,,,,,,,,,,,,,,,,,,,,,,,,,,
1577420098.244214,38.000000,0.000000,4265.641113,4329.743652,4182.051270,4370.769043,4276.922852,0.000000,4.000000,,,,0.000000,4.000000,4.000000,4.000000,4.000000,4.000000,,,,,,,,,,,,,,,,,,,,,,,,,,,,,,,,,,,,,,,,,,,,,,,,,,,,,,,,
1577420098.252111,39.000000,0.000000,4267.179688,4296.410156,4172.307617,4488.717773,4276.410156,0.000000,4.000000,,,,0.000000,4.000000,4.000000,4.000000,4.000000,4.000000,,,,,,,,,,,,,,,,,,,,,,,,,,,,,,,,,,,,,,,,,,,,,,,,,,,,,,,,
1577420098.259908,40.000000,0.000000,4278.461426,4307.179688,4165.641113,4443.589844,4288.205078,0.000000,4.000000,,,,0.000000,4.000000,4.000000,4.000000,4.000000,4.000000,,,,,,,,,,,,,,,,,,,,,,,,,,,,,,,,,,,,,,,,,,,,,,,,,,,,,,,,
1577420098.267805,41.000000,0.000000,4270.256348,4312.307617,4157.948730,4255.384766,4286.666504,0.000000,4.000000,,,,0.000000,4.000000,4.000000,4.000000,4.000000,4.000000,,,,,,,,,,,,,,,,,,,,,,,,,,,,,,,,,,,,,,,,,,,,,,,,,,,,,,,,
1577420098.275603,42.000000,0.000000,4254.871582,4288.205078,4165.641113,4295.384766,4280.000000,0.000000,4.000000,,,,0.000000,4.000000,4.000000,4.000000,4.000000,4.000000,,,,,,,,,,,,,,,,,,,,,,,,,,,,,,,,,,,,,,,,,,,,,,,,,,,,,,,,
1577420098.283400,43.000000,0.000000,4244.102539,4290.256348,4176.410156,4488.205078,4288.205078,0.000000,4.000000,,,,0.000000,4.000000,4.000000,4.000000,4.000000,4.000000,,,,,,,,,,,,,,,,,,,,,,,,,,,,,,,,,,,,,,,,,,,,,,,,,,,,,,,,
1577420098.291097,44.000000,0.000000,4241.538574,4303.589844,4170.256348,4336.410156,4314.871582,0.000000,4.000000,,,,0.000000,4.000000,4.000000,4.000000,4.000000,4.000000,,,,,,,,,,,,,,,,,,,,,,,,,,,,,,,,,,,,,,,,,,,,,,,,,,,,,,,,
1577420098.298894,45.000000,0.000000,4257.948730,4313.846191,4174.871582,4100.512695,4348.205078,0.000000,4.000000,,,,0.000000,4.000000,4.000000,4.000000,4.000000,4.000000,,,,,,,,,,,,,,,,,,,,,,,,,,,,,,,,,,,,,,,,,,,,,,,,,,,,,,,,
1577420098.306591,46.000000,0.000000,4276.922852,4326.666504,4192.820313,4261.538574,4370.769043,0.000000,4.000000,,,,0.000000,4.000000,4.000000,4.000000,4.000000,4.000000,,,,,,,,,,,,,,,,,,,,,,,,,,,,,,,,,,,,,,,,,,,,,,,,,,,,,,,,
1577420098.314388,47.000000,0.000000,4278.461426,4323.077148,4197.948730,4452.307617,4389.230957,0.000000,4.000000,,,,0.000000,4.000000,4.000000,4.000000,4.000000,4.000000,,,,,,,,,,,,,,,,,,,,,,,,,,,,,,,,,,,,,,,,,,,,,,,,,,,,,,,,
1577420098.322085,48.000000,0.000000,4271.282227,4311.794922,4204.102539,4297.948730,4405.641113,0.000000,4.000000,,,,0.000000,4.000000,4.000000,4.000000,4.000000,4.000000,,,,,,,,,,,,,,,,,,,,,,,,,,,,,,,,,,,,,,,,,,,,,,,,,,,,,,,,
1577420098.329882,49.000000,0.000000,4262.051270,4324.102539,4220.512695,4141.538574,4409.230957,0.000000,4.000000,,,,0.000000,4.000000,4.000000,4.000000,4.000000,4.000000,,,,,,,,,,,,,,,,,,,,,,,,,,,,,,,,,,,,,,,,,,,,,,,,,,,,,,,,
1577420098.337579,50.000000,0.000000,4258.461426,4341.538574,4234.358887,4276.410156,4412.307617,0.000000,4.000000,,,,0.000000,4.000000,4.000000,4.000000,4.000000,4.000000,,,,,,,,,,,,,,,,,,,,,,,,,,,,,,,,,,,,,,,,,,,,,,,,,,,,,,,,
1577420098.345376,51.000000,0.000000,4255.384766,4335.897461,4247.179688,4342.051270,4418.461426,0.000000,4.000000,,,,0.000000,4.000000,4.000000,4.000000,4.000000,4.000000,,,,,,,,,,,,,,,,,,,,,,,,,,,,,,,,,,,,,,,,,,,,,,,,,,,,,,,,
1577420098.353073,52.000000,0.000000,4245.128418,4331.282227,4264.615234,4232.820313,4419.487305,0.000000,4.000000,,,,0.000000,4.000000,4.000000,4.000000,4.000000,4.000000,,,,,,,,,,,,,,,,,,,,,,,,,,,,,,,,20.240841,28.904427,12.042994,7.877383,10.075376,4.237607,4.956922,5.291196,4.175471,8.646577,15.003146,6.271146,4.445759,2.277356,1.870630,12.080247,10.550858,8.755158,18.735659,52.458138,15.628423,20.738890,8.244383,5.401979,2.423370
1577420098.360971,53.000000,0.000000,4241.025879,4336.922852,4280.512695,4274.358887,4414.358887,0.000000,4.000000,,,,0.000000,4.000000,4.000000,4.000000,4.000000,4.000000,,,,,,,,,,,,,,,,,,,,,,,,,,,,,,,,,,,,,,,,,,,,,,,,,,,,,,,,
1577420098.368768,54.000000,0.000000,4245.128418,4362.563965,4298.974121,4324.615234,4416.922852,0.000000,4.000000,,,,0.000000,4.000000,4.000000,4.000000,4.000000,4.000000,,,,,,,,,,,,,,,,,,,,,,,,,,,,,,,,,,,,,,,,,,,,,,,,,,,,,,,,
1577420098.376665,55.000000,0.000000,4239.487305,4362.051270,4306.153809,4182.563965,4415.384766,0.000000,4.000000,,,,0.000000,4.000000,4.000000,4.000000,4.000000,4.000000,,,,,,,,,,,,,,,,,,,,,,,,,,,,,,,,,,,,,,,,,,,,,,,,,,,,,,,,
1577420098.384462,56.000000,0.000000,4219.487305,4305.128418,4293.333496,4176.410156,4393.846191,0.000000,4.000000,,,,0.000000,4.000000,4.000000,4.000000,4.000000,4.000000,,,,,,,,,,,,,,,,,,,,,,,,,,,,,,,,,,,,,,,,,,,,,,,,,,,,,,,,
1577420098.392359,57.000000,0.000000,4215.384766,4300.000000,4292.307617,4361.538574,4391.282227,0.000000,4.000000,,,,0.000000,4.000000,4.000000,4.000000,4.000000,4.000000,,,,,,,,,,,,,,,,,,,,,,,,,,,,,,,,,,,,,,,,,,,,,,,,,,,,,,,,
1577420098.400156,58.000000,0.000000,4220.512695,4350.256348,4292.307617,4276.410156,4401.025879,0.000000,4.000000,,,,0.000000,4.000000,4.000000,4.000000,4.000000,4.000000,,,,,,,,,,,,,,,,,,,,,,,,,,,,,,,,,,,,,,,,,,,,,,,,,,,,,,,,
1577420098.408052,59.000000,0.000000,4200.000000,4342.051270,4261.538574,4117.948730,4382.051270,0.000000,4.000000,,,,0.000000,4.000000,4.000000,4.000000,4.000000,4.000000,,,,,,,,,,,,,,,,,,,,,,,,,,,,,,,,,,,,,,,,,,,,,,,,,,,,,,,,
1577420098.415849,60.000000,0.000000,4183.589844,4315.384766,4243.589844,4271.794922,4364.615234,0.000000,4.000000,,,,0.000000,4.000000,4.000000,4.000000,4.000000,4.000000,,,,,,,,,,,,,,,,,,,,,,,,,,,,,,,,,,,,,,,,,,,,,,,,,,,,,,,,
1577420098.423746,61.000000,0.000000,4196.922852,4342.563965,4258.974121,4342.051270,4374.871582,0.000000,4.000000,,,,0.000000,4.000000,4.000000,4.000000,4.000000,4.000000,,,,,,,,,,,,,,,,,,,,,,,,,,,,,,,,,,,,,,,,,,,,,,,,,,,,,,,,
1577420098.431543,62.000000,0.000000,4202.563965,4351.794922,4253.333496,4185.641113,4383.077148,0.000000,4.000000,,,,0.000000,4.000000,4.000000,4.000000,4.000000,4.000000,,,,,,,,,,,,,,,,,,,,,,,,,,,,,,,,,,,,,,,,,,,,,,,,,,,,,,,,
1577420098.439440,63.000000,0.000000,4186.153809,4341.025879,4229.743652,4151.794922,4368.205078,0.000000,4.000000,,,,0.000000,4.000000,4.000000,4.000000,4.000000,4.000000,,,,,,,,,,,,,,,,,,,,,,,,,,,,,,,,,,,,,,,,,,,,,,,,,,,,,,,,
1577420098.447237,64.000000,0.000000,4173.846191,4342.051270,4235.897461,4300.512695,4352.307617,450.000000,4.000000,,,,0.000000,4.000000,4.000000,4.000000,4.000000,4.000000,,,,,,,,,,,,,,,,,,,,,,,,,,,,,,,,,,,,,,,,,,,,,,,,,,,,,,,,
1577420098.455134,65.000000,0.000000,4183.077148,4337.948730,4261.025879,4312.820313,4359.487305,450.000000,4.000000,,,,0.000000,4.000000,4.000000,4.000000,4.000000,4.000000,,,,,,,,,,,,,,,,,,,,,,,,,,,,,,,,,,,,,,,,,,,,,,,,,,,,,,,,
1577420098.462931,66.000000,0.000000,4198.461426,4346.153809,4269.230957,4210.256348,4365.641113,16244.000000,4.000000,,,,0.000000,4.000000,4.000000,4.000000,4.000000,4.000000,,,,,,,,,,,,,,,,,,,,,,,,,,,,,,,,,,,,,,,,,,,,,,,,,,,,,,,,
1577420098.470628,67.000000,0.000000,4205.641113,4347.692383,4276.410156,4237.436035,4362.051270,450.000000,4.000000,,,,0.000000,4.000000,4.000000,4.000000,4.000000,4.000000,,,,,,,,,,,,,,,,,,,,,,,,,,,,,,,,,,,,,,,,,,,,,,,,,,,,,,,,
1577420098.478425,68.000000,0.000000,4218.974121,4336.922852,4305.128418,4281.538574,4373.333496,16188.000000,4.000000,,,,0.000000,4.000000,4.000000,4.000000,4.000000,4.000000,,,,,,,,,,,,,,,,,,,,,,,,,,,,,,,,14.656318,21.538082,8.533878,5.471177,6.441667,3.587187,3.962751,4.085227,2.758614,6.762452,11.470571,4.534456,4.403344,1.842399,1.469491,9.004296,7.733645,6.596573,16.815420,51.354107,11.702975,15.718861,6.350803,4.190300,2.004255
1577420098.486122,69.000000,0.000000,4223.077148,4341.538574,4322.563965,4227.179688,4372.820313,450.000000,4.000000,,,,0.000000,4.000000,4.000000,4.000000,4.000000,4.000000,,,,,,,,,,,,,,,,,,,,,,,,,,,,,,,,,,,,,,,,,,,,,,,,,,,,,,,,
1577420098.493919,70.000000,0.000000,4214.358887,4366.666504,4327.179688,4258.974121,4352.820313,16128.000000,4.000000,,,,0.000000,4.000000,4.000000,4.000000,4.000000,4.000000,,,,,,,,,,,,,,,,,,,,,,,,,,,,,,,,,,,,,,,,,,,,,,,,,,,,,,,,
1577420098.501617,71.000000,0.000000,4230.769043,4366.666504,4348.205078,4375.384766,4361.025879,450.000000,4.000000,,,,0.000000,4.000000,4.000000,4.000000,4.000000,4.000000,,,,,,,,,,,,,,,,,,,,,,,,,,,,,,,,,,,,,,,,,,,,,,,,,,,,,,,,
1577420098.509514,72.000000,0.000000,4253.846191,4313.333496,4357.436035,4264.615234,4387.179688,450.000000,4.000000,,,,0.000000,4.000000,4.000000,4.000000,4.000000,4.000000,,,,,,,,,,,,,,,,,,,,,,,,,,,,,,,,,,,,,,,,,,,,,,,,,,,,,,,,
1577420098.517311,73.000000,0.000000,4244.615234,4301.025879,4341.025879,4202.051270,4380.000000,16155.000000,4.000000,,,,0.000000,4.000000,4.000000,4.000000,4.000000,4.000000,,,,,,,,,,,,,,,,,,,,,,,,,,,,,,,,,,,,,,,,,,,,,,,,,,,,,,,,
1577420098.525208,74.000000,0.000000,4227.692383,4364.615234,4326.153809,4353.846191,4353.333496,450.000000,4.000000,,,,0.000000,4.000000,4.000000,4.000000,4.000000,4.000000,,,,,,,,,,,,,,,,,,,,,,,,,,,,,,,,,,,,,,,,,,,,,,,,,,,,,,,,
1577420098.533005,75.000000,0.000000,4234.871582,4381.025879,4322.051270,4321.025879,4363.589844,16220.000000,4.000000,,,,0.000000,4.000000,4.000000,4.000000,4.000000,4.000000,,,,,,,,,,,,,,,,,,,,,,,,,,,,,,,,,,,,,,,,,,,,,,,,,,,,,,,,
1577420098.540902,76.000000,0.000000,4250.769043,4337.436035,4317.436035,4261.538574,4393.333496,450.000000,4.000000,,,,0.000000,4.000000,4.000000,4.000000,4.000000,4.000000,,,,,,,,,,,,,,,,,,,,,,,,,,,,,,,,,,,,,,,,,,,,,,,,,,,,,,,,
1577420098.548700,77.000000,0.000000,4254.871582,4335.897461,4303.589844,4436.410156,4395.384766,450.000000,4.000000,,,,0.000000,4.000000,4.000000,4.000000,4.000000,4.000000,,,,,,,,,,,,,,,,,,,,,,,,,,,,,,,,,,,,,,,,,,,,,,,,,,,,,,,,
1577420098.556597,78.000000,0.000000,4248.717773,4370.769043,4287.692383,4421.025879,4381.538574,450.000000,4.000000,,,,0.000000,4.000000,4.000000,4.000000,4.000000,4.000000,,,,,,,,,,,,,,,,,,,,,,,,,,,,,,,,,,,,,,,,,,,,,,,,,,,,,,,,
1577420098.564394,79.000000,0.000000,4236.922852,4365.128418,4271.282227,4195.384766,4369.743652,16220.000000,4.000000,,,,0.000000,4.000000,4.000000,4.000000,4.000000,4.000000,,,,,,,,,,,,,,,,,,,,,,,,,,,,,,,,,,,,,,,,,,,,,,,,,,,,,,,,
1577420098.572290,80.000000,0.000000,4241.025879,4343.077148,4267.692383,4400.000000,4375.897461,450.000000,4.000000,,,,0.000000,4.000000,4.000000,4.000000,4.000000,4.000000,,,,,,,,,,,,,,,,,,,,,,,,,,,,,,,,,,,,,,,,,,,,,,,,,,,,,,,,
1577420098.580087,81.000000,0.000000,4262.563965,4352.820313,4276.922852,4726.153809,4398.461426,450.000000,4.000000,,,,0.000000,4.000000,4.000000,4.000000,4.000000,4.000000,,,,,,,,,,,,,,,,,,,,,,,,,,,,,,,,,,,,,,,,,,,,,,,,,,,,,,,,
1577420098.587984,82.000000,0.000000,4251.282227,4371.282227,4257.436035,4595.384766,4392.820313,450.000000,4.000000,,,,0.000000,4.000000,4.000000,4.000000,4.000000,4.000000,,,,,,,,,,,,,,,,,,,,,,,,,,,,,,,,,,,,,,,,,,,,,,,,,,,,,,,,
1577420098.595781,83.000000,0.000000,4219.487305,4376.922852,4217.436035,4447.692383,4350.769043,16220.000000,4.000000,,,,0.000000,4.000000,4.000000,4.000000,4.000000,4.000000,,,,,,,,,,,,,,,,,,,,,,,,,,,,,,,,,,,,,,,,,,,,,,,,,,,,,,,,
1577420098.603678,84.000000,0.000000,4218.461426,4380.000000,4205.641113,4614.358887,4324.102539,450.000000,4.000000,,,,0.000000,4.000000,4.000000,4.000000,4.000000,4.000000,,,,,,,,,,,,,,,,,,,,,,,,,,,,,,,,10.114229,14.503626,6.183070,3.424722,3.636121,3.027720,3.065182,3.082118,1.667059,5.198243,9.506046,2.944101,4.540068,1.434878,1.167190,8.624740,5.562325,5.653655,15.433936,49.883560,8.661888,10.910821,5.129731,2.994546,1.732354
1577420098.611475,85.000000,0.000000,4226.153809,4382.563965,4221.538574,4758.461426,4334.871582,450.000000,4.000000,,,,0.000000,4.000000,4.000000,4.000000,4.000000,4.000000,,,,,,,,,,,,,,,,,,,,,,,,,,,,,,,,,,,,,,,,,,,,,,,,,,,,,,,,
1577420098.619372,86.000000,0.000000,4217.948730,4405.641113,4236.922852,4708.205078,4353.846191,450.000000,4.000000,,,,0.000000,4.000000,4.000000,4.000000,4.000000,4.000000,,,,,,,,,,,,,,,,,,,,,,,,,,,,,,,,,,,,,,,,,,,,,,,,,,,,,,,,
1577420098.627169,87.000000,0.000000,4214.871582,4455.897461,4256.922852,4680.000000,4354.871582,16220.000000,4.000000,,,,0.000000,4.000000,4.000000,4.000000,4.000000,4.000000,,,,,,,,,,,,,,,,,,,,,,,,,,,,,,,,,,,,,,,,,,,,,,,,,,,,,,,,
1577420098.634866,88.000000,0.000000,4217.436035,4483.077148,4289.743652,4828.205078,4343.589844,450.000000,4.000000,,,,0.000000,4.000000,4.000000,4.000000,4.000000,4.000000,,,,,,,,,,,,,,,,,,,,,,,,,,,,,,,,,,,,,,,,,,,,,,,,,,,,,,,,
1577420098.642763,89.000000,0.000000,4213.333496,4465.128418,4315.897461,5013.846191,4341.025879,450.000000,4.000000,,,,0.000000,4.000000,4.000000,4.000000,4.000000,4.000000,,,,,,,,,,,,,,,,,,,,,,,,,,,,,,,,,,,,,,,,,,,,,,,,,,,,,,,,
1577420098.650561,90.000000,0.000000,4187.692383,4474.871582,4309.743652,4968.205078,4324.615234,450.000000,4.000000,,,,0.000000,4.000000,4.000000,4.000000,4.000000,4.000000,,,,,,,,,,,,,,,,,,,,,,,,,,,,,,,,,,,,,,,,,,,,,,,,,,,,,,,,
1577420098.658358,91.000000,0.000000,4147.179688,4508.205078,4285.641113,4843.589844,4276.922852,16220.000000,4.000000,,,,0.000000,4.000000,4.000000,4.000000,4.000000,4.000000,,,,,,,,,,,,,,,,,,,,,,,,,,,,,,,,,,,,,,,,,,,,,,,,,,,,,,,,
1577420098.666055,92.000000,0.000000,4123.589844,4501.025879,4271.794922,4935.897461,4245.641113,450.000000,4.000000,,,,0.000000,4.000000,4.000000,4.000000,4.000000,4.000000,,,,,,,,,,,,,,,,,,,,,,,,,,,,,,,,,,,,,,,,,,,,,,,,,,,,,,,,
1577420098.673952,93.000000,0.000000,4127.179688,4484.102539,4269.230957,5067.179688,4257.436035,450.000000,4.000000,,,,0.000000,4.000000,4.000000,4.000000,4.000000,4.000000,,,,,,,,,,,,,,,,,,,,,,,,,,,,,,,,,,,,,,,,,,,,,,,,,,,,,,,,
1577420098.681749,94.000000,0.000000,4146.153809,4501.025879,4266.153809,5136.922852,4275.897461,450.000000,4.000000,,,,0.000000,4.000000,4.000000,4.000000,4.000000,4.000000,,,,,,,,,,,,,,,,,,,,,,,,,,,,,,,,,,,,,,,,,,,,,,,,,,,,,,,,
1577420098.689647,95.000000,0.000000,4144.102539,4516.410156,4234.358887,5170.256348,4280.512695,16220.000000,4.000000,,,,0.000000,4.000000,4.000000,4.000000,4.000000,4.000000,,,,,,,,,,,,,,,,,,,,,,,,,,,,,,,,,,,,,,,,,,,,,,,,,,,,,,,,
1577420098.697444,96.000000,0.000000,4125.128418,4494.871582,4196.922852,5104.615234,4289.743652,450.000000,4.000000,,,,0.000000,4.000000,4.000000,4.000000,4.000000,4.000000,,,,,,,,,,,,,,,,,,,,,,,,,,,,,,,,,,,,,,,,,,,,,,,,,,,,,,,,
1577420098.705341,97.000000,0.000000,4127.692383,4465.128418,4194.871582,5043.077148,4314.871582,450.000000,4.000000,,,,0.000000,4.000000,4.000000,4.000000,4.000000,4.000000,,,,,,,,,,,,,,,,,,,,,,,,,,,,,,,,,,,,,,,,,,,,,,,,,,,,,,,,
1577420098.713138,98.000000,0.000000,4130.769043,4457.436035,4193.333496,5091.282227,4341.538574,450.000000,4.000000,,,,0.000000,4.000000,4.000000,4.000000,4.000000,4.000000,,,,,,,,,,,,,,,,,,,,,,,,,,,,,,,,,,,,,,,,,,,,,,,,,,,,,,,,
1577420098.720935,99.000000,0.000000,4101.025879,4442.563965,4159.487305,5228.205078,4330.256348,16220.000000,4.000000,,,,0.000000,4.000000,4.000000,4.000000,4.000000,4.000000,,,,,,,,,,,,,,,,,,,,,,,,,,,,,,,,,,,,,,,,,,,,,,,,,,,,,,,,
1577420098.728632,100.000000,0.000000,4067.692383,4390.769043,4134.358887,5221.025879,4313.333496,450.000000,4.000000,,,,0.000000,4.000000,4.000000,4.000000,4.000000,4.000000,,,,,,,,,,,,,,,,,,,,,,,,,,,,,,,,7.095538,9.247834,5.289701,2.062475,2.055991,2.768637,2.505088,2.482048,1.099424,4.221625,10.056191,2.008395,4.771856,1.119419,1.023551,11.253580,4.675211,6.273669,14.834218,49.861656,7.119020,7.353797,4.776673,2.057274,1.642965
1577420098.736430,101.000000,0.000000,4058.461426,4352.820313,4142.563965,5097.948730,4337.436035,450.000000,4.000000,,,,0.000000,4.000000,4.000000,4.000000,4.000000,4.000000,,,,,,,,,,,,,,,,,,,,,,,,,,,,,,,,,,,,,,,,,,,,,,,,,,,,,,,,
1577420098.744127,102.000000,0.000000,4052.820557,4371.794922,4155.384766,5214.358887,4369.230957,450.000000,4.000000,,,,0.000000,4.000000,4.000000,4.000000,4.000000,4.000000,,,,,,,,,,,,,,,,,,,,,,,,,,,,,,,,,,,,,,,,,,,,,,,,,,,,,,,,
1577420098.752024,103.000000,0.000000,4040.000000,4380.512695,4148.717773,5318.461426,4380.512695,16220.000000,4.000000,,,,0.000000,4.000000,4.000000,4.000000,4.000000,4.000000,,,,,,,,,,,,,,,,,,,,,,,,,,,,,,,,,,,,,,,,,,,,,,,,,,,,,,,,
1577420098.759821,104.000000,0.000000,4024.615479,4365.641113,4142.563965,5104.615234,4390.256348,450.000000,4.000000,,,,0.000000,4.000000,4.000000,4.000000,4.000000,4.000000,,,,,,,,,,,,,,,,,,,,,,,,,,,,,,,,,,,,,,,,,,,,,,,,,,,,,,,,
1577420098.767717,105.000000,0.000000,4010.769287,4338.974121,4147.692383,5068.205078,4400.512695,450.000000,4.000000,,,,0.000000,4.000000,4.000000,4.000000,4.000000,4.000000,,,,,,,,,,,,,,,,,,,,,,,,,,,,,,,,,,,,,,,,,,,,,,,,,,,,,,,,
1577420098.775514,106.000000,0.000000,3985.641113,4313.333496,4136.922852,5284.615234,4387.179688,450.000000,4.000000,,,,0.000000,4.000000,4.000000,4.000000,4.000000,4.000000,,,,,,,,,,,,,,,,,,,,,,,,,,,,,,,,,,,,,,,,,,,,,,,,,,,,,,,,
1577420098.783411,107.000000,0.000000,3956.410156,4308.205078,4115.897461,5158.974121,4367.179688,16220.000000,4.000000,,,,0.000000,4.000000,4.000000,4.000000,4.000000,4.000000,,,,,,,,,,,,,,,,,,,,,,,,,,,,,,,,,,,,,,,,,,,,,,,,,,,,,,,,
1577420098.791208,108.000000,0.000000,3953.846191,4286.153809,4118.974121,5015.384766,4378.974121,450.000000,4.000000,,,,0.000000,4.000000,4.000000,4.000000,4.000000,4.000000,,,,,,,,,,,,,,,,,,,,,,,,,,,,,,,,,,,,,,,,,,,,,,,,,,,,,,,,
1577420098.799105,109.000000,0.000000,3955.897461,4248.717773,4120.000000,5193.333496,4387.179688,450.000000,4.000000,,,,0.000000,4.000000,4.000000,4.000000,4.000000,4.000000,,,,,,,,,,,,,,,,,,,,,,,,,,,,,,,,,,,,,,,,,,,,,,,,,,,,,,,,
1577420098.806902,110.000000,0.000000,3932.307617,4240.512695,4093.333252,5253.846191,4359.487305,450.000000,4.000000,,,,0.000000,4.000000,4.000000,4.000000,4.000000,4.000000,,,,,,,,,,,,,,,,,,,,,,,,,,,,,,,,,,,,,,,,,,,,,,,,,,,,,,,,
1577420098.814799,111.000000,0.000000,3898.974365,4256.922852,4061.025635,5072.307617,4333.333496,16220.000000,4.000000,,,,0.000000,4.000000,4.000000,4.000000,4.000000,4.000000,,,,,,,,,,,,,,,,,,,,,,,,,,,,,,,,,,,,,,,,,,,,,,,,,,,,,,,,
1577420098.822696,112.000000,0.000000,3889.230713,4251.282227,4047.179443,5010.769043,4331.282227,450.000000,4.000000,,,,0.000000,4.000000,4.000000,4.000000,4.000000,4.000000,,,,,,,,,,,,,,,,,,,,,,,,,,,,,,,,,,,,,,,,,,,,,,,,,,,,,,,,
1577420098.830493,113.000000,0.000000,3894.358887,4221.538574,4040.512939,5157.948730,4327.179688,450.000000,4.000000,,,,0.000000,4.000000,4.000000,4.000000,4.000000,4.000000,,,,,,,,,,,,,,,,,,,,,,,,,,,,,,,,,,,,,,,,,,,,,,,,,,,,,,,,
1577420098.838291,114.000000,0.000000,3883.076904,4209.743652,4025.641113,5119.487305,4309.230957,450.000000,4.000000,,,,0.000000,4.000000,4.000000,4.000000,4.000000,4.000000,,,,,,,,,,,,,,,,,,,,,,,,,,,,,,,,,,,,,,,,,,,,,,,,,,,,,,,,
1577420098.845988,115.000000,0.000000,3858.974365,4234.358887,4003.076904,4968.717773,4290.256348,16220.000000,4.000000,,,,0.000000,4.000000,4.000000,4.000000,4.000000,4.000000,,,,,,,,,,,,,,,,,,,,,,,,,,,,,,,,,,,,,,,,,,,,,,,,,,,,,,,,
1577420098.853785,116.000000,0.000000,3846.666748,4241.538574,3978.974365,5111.794922,4280.512695,450.000000,4.000000,,,,0.000000,4.000000,4.000000,4.000000,4.000000,4.000000,,,,,,,,,,,,,,,,,,,,,,,,,,,,,,,,5.752222,6.046783,5.383486,1.350364,1.481558,3.023234,2.343790,2.221665,1.005388,3.784367,13.963791,1.946591,4.902570,0.900189,1.012241,16.591990,5.101711,8.030426,14.975465,53.020344,7.767036,5.182454,5.031412,1.461683,1.671702
1577420098.861482,117.000000,0.000000,3864.102539,4222.563965,3978.974365,5179.487305,4286.153809,450.000000,4.000000,,,,0.000000,4.000000,4.000000,4.000000,4.000000,4.000000,,,,,,,,,,,,,,,,,,,,,,,,,,,,,,,,,,,,,,,,,,,,,,,,,,,,,,,,
1577420098.869279,118.000000,0.000000,3879.487061,4232.820313,3993.333252,4998.974121,4289.230957,450.000000,4.000000,,,,0.000000,4.000000,4.000000,4.000000,4.000000,4.000000,,,,,,,,,,,,,,,,,,,,,,,,,,,,,,,,,,,,,,,,,,,,,,,,,,,,,,,,
1577420098.876976,119.000000,0.000000,3867.179443,4257.948730,3983.589844,5111.794922,4278.974121,16220.000000,4.000000,,,,0.000000,4.000000,4.000000,4.000000,4.000000,4.000000,,,,,,,,,,,,,,,,,,,,,,,,,,,,,,,,,,,,,,,,,,,,,,,,,,,,,,,,
1577420098.884773,120.000000,0.000000,3881.538574,4279.487305,3976.410156,5265.641113,4280.512695,450.000000,4.000000,,,,0.000000,4.000000,4.000000,4.000000,4.000000,4.000000,,,,,,,,,,,,,,,,,,,,,,,,,,,,,,,,,,,,,,,,,,,,,,,,,,,,,,,,
1577420098.892470,121.000000,0.000000,3906.666748,4282.563965,3981.025635,5042.051270,4285.128418,450.000000,4.000000,,,,0.000000,4.000000,4.000000,4.000000,4.000000,4.000000,,,,,,,,,,,,,,,,,,,,,,,,,,,,,,,,,,,,,,,,,,,,,,,,,,,,,,,,
1577420098.900267,122.000000,0.000000,3894.871826,4274.358887,3977.435791,4990.256348,4270.256348,450.000000,4.000000,,,,0.000000,4.000000,4.000000,4.000000,4.000000,4.000000,,,,,,,,,,,,,,,,,,,,,,,,,,,,,,,,,,,,,,,,,,,,,,,,,,,,,,,,
1577420098.907964,123.000000,0.000000,3880.512939,4287.692383,3968.718018,5113.333496,4249.743652,16220.000000,4.000000,,,,0.000000,4.000000,4.000000,4.000000,4.000000,4.000000,,,,,,,,,,,,,,,,,,,,,,,,,,,,,,,,,,,,,,,,,,,,,,,,,,,,,,,,
1577420098.915761,124.000000,0.000000,3886.666748,4303.589844,3968.205078,5045.641113,4251.282227,450.000000,4.000000,,,,0.000000,4.000000,4.000000,4.000000,4.000000,4.000000,,,,,,,,,,,,,,,,,,,,,,,,,,,,,,,,,,,,,,,,,,,,,,,,,,,,,,,,
1577420098.923458,125.000000,0.000000,3885.128174,4304.102539,3965.641113,5037.948730,4255.384766,450.000000,4.000000,,,,0.000000,4.000000,4.000000,4.000000,4.000000,4.000000,,,,,,,,,,,,,,,,,,,,,,,,,,,,,,,,,,,,,,,,,,,,,,,,,,,,,,,,
1577420098.931356,126.000000,0.000000,3873.333252,4315.897461,3970.769287,5055.384766,4248.717773,450.000000,4.000000,,,,0.000000,4.000000,4.000000,4.000000,4.000000,4.000000,,,,,,,,,,,,,,,,,,,,,,,,,,,,,,,,,,,,,,,,,,,,,,,,,,,,,,,,
1577420098.939153,127.000000,0.000000,3880.512939,4324.615234,3994.871826,4982.051270,4251.282227,236.000000,4.000000,,,,0.000000,4.000000,4.000000,4.000000,4.000000,4.000000,,,,,,,,,,,,,,,,,,,,,,,,,,,,,,,,,,,,,,,,,,,,,,,,,,,,,,,,
1577420098.946950,0.000000,0.000000,3895.897461,4302.051270,4004.102539,5051.794922,4252.820313,450.000000,4.000000,,,,0.000000,4.000000,4.000000,4.000000,4.000000,4.000000,,,,,,,,,,,,,,,,,,,,,,,,,,,,,,,,,,,,,,,,,,,,,,,,,,,,,,,,
1577420098.954647,1.000000,0.000000,3895.384521,4303.589844,3997.435791,5086.153809,4248.717773,450.000000,4.000000,,,,0.000000,4.000000,4.000000,4.000000,4.000000,4.000000,,,,,,,,,,,,,,,,,,,,,,,,,,,,,,,,,,,,,,,,,,,,,,,,,,,,,,,,
1577420098.962544,2.000000,0.000000,3897.435791,4346.666504,4010.769287,4968.717773,4251.794922,16217.000000,4.000000,,,,0.000000,4.000000,4.000000,4.000000,4.000000,4.000000,,,,,,,,,,,,,,,,,,,,,,,,,,,,,,,,,,,,,,,,,,,,,,,,,,,,,,,,
1577420098.970341,3.000000,0.000000,3918.974365,4347.692383,4032.820557,4989.230957,4270.769043,450.000000,4.000000,,,,0.000000,4.000000,4.000000,4.000000,4.000000,4.000000,,,,,,,,,,,,,,,,,,,,,,,,,,,,,,,,,,,,,,,,,,,,,,,,,,,,,,,,
1577420098.978238,4.000000,0.000000,3940.512939,4315.384766,4040.000000,5002.051270,4294.871582,16168.000000,4.000000,,,,0.000000,4.000000,4.000000,4.000000,4.000000,4.000000,,,,,,,,,,,,,,,,,,,,,,,,,,,,,,,,5.637866,4.272487,5.689735,1.043633,1.374836,4.430316,2.412707,2.144186,1.172981,3.650644,21.268854,2.688926,4.789949,0.761752,1.056891,24.581530,6.240544,10.026803,15.729223,60.215019,11.347824,3.973715,5.464362,1.169789,1.715343
1577420098.986035,5.000000,0.000000,3925.128174,4321.025879,4033.333252,4736.922852,4286.666504,450.000000,4.000000,,,,0.000000,4.000000,4.000000,4.000000,4.000000,4.000000,,,,,,,,,,,,,,,,,,,,,,,,,,,,,,,,,,,,,,,,,,,,,,,,,,,,,,,,
1577420098.993932,6.000000,0.000000,3908.205078,4340.512695,4022.564209,4521.538574,4268.717773,16120.000000,4.000000,,,,0.000000,4.000000,4.000000,4.000000,4.000000,4.000000,,,,,,,,,,,,,,,,,,,,,,,,,,,,,,,,,,,,,,,,,,,,,,,,,,,,,,,,
1577420099.001729,7.000000,0.000000,3944.615479,4341.538574,4036.923096,4629.743652,4296.410156,450.000000,4.000000,,,,0.000000,4.000000,4.000000,4.000000,4.000000,4.000000,,,,,,,,,,,,,,,,,,,,,,,,,,,,,,,,,,,,,,,,,,,,,,,,,,,,,,,,
1577420099.009626,8.000000,0.000000,3977.435791,4360.000000,4061.025635,4672.820313,4328.717773,450.000000,4.000000,,,,0.000000,4.000000,4.000000,4.000000,4.000000,4.000000,,,,,,,,,,,,,,,,,,,,,,,,,,,,,,,,,,,,,,,,,,,,,,,,,,,,,,,,
1577420099.017423,9.000000,0.000000,3962.564209,4378.461426,4056.923096,4536.410156,4320.000000,16134.000000,4.000000,,,,0.000000,4.000000,4.000000,4.000000,4.000000,4.000000,,,,,,,,,,,,,,,,,,,,,,,,,,,,,,,,,,,,,,,,,,,,,,,,,,,,,,,,
1577420099.025320,10.000000,0.000000,3953.846191,4364.102539,4038.461426,4542.563965,4303.077148,450.000000,4.000000,,,,0.000000,4.000000,4.000000,4.000000,4.000000,4.000000,,,,,,,,,,,,,,,,,,,,,,,,,,,,,,,,,,,,,,,,,,,,,,,,,,,,,,,,
1577420099.033117,11.000000,0.000000,3962.564209,4364.102539,4028.205078,4558.461426,4301.538574,16201.000000,4.000000,,,,0.000000,4.000000,4.000000,4.000000,4.000000,4.000000,,,,,,,,,,,,,,,,,,,,,,,,,,,,,,,,,,,,,,,,,,,,,,,,,,,,,,,,
1577420099.040814,12.000000,0.000000,3969.230713,4387.179688,4025.128174,4525.128418,4311.282227,450.000000,4.000000,,,,0.000000,4.000000,4.000000,4.000000,4.000000,4.000000,,,,,,,,,,,,,,,,,,,,,,,,,,,,,,,,,,,,,,,,,,,,,,,,,,,,,,,,
1577420099.048611,13.000000,0.000000,3975.384521,4368.717773,4021.025635,4611.282227,4316.410156,450.000000,4.000000,,,,0.000000,4.000000,4.000000,4.000000,4.000000,4.000000,,,,,,,,,,,,,,,,,,,,,,,,,,,,,,,,,,,,,,,,,,,,,,,,,,,,,,,,
1577420099.056308,14.000000,0.000000,3987.179443,4342.563965,4022.564209,4520.000000,4321.538574,450.000000,4.000000,,,,0.000000,4.000000,4.000000,4.000000,4.000000,4.000000,,,,,,,,,,,,,,,,,,,,,,,,,,,,,,,,,,,,,,,,,,,,,,,,,,,,,,,,
1577420099.064105,15.000000,0.000000,3999.487061,4369.230957,4031.794922,4342.051270,4334.358887,16201.000000,4.000000,,,,0.000000,4.000000,4.000000,4.000000,4.000000,4.000000,,,,,,,,,,,,,,,,,,,,,,,,,,,,,,,,,,,,,,,,,,,,,,,,,,,,,,,,
1577420099.071802,16.000000,0.000000,4003.076904,4378.974121,4029.743652,4560.512695,4337.948730,0.000000,4.000000,,,,0.000000,4.000000,4.000000,4.000000,4.000000,4.000000,,,,,,,,,,,,,,,,,,,,,,,,,,,,,,,,,,,,,,,,,,,,,,,,,,,,,,,,
1577420099.079699,17.000000,0.000000,4004.102539,4335.897461,4018.974365,4685.128418,4325.641113,0.000000,4.000000,,,,0.000000,4.000000,4.000000,4.000000,4.000000,4.000000,,,,,,,,,,,,,,,,,,,,,,,,,,,,,,,,,,,,,,,,,,,,,,,,,,,,,,,,
1577420099.087496,18.000000,0.000000,3997.435791,4334.358887,4022.051270,4421.538574,4316.410156,0.000000,4.000000,,,,0.000000,4.000000,4.000000,4.000000,4.000000,4.000000,,,,,,,,,,,,,,,,,,,,,,,,,,,,,,,,,,,,,,,,,,,,,,,,,,,,,,,,
1577420099.095393,19.000000,0.000000,3992.820557,4367.179688,4035.897461,4457.948730,4324.615234,0.000000,4.000000,,,,0.000000,4.000000,4.000000,4.000000,4.000000,4.000000,,,,,,,,,,,,,,,,,,,,,,,,,,,,,,,,,,,,,,,,,,,,,,,,,,,,,,,,
1577420099.103191,20.000000,0.000000,4007.179443,4342.563965,4036.410156,4623.589844,4327.179688,0.000000,4.000000,,,,0.000000,4.000000,4.000000,4.000000,4.000000,4.000000,,,,,,,,,,,,,,,,,,,,,,,,,,,,,,,,6.564808,3.194442,5.647819,0.934633,1.323474,8.075078,2.574178,2.127745,1.399705,3.609387,30.914467,3.957583,4.427377,0.695653,1.089237,35.444771,7.336428,11.472119,17.000481,71.033470,18.549900,3.231014,5.758131,1.117529,1.707630
1577420099.111088,21.000000,0.000000,4001.025635,4321.025879,4018.461426,4493.846191,4297.436035,0.000000,4.000000,,,,0.000000,4.000000,4.000000,4.000000,4.000000,4.000000,,,,,,,,,,,,,,,,,,,,,,,,,,,,,,,,,,,,,,,,,,,,,,,,,,,,,,,,
1577420099.118885,22.000000,0.000000,3992.820557,4381.025879,4021.538574,4484.102539,4277.948730,0.000000,4.000000,,,,0.000000,4.000000,4.000000,4.000000,4.000000,4.000000,,,,,,,,,,,,,,,,,,,,,,,,,,,,,,,,,,,,,,,,,,,,,,,,,,,,,,,,
1577420099.126782,23.000000,0.000000,4010.769287,4391.794922,4041.025635,4586.153809,4282.563965,0.000000,4.000000,,,,0.000000,4.000000,4.000000,4.000000,4.000000,4.000000,,,,,,,,,,,,,,,,,,,,,,,,,,,,,,,,,,,,,,,,,,,,,,,,,,,,,,,,
1577420099.134579,24.000000,0.000000,3997.948730,4331.282227,4028.205078,4547.179688,4262.051270,0.000000,4.000000,,,,0.000000,4.000000,4.000000,4.000000,4.000000,4.000000,,,,,,,,,,,,,,,,,,,,,,,,,,,,,,,,,,,,,,,,,,,,,,,,,,,,,,,,
1577420099.142477,25.000000,0.000000,3978.974365,4340.000000,4012.307617,4541.538574,4246.666504,0.000000,4.000000,,,,0.000000,4.000000,4.000000,4.000000,4.000000,4.000000,,,,,,,,,,,,,,,,,,,,,,,,,,,,,,,,,,,,,,,,,,,,,,,,,,,,,,,,
1577420099.150274,26.000000,0.000000,4001.025635,4385.128418,4018.974365,4586.666504,4263.077148,0.000000,4.000000,,,,0.000000,4.000000,4.000000,4.000000,4.000000,4.000000,,,,,,,,,,,,,,,,,,,,,,,,,,,,,,,,,,,,,,,,,,,,,,,,,,,,,,,,
1577420099.158171,27.000000,0.000000,4014.871826,4380.512695,4029.230713,4608.717773,4270.769043,0.000000,4.000000,,,,0.000000,4.000000,4.000000,4.000000,4.000000,4.000000,,,,,,,,,,,,,,,,,,,,,,,,,,,,,,,,,,,,,,,,,,,,,,,,,,,,,,,,
1577420099.165968,28.000000,0.000000,4015.897461,4371.282227,4038.974365,4691.282227,4269.743652,0.000000,4.000000,,,,0.000000,4.000000,4.000000,4.000000,4.000000,4.000000,,,,,,,,,,,,,,,,,,,,,,,,,,,,,,,,,,,,,,,,,,,,,,,,,,,,,,,,
1577420099.173865,29.000000,0.000000,4023.589844,4386.666504,4038.974365,4634.358887,4269.743652,0.000000,4.000000,,,,0.000000,4.000000,4.000000,4.000000,4.000000,4.000000,,,,,,,,,,,,,,,,,,,,,,,,,,,,,,,,,,,,,,,,,,,,,,,,,,,,,,,,
1577420099.181662,30.000000,0.000000,4026.153809,4407.692383,4039.487061,4485.128418,4267.692383,0.000000,4.000000,,,,0.000000,4.000000,4.000000,4.000000,4.000000,4.000000,,,,,,,,,,,,,,,,,,,,,,,,,,,,,,,,,,,,,,,,,,,,,,,,,,,,,,,,
1577420099.189559,31.000000,0.000000,4024.102539,4392.307617,4040.000000,4633.333496,4267.692383,0.000000,4.000000,,,,0.000000,4.000000,4.000000,4.000000,4.000000,4.000000,,,,,,,,,,,,,,,,,,,,,,,,,,,,,,,,,,,,,,,,,,,,,,,,,,,,,,,,
1577420099.197356,32.000000,0.000000,4024.615479,4335.384766,4026.666748,4783.077148,4264.102539,0.000000,4.000000,,,,0.000000,4.000000,4.000000,4.000000,4.000000,4.000000,,,,,,,,,,,,,,,,,,,,,,,,,,,,,,,,,,,,,,,,,,,,,,,,,,,,,,,,
1577420099.205053,33.000000,0.000000,4021.025635,4346.666504,4017.948730,4603.077148,4252.307617,0.000000,4.000000,,,,0.000000,4.000000,4.000000,4.000000,4.000000,4.000000,,,,,,,,,,,,,,,,,,,,,,,,,,,,,,,,,,,,,,,,,,,,,,,,,,,,,,,,
1577420099.212850,34.000000,0.000000,4014.358887,4407.692383,4020.512939,4465.128418,4246.153809,0.000000,4.000000,,,,0.000000,4.000000,4.000000,4.000000,4.000000,4.000000,,,,,,,,,,,,,,,,,,,,,,,,,,,,,,,,,,,,,,,,,,,,,,,,,,,,,,,,
1577420099.220547,35.000000,0.000000,4013.846191,4397.948730,4016.410156,4636.922852,4243.077148,0.000000,4.000000,,,,0.000000,4.000000,4.000000,4.000000,4.000000,4.000000,,,,,,,,,,,,,,,,,,,,,,,,,,,,,,,,,,,,,,,,,,,,,,,,,,,,,,,,
1577420099.228344,36.000000,0.000000,4021.538574,4376.922852,4021.538574,4740.000000,4249.230957,0.000000,4.000000,,,,0.000000,4.000000,4.000000,4.000000,4.000000,4.000000,,,,,,,,,,,,,,,,,,,,,,,,,,,,,,,,7.912048,2.551556,5.217567,0.951995,1.249615,14.396164,2.765718,2.159883,1.582948,3.582315,41.266651,5.589473,3.941567,0.707651,1.089502,51.314312,8.324761,12.430157,18.704304,83.680428,29.191319,2.752912,5.840849,1.261058,1.650809
1577420099.236041,37.000000,0.000000,4040.000000,4398.461426,4044.615479,4564.615234,4271.794922,0.000000,4.000000,,,,0.000000,4.000000,4.000000,4.000000,4.000000,4.000000,,,,,,,,,,,,,,,,,,,,,,,,,,,,,,,,,,,,,,,,,,,,,,,,,,,,,,,,
1577420099.243838,38.000000,0.000000,4037.435791,4391.794922,4037.435791,4535.384766,4258.974121,0.000000,4.000000,,,,0.000000,4.000000,4.000000,4.000000,4.000000,4.000000,,,,,,,,,,,,,,,,,,,,,,,,,,,,,,,,,,,,,,,,,,,,,,,,,,,,,,,,
1577420099.251535,39.000000,0.000000,4014.358887,4380.000000,4013.846191,4718.974121,4231.282227,0.000000,4.000000,,,,0.000000,4.000000,4.000000,4.000000,4.000000,4.000000,,,,,,,,,,,,,,,,,,,,,,,,,,,,,,,,,,,,,,,,,,,,,,,,,,,,,,,,
1577420099.259432,40.000000,0.000000,4034.358887,4412.307617,4043.589844,4691.794922,4260.512695,0.000000,4.000000,,,,0.000000,4.000000,4.000000,4.000000,4.000000,4.000000,,,,,,,,,,,,,,,,,,,,,,,,,,,,,,,,,,,,,,,,,,,,,,,,,,,,,,,,
1577420099.267229,41.000000,0.000000,4066.666748,4395.897461,4069.230713,4559.487305,4289.743652,0.000000,4.000000,,,,0.000000,4.000000,4.000000,4.000000,4.000000,4.000000,,,,,,,,,,,,,,,,,,,,,,,,,,,,,,,,,,,,,,,,,,,,,,,,,,,,,,,,
1577420099.275027,42.000000,0.000000,4033.333252,4337.436035,4040.512939,4692.820313,4254.871582,0.000000,4.000000,,,,0.000000,4.000000,4.000000,4.000000,4.000000,4.000000,,,,,,,,,,,,,,,,,,,,,,,,,,,,,,,,,,,,,,,,,,,,,,,,,,,,,,,,
1577420099.282724,43.000000,0.000000,4006.666748,4381.538574,4036.923096,4808.717773,4236.922852,0.000000,4.000000,,,,0.000000,4.000000,4.000000,4.000000,4.000000,4.000000,,,,,,,,,,,,,,,,,,,,,,,,,,,,,,,,,,,,,,,,,,,,,,,,,,,,,,,,
1577420099.290521,44.000000,0.000000,4051.794922,4415.897461,4062.564209,4715.384766,4272.307617,0.000000,4.000000,,,,0.000000,4.000000,4.000000,4.000000,4.000000,4.000000,,,,,,,,,,,,,,,,,,,,,,,,,,,,,,,,,,,,,,,,,,,,,,,,,,,,,,,,
1577420099.298218,45.000000,0.000000,4060.000000,4347.179688,4052.307617,4778.974121,4270.769043,0.000000,4.000000,,,,0.000000,4.000000,4.000000,4.000000,4.000000,4.000000,,,,,,,,,,,,,,,,,,,,,,,,,,,,,,,,,,,,,,,,,,,,,,,,,,,,,,,,
1577420099.306015,46.000000,0.000000,4026.666748,4354.871582,4033.846191,4869.230957,4239.487305,0.000000,4.000000,,,,0.000000,4.000000,4.000000,4.000000,4.000000,4.000000,,,,,,,,,,,,,,,,,,,,,,,,,,,,,,,,,,,,,,,,,,,,,,,,,,,,,,,,
1577420099.313712,47.000000,0.000000,4029.743652,4405.128418,4038.461426,4816.410156,4243.589844,0.000000,4.000000,,,,0.000000,4.000000,4.000000,4.000000,4.000000,4.000000,,,,,,,,,,,,,,,,,,,,,,,,,,,,,,,,,,,,,,,,,,,,,,,,,,,,,,,,
1577420099.321509,48.000000,0.000000,4046.153809,4365.128418,4038.461426,4940.000000,4251.282227,0.000000,4.000000,,,,0.000000,4.000000,4.000000,4.000000,4.000000,4.000000,,,,,,,,,,,,,,,,,,,,,,,,,,,,,,,,,,,,,,,,,,,,,,,,,,,,,,,,
1577420099.329206,49.000000,0.000000,4053.333252,4362.051270,4026.153809,5008.717773,4238.974121,0.000000,4.000000,,,,0.000000,4.000000,4.000000,4.000000,4.000000,4.000000,,,,,,,,,,,,,,,,,,,,,,,,,,,,,,,,,,,,,,,,,,,,,,,,,,,,,,,,
1577420099.337003,50.000000,0.000000,4044.615479,4409.230957,4015.897461,4824.615234,4229.230957,0.000000,4.000000,,,,0.000000,4.000000,4.000000,4.000000,4.000000,4.000000,,,,,,,,,,,,,,,,,,,,,,,,,,,,,,,,,,,,,,,,,,,,,,,,,,,,,,,,
1577420099.344700,51.000000,0.000000,4035.897461,4394.871582,4013.333252,4878.974121,4234.871582,0.000000,4.000000,,,,0.000000,4.000000,4.000000,4.000000,4.000000,4.000000,,,,,,,,,,,,,,,,,,,,,,,,,,,,,,,,,,,,,,,,,,,,,,,,,,,,,,,,
1577420099.352597,52.000000,0.000000,4028.718018,4370.769043,4003.076904,4994.871582,4219.487305,0.000000,4.000000,,,,0.000000,4.000000,4.000000,4.000000,4.000000,4.000000,,,,,,,,,,,,,,,,,,,,,,,,,,,,,,,,9.433711,2.301636,4.574331,1.055721,1.181664,22.783436,2.998732,2.243823,1.686873,3.537554,49.552944,7.300823,3.491451,0.796928,1.067028,78.455315,10.221614,13.599581,20.678566,95.701149,41.421398,2.519923,5.733310,1.531525,1.571743
1577420099.360394,53.000000,0.000000,4027.692383,4388.205078,3997.435791,4821.538574,4199.487305,0.000000,4.000000,,,,0.000000,4.000000,4.000000,4.000000,4.000000,4.000000,,,,,,,,,,,,,,,,,,,,,,,,,,,,,,,,,,,,,,,,,,,,,,,,,,,,,,,,
1577420099.368291,54.000000,0.000000,4059.487061,4403.589844,4017.948730,4869.743652,4227.179688,0.000000,4.000000,,,,0.000000,4.000000,4.000000,4.000000,4.000000,4.000000,,,,,,,,,,,,,,,,,,,,,,,,,,,,,,,,,,,,,,,,,,,,,,,,,,,,,,,,
1577420099.376188,55.000000,0.000000,4081.538574,4395.384766,4026.153809,5067.179688,4248.205078,0.000000,4.000000,,,,0.000000,4.000000,4.000000,4.000000,4.000000,4.000000,,,,,,,,,,,,,,,,,,,,,,,,,,,,,,,,,,,,,,,,,,,,,,,,,,,,,,,,
1577420099.383985,56.000000,0.000000,4064.102539,4386.666504,4003.589844,4877.948730,4223.077148,0.000000,4.000000,,,,0.000000,4.000000,4.000000,4.000000,4.000000,4.000000,,,,,,,,,,,,,,,,,,,,,,,,,,,,,,,,,,,,,,,,,,,,,,,,,,,,,,,,
1577420099.391783,57.000000,0.000000,4060.512939,4394.871582,3992.307617,4805.128418,4211.794922,0.000000,4.000000,,,,0.000000,4.000000,4.000000,4.000000,4.000000,4.000000,,,,,,,,,,,,,,,,,,,,,,,,,,,,,,,,,,,,,,,,,,,,,,,,,,,,,,,,
1577420099.399679,58.000000,0.000000,4071.794922,4409.743652,3994.871826,5030.256348,4215.897461,0.000000,4.000000,,,,0.000000,4.000000,4.000000,4.000000,4.000000,4.000000,,,,,,,,,,,,,,,,,,,,,,,,,,,,,,,,,,,,,,,,,,,,,,,,,,,,,,,,
1577420099.407476,59.000000,0.000000,4061.025635,4405.641113,3987.692383,4896.922852,4202.051270,0.000000,4.000000,,,,0.000000,4.000000,4.000000,4.000000,4.000000,4.000000,,,,,,,,,,,,,,,,,,,,,,,,,,,,,,,,,,,,,,,,,,,,,,,,,,,,,,,,
1577420099.415373,60.000000,0.000000,4069.743652,4394.358887,4011.281982,4778.461426,4213.846191,0.000000,4.000000,,,,0.000000,4.000000,4.000000,4.000000,4.000000,4.000000,,,,,,,,,,,,,,,,,,,,,,,,,,,,,,,,,,,,,,,,,,,,,,,,,,,,,,,,
1577420099.423170,61.000000,0.000000,4094.871826,4387.179688,4043.589844,4992.307617,4227.692383,0.000000,4.000000,,,,0.000000,4.000000,4.000000,4.000000,4.000000,4.000000,,,,,,,,,,,,,,,,,,,,,,,,,,,,,,,,,,,,,,,,,,,,,,,,,,,,,,,,
1577420099.430867,62.000000,0.000000,4081.538574,4400.512695,4037.435791,4971.794922,4204.615234,0.000000,4.000000,,,,0.000000,4.000000,4.000000,4.000000,4.000000,4.000000,,,,,,,,,,,,,,,,,,,,,,,,,,,,,,,,,,,,,,,,,,,,,,,,,,,,,,,,
1577420099.438664,63.000000,0.000000,4084.615479,4421.538574,4056.923096,4887.179688,4211.282227,0.000000,4.000000,,,,0.000000,4.000000,4.000000,4.000000,4.000000,4.000000,,,,,,,,,,,,,,,,,,,,,,,,,,,,,,,,,,,,,,,,,,,,,,,,,,,,,,,,
1577420099.446362,64.000000,0.000000,4097.948730,4368.717773,4081.025635,5006.666504,4213.846191,450.000000,4.000000,,,,0.000000,4.000000,4.000000,4.000000,4.000000,4.000000,,,,,,,,,,,,,,,,,,,,,,,,,,,,,,,,,,,,,,,,,,,,,,,,,,,,,,,,
1577420099.454159,65.000000,0.000000,4056.410156,4334.358887,4057.435791,4985.128418,4165.641113,450.000000,4.000000,,,,0.000000,4.000000,4.000000,4.000000,4.000000,4.000000,,,,,,,,,,,,,,,,,,,,,,,,,,,,,,,,,,,,,,,,,,,,,,,,,,,,,,,,
1577420099.461856,66.000000,0.000000,4028.718018,4394.871582,4055.384521,4900.512695,4146.153809,16231.000000,4.000000,,,,0.000000,4.000000,4.000000,4.000000,4.000000,4.000000,,,,,,,,,,,,,,,,,,,,,,,,,,,,,,,,,,,,,,,,,,,,,,,,,,,,,,,,
1577420099.469653,67.000000,0.000000,4058.461426,4418.461426,4084.102539,4940.000000,4173.333496,450.000000,4.000000,,,,0.000000,4.000000,4.000000,4.000000,4.000000,4.000000,,,,,,,,,,,,,,,,,,,,,,,,,,,,,,,,,,,,,,,,,,,,,,,,,,,,,,,,
1577420099.477350,68.000000,0.000000,4076.410156,4385.128418,4082.051270,4929.230957,4173.333496,16199.000000,4.000000,,,,0.000000,4.000000,4.000000,4.000000,4.000000,4.000000,,,,,,,,,,,,,,,,,,,,,,,,,,,,,,,,10.378940,2.309321,3.896630,1.190309,1.151421,31.245924,3.289387,2.350468,1.720180,3.491881,53.650497,8.689713,3.144915,0.933546,1.039586,115.734497,14.220236,15.710307,22.533518,104.953140,52.604248,2.485104,5.441005,1.826076,1.498349
1577420099.485147,69.000000,0.000000,4078.461426,4391.282227,4078.461426,4949.743652,4155.897461,450.000000,4.000000,,,,0.000000,4.000000,4.000000,4.000000,4.000000,4.000000,,,,,,,,,,,,,,,,,,,,,,,,,,,,,,,,,,,,,,,,,,,,,,,,,,,,,,,,
1577420099.492844,70.000000,0.000000,4082.051270,4407.179688,4079.487061,4908.717773,4158.974121,16128.000000,4.000000,,,,0.000000,4.000000,4.000000,4.000000,4.000000,4.000000,,,,,,,,,,,,,,,,,,,,,,,,,,,,,,,,,,,,,,,,,,,,,,,,,,,,,,,,
1577420099.500741,71.000000,0.000000,4066.153809,4388.717773,4044.102539,4832.307617,4146.153809,450.000000,4.000000,,,,0.000000,4.000000,4.000000,4.000000,4.000000,4.000000,,,,,,,,,,,,,,,,,,,,,,,,,,,,,,,,,,,,,,,,,,,,,,,,,,,,,,,,
1577420099.508538,72.000000,0.000000,4066.153809,4395.384766,4012.307617,4973.333496,4127.179688,450.000000,4.000000,,,,0.000000,4.000000,4.000000,4.000000,4.000000,4.000000,,,,,,,,,,,,,,,,,,,,,,,,,,,,,,,,,,,,,,,,,,,,,,,,,,,,,,,,
1577420099.516336,73.000000,0.000000,4076.410156,4395.384766,4002.051270,4898.461426,4117.948730,16162.000000,4.000000,,,,0.000000,4.000000,4.000000,4.000000,4.000000,4.000000,,,,,,,,,,,,,,,,,,,,,,,,,,,,,,,,,,,,,,,,,,,,,,,,,,,,,,,,
1577420099.524033,74.000000,0.000000,4062.051270,4388.717773,3988.718018,4757.436035,4111.794922,450.000000,4.000000,,,,0.000000,4.000000,4.000000,4.000000,4.000000,4.000000,,,,,,,,,,,,,,,,,,,,,,,,,,,,,,,,,,,,,,,,,,,,,,,,,,,,,,,,
1577420099.531930,75.000000,0.000000,4050.256348,4392.307617,3963.589844,5120.512695,4113.333496,16225.000000,4.000000,,,,0.000000,4.000000,4.000000,4.000000,4.000000,4.000000,,,,,,,,,,,,,,,,,,,,,,,,,,,,,,,,,,,,,,,,,,,,,,,,,,,,,,,,
1577420099.539727,76.000000,0.000000,4066.666748,4385.128418,3945.128174,5431.794922,4111.282227,450.000000,4.000000,,,,0.000000,4.000000,4.000000,4.000000,4.000000,4.000000,,,,,,,,,,,,,,,,,,,,,,,,,,,,,,,,,,,,,,,,,,,,,,,,,,,,,,,,
1577420099.547624,77.000000,0.000000,4059.487061,4384.615234,3927.179443,5145.641113,4087.179443,450.000000,4.000000,,,,0.000000,4.000000,4.000000,4.000000,4.000000,4.000000,,,,,,,,,,,,,,,,,,,,,,,,,,,,,,,,,,,,,,,,,,,,,,,,,,,,,,,,
1577420099.555421,78.000000,0.000000,3956.923096,4365.641113,3900.000000,4990.256348,4033.846191,450.000000,4.000000,,,,0.000000,4.000000,4.000000,4.000000,4.000000,4.000000,,,,,,,,,,,,,,,,,,,,,,,,,,,,,,,,,,,,,,,,,,,,,,,,,,,,,,,,
1577420099.563318,79.000000,0.000000,4131.794922,4494.358887,3991.794922,5411.794922,4159.487305,16225.000000,4.000000,,,,0.000000,4.000000,4.000000,4.000000,4.000000,4.000000,,,,,,,,,,,,,,,,,,,,,,,,,,,,,,,,,,,,,,,,,,,,,,,,,,,,,,,,
1577420099.571115,80.000000,0.000000,4145.128418,4397.948730,3927.692383,5280.000000,4119.487305,450.000000,4.000000,,,,0.000000,4.000000,4.000000,4.000000,4.000000,4.000000,,,,,,,,,,,,,,,,,,,,,,,,,,,,,,,,,,,,,,,,,,,,,,,,,,,,,,,,
1577420099.579012,81.000000,0.000000,3608.205078,4098.974121,3802.564209,4722.051270,3837.948730,450.000000,4.000000,,,,0.000000,4.000000,4.000000,4.000000,4.000000,4.000000,,,,,,,,,,,,,,,,,,,,,,,,,,,,,,,,,,,,,,,,,,,,,,,,,,,,,,,,
1577420099.586809,82.000000,0.000000,3865.641113,4446.666504,3920.512939,5162.563965,3963.076904,450.000000,4.000000,,,,0.000000,4.000000,4.000000,4.000000,4.000000,4.000000,,,,,,,,,,,,,,,,,,,,,,,,,,,,,,,,,,,,,,,,,,,,,,,,,,,,,,,,
1577420099.594706,83.000000,0.000000,4212.820313,4569.743652,3887.179443,5411.794922,4031.281982,16225.000000,4.000000,,,,0.000000,4.000000,4.000000,4.000000,4.000000,4.000000,,,,,,,,,,,,,,,,,,,,,,,,,,,,,,,,,,,,,,,,,,,,,,,,,,,,,,,,
1577420099.602503,84.000000,0.000000,3962.051270,4326.666504,3968.205078,5015.384766,4062.051270,450.000000,4.000000,,,,0.000000,4.000000,4.000000,4.000000,4.000000,4.000000,,,,,,,,,,,,,,,,,,,,,,,,,,,,,,,,10.595712,2.419345,3.270682,1.303637,1.179168,37.354446,3.609375,2.415738,1.713233,3.511732,52.637798,9.265150,2.853033,1.067590,1.024378,163.309479,20.908104,18.992176,23.695162,110.338394,59.483574,2.584451,4.940284,2.039744,1.451150
1577420099.610400,85.000000,0.000000,4116.922852,4466.153809,4083.076904,5197.948730,4224.102539,450.000000,4.000000,,,,0.000000,4.000000,4.000000,4.000000,4.000000,4.000000,,,,,,,,,,,,,,,,,,,,,,,,,,,,,,,,,,,,,,,,,,,,,,,,,,,,,,,,
1577420099.618197,86.000000,0.000000,4174.358887,4458.974121,3982.564209,5341.538574,4138.461426,450.000000,4.000000,,,,0.000000,4.000000,4.000000,4.000000,4.000000,4.000000,,,,,,,,,,,,,,,,,,,,,,,,,,,,,,,,,,,,,,,,,,,,,,,,,,,,,,,,
1577420099.625894,87.000000,0.000000,4107.179688,4440.512695,4042.051270,5171.794922,4169.230957,16225.000000,4.000000,,,,0.000000,4.000000,4.000000,4.000000,4.000000,4.000000,,,,,,,,,,,,,,,,,,,,,,,,,,,,,,,,,,,,,,,,,,,,,,,,,,,,,,,,
1577420099.633691,88.000000,0.000000,4145.128418,4472.307617,4031.281982,5132.820313,4186.666504,450.000000,4.000000,,,,0.000000,4.000000,4.000000,4.000000,4.000000,4.000000,,,,,,,,,,,,,,,,,,,,,,,,,,,,,,,,,,,,,,,,,,,,,,,,,,,,,,,,
1577420099.641388,89.000000,0.000000,4095.384521,4427.692383,3997.435791,5258.461426,4135.897461,450.000000,4.000000,,,,0.000000,4.000000,4.000000,4.000000,4.000000,4.000000,,,,,,,,,,,,,,,,,,,,,,,,,,,,,,,,,,,,,,,,,,,,,,,,,,,,,,,,
1577420099.649285,90.000000,0.000000,4129.230957,4479.487305,4030.769287,5278.461426,4175.897461,450.000000,4.000000,,,,0.000000,4.000000,4.000000,4.000000,4.000000,4.000000,,,,,,,,,,,,,,,,,,,,,,,,,,,,,,,,,,,,,,,,,,,,,,,,,,,,,,,,
1577420099.657083,91.000000,0.000000,4120.000000,4477.436035,4008.205078,5047.692383,4151.794922,16225.000000,4.000000,,,,0.000000,4.000000,4.000000,4.000000,4.000000,4.000000,,,,,,,,,,,,,,,,,,,,,,,,,,,,,,,,,,,,,,,,,,,,,,,,,,,,,,,,
1577420099.664980,92.000000,0.000000,4109.230957,4470.769043,4022.051270,5078.974121,4144.615234,450.000000,4.000000,,,,0.000000,4.000000,4.000000,4.000000,4.000000,4.000000,,,,,,,,,,,,,,,,,,,,,,,,,,,,,,,,,,,,,,,,,,,,,,,,,,,,,,,,
1577420099.672777,93.000000,0.000000,4133.846191,4481.538574,4038.974365,5198.461426,4149.743652,450.000000,4.000000,,,,0.000000,4.000000,4.000000,4.000000,4.000000,4.000000,,,,,,,,,,,,,,,,,,,,,,,,,,,,,,,,,,,,,,,,,,,,,,,,,,,,,,,,
1577420099.680674,94.000000,0.000000,4140.000000,4473.846191,4042.051270,5064.102539,4143.589844,450.000000,4.000000,,,,0.000000,4.000000,4.000000,4.000000,4.000000,4.000000,,,,,,,,,,,,,,,,,,,,,,,,,,,,,,,,,,,,,,,,,,,,,,,,,,,,,,,,
1577420099.688471,95.000000,0.000000,4130.769043,4468.205078,4043.076904,5032.820313,4148.717773,16225.000000,4.000000,,,,0.000000,4.000000,4.000000,4.000000,4.000000,4.000000,,,,,,,,,,,,,,,,,,,,,,,,,,,,,,,,,,,,,,,,,,,,,,,,,,,,,,,,
1577420099.696369,96.000000,0.000000,4133.333496,4483.077148,4053.333252,5183.589844,4168.205078,450.000000,4.000000,,,,0.000000,4.000000,4.000000,4.000000,4.000000,4.000000,,,,,,,,,,,,,,,,,,,,,,,,,,,,,,,,,,,,,,,,,,,,,,,,,,,,,,,,
1577420099.704166,97.000000,0.000000,4156.410156,4504.102539,4060.000000,5160.000000,4171.282227,450.000000,4.000000,,,,0.000000,4.000000,4.000000,4.000000,4.000000,4.000000,,,,,,,,,,,,,,,,,,,,,,,,,,,,,,,,,,,,,,,,,,,,,,,,,,,,,,,,
1577420099.711963,98.000000,0.000000,4181.538574,4493.846191,4066.666748,5060.512695,4171.794922,450.000000,4.000000,,,,0.000000,4.000000,4.000000,4.000000,4.000000,4.000000,,,,,,,,,,,,,,,,,,,,,,,,,,,,,,,,,,,,,,,,,,,,,,,,,,,,,,,,
1577420099.719660,99.000000,0.000000,4168.205078,4451.282227,4074.358887,5084.615234,4164.615234,16225.000000,4.000000,,,,0.000000,4.000000,4.000000,4.000000,4.000000,4.000000,,,,,,,,,,,,,,,,,,,,,,,,,,,,,,,,,,,,,,,,,,,,,,,,,,,,,,,,
1577420099.727457,100.000000,0.000000,4143.589844,4456.410156,4069.230713,5077.948730,4148.205078,450.000000,4.000000,,,,0.000000,4.000000,4.000000,4.000000,4.000000,4.000000,,,,,,,,,,,,,,,,,,,,,,,,,,,,,,,,9.760591,2.676104,2.716889,1.413378,1.376218,39.211872,3.902947,2.385417,1.710772,3.722953,47.911926,8.924549,2.521358,1.162565,1.036306,208.974258,30.309006,23.078913,23.715473,112.346550,59.219143,2.882322,4.242377,2.119909,1.459222
1577420099.735154,101.000000,0.000000,4164.615234,4497.948730,4063.076904,5031.794922,4169.230957,450.000000,4.000000,,,,0.000000,4.000000,4.000000,4.000000,4.000000,4.000000,,,,,,,,,,,,,,,,,,,,,,,,,,,,,,,,,,,,,,,,,,,,,,,,,,,,,,,,
1577420099.743051,102.000000,0.000000,4163.077148,4467.692383,4058.461426,5058.974121,4174.871582,450.000000,4.000000,,,,0.000000,4.000000,4.000000,4.000000,4.000000,4.000000,,,,,,,,,,,,,,,,,,,,,,,,,,,,,,,,,,,,,,,,,,,,,,,,,,,,,,,,
1577420099.750848,103.000000,0.000000,4147.692383,4434.358887,4052.820557,5119.487305,4153.333496,16225.000000,4.000000,,,,0.000000,4.000000,4.000000,4.000000,4.000000,4.000000,,,,,,,,,,,,,,,,,,,,,,,,,,,,,,,,,,,,,,,,,,,,,,,,,,,,,,,,
1577420099.758745,104.000000,0.000000,4171.794922,4448.205078,4048.205078,5073.333496,4160.000000,450.000000,4.000000,,,,0.000000,4.000000,4.000000,4.000000,4.000000,4.000000,,,,,,,,,,,,,,,,,,,,,,,,,,,,,,,,,,,,,,,,,,,,,,,,,,,,,,,,
1577420099.766542,105.000000,0.000000,4191.794922,4445.641113,4037.948730,4954.358887,4170.256348,450.000000,4.000000,,,,0.000000,4.000000,4.000000,4.000000,4.000000,4.000000,,,,,,,,,,,,,,,,,,,,,,,,,,,,,,,,,,,,,,,,,,,,,,,,,,,,,,,,
1577420099.774339,106.000000,0.000000,4183.589844,4450.769043,4016.923096,4964.615234,4156.410156,450.000000,4.000000,,,,0.000000,4.000000,4.000000,4.000000,4.000000,4.000000,,,,,,,,,,,,,,,,,,,,,,,,,,,,,,,,,,,,,,,,,,,,,,,,,,,,,,,,
1577420099.782036,107.000000,0.000000,4176.922852,4447.179688,4005.128174,5091.282227,4146.666504,16225.000000,4.000000,,,,0.000000,4.000000,4.000000,4.000000,4.000000,4.000000,,,,,,,,,,,,,,,,,,,,,,,,,,,,,,,,,,,,,,,,,,,,,,,,,,,,,,,,
1577420099.789733,108.000000,0.000000,4190.256348,4422.051270,4018.461426,5156.922852,4162.051270,450.000000,4.000000,,,,0.000000,4.000000,4.000000,4.000000,4.000000,4.000000,,,,,,,,,,,,,,,,,,,,,,,,,,,,,,,,,,,,,,,,,,,,,,,,,,,,,,,,
1577420099.797530,109.000000,0.000000,4187.179688,4438.974121,4027.692383,5082.051270,4158.461426,450.000000,4.000000,,,,0.000000,4.000000,4.000000,4.000000,4.000000,4.000000,,,,,,,,,,,,,,,,,,,,,,,,,,,,,,,,,,,,,,,,,,,,,,,,,,,,,,,,
1577420099.805427,110.000000,0.000000,4189.230957,4486.666504,4040.512939,4940.000000,4142.563965,450.000000,4.000000,,,,0.000000,4.000000,4.000000,4.000000,4.000000,4.000000,,,,,,,,,,,,,,,,,,,,,,,,,,,,,,,,,,,,,,,,,,,,,,,,,,,,,,,,
1577420099.813324,111.000000,0.000000,4223.589844,4462.563965,4061.538574,4925.128418,4142.563965,16225.000000,4.000000,,,,0.000000,4.000000,4.000000,4.000000,4.000000,4.000000,,,,,,,,,,,,,,,,,,,,,,,,,,,,,,,,,,,,,,,,,,,,,,,,,,,,,,,,
1577420099.821122,112.000000,0.000000,4244.102539,4402.563965,4088.205078,5119.487305,4136.410156,450.000000,4.000000,,,,0.000000,4.000000,4.000000,4.000000,4.000000,4.000000,,,,,,,,,,,,,,,,,,,,,,,,,,,,,,,,,,,,,,,,,,,,,,,,,,,,,,,,
1577420099.828919,113.000000,0.000000,4251.794922,4433.333496,4115.897461,5156.410156,4135.384766,450.000000,4.000000,,,,0.000000,4.000000,4.000000,4.000000,4.000000,4.000000,,,,,,,,,,,,,,,,,,,,,,,,,,,,,,,,,,,,,,,,,,,,,,,,,,,,,,,,
1577420099.836616,114.000000,0.000000,4269.230957,4479.487305,4136.410156,4931.282227,4148.717773,450.000000,4.000000,,,,0.000000,4.000000,4.000000,4.000000,4.000000,4.000000,,,,,,,,,,,,,,,,,,,,,,,,,,,,,,,,,,,,,,,,,,,,,,,,,,,,,,,,
1577420099.844413,115.000000,0.000000,4279.487305,4446.666504,4143.589844,4945.128418,4145.128418,16225.000000,4.000000,,,,0.000000,4.000000,4.000000,4.000000,4.000000,4.000000,,,,,,,,,,,,,,,,,,,,,,,,,,,,,,,,,,,,,,,,,,,,,,,,,,,,,,,,
1577420099.852110,116.000000,0.000000,4285.641113,4428.205078,4134.871582,5149.230957,4132.307617,450.000000,4.000000,,,,0.000000,4.000000,4.000000,4.000000,4.000000,4.000000,,,,,,,,,,,,,,,,,,,,,,,,,,,,,,,,8.769534,3.520181,2.478550,1.847744,2.462234,36.910595,4.112224,2.286822,1.844534,4.527602,43.295719,7.861689,2.170911,1.286531,1.117196,246.879486,42.021454,28.001423,22.821266,113.942894,52.212166,3.701783,3.648825,2.266874,1.652718
1577420099.859907,117.000000,0.000000,4310.769043,4461.538574,4144.615234,5021.538574,4149.230957,450.000000,4.000000,,,,0.000000,4.000000,4.000000,4.000000,4.000000,4.000000,,,,,,,,,,,,,,,,,,,,,,,,,,,,,,,,,,,,,,,,,,,,,,,,,,,,,,,,
1577420099.867604,118.000000,0.000000,4327.692383,4465.641113,4144.102539,4853.846191,4164.615234,450.000000,4.000000,,,,0.000000,4.000000,4.000000,4.000000,4.000000,4.000000,,,,,,,,,,,,,,,,,,,,,,,,,,,,,,,,,,,,,,,,,,,,,,,,,,,,,,,,
1577420099.875401,119.000000,0.000000,4299.487305,4438.461426,4119.487305,4971.794922,4127.692383,16225.000000,4.000000,,,,0.000000,4.000000,4.000000,4.000000,4.000000,4.000000,,,,,,,,,,,,,,,,,,,,,,,,,,,,,,,,,,,,,,,,,,,,,,,,,,,,,,,,
1577420099.883098,120.000000,0.000000,4268.717773,4446.153809,4112.307617,5022.563965,4091.794922,450.000000,4.000000,,,,0.000000,4.000000,4.000000,4.000000,4.000000,4.000000,,,,,,,,,,,,,,,,,,,,,,,,,,,,,,,,,,,,,,,,,,,,,,,,,,,,,,,,
1577420099.890895,121.000000,0.000000,4296.922852,4454.871582,4095.384521,4972.820313,4114.358887,450.000000,4.000000,,,,0.000000,4.000000,4.000000,4.000000,4.000000,4.000000,,,,,,,,,,,,,,,,,,,,,,,,,,,,,,,,,,,,,,,,,,,,,,,,,,,,,,,,
1577420099.898592,122.000000,0.000000,4310.256348,4440.000000,4049.230713,4894.358887,4117.948730,450.000000,4.000000,,,,0.000000,4.000000,4.000000,4.000000,4.000000,4.000000,,,,,,,,,,,,,,,,,,,,,,,,,,,,,,,,,,,,,,,,,,,,,,,,,,,,,,,,
1577420099.906389,123.000000,0.000000,4291.794922,4450.769043,4016.923096,4813.846191,4092.820557,16225.000000,4.000000,,,,0.000000,4.000000,4.000000,4.000000,4.000000,4.000000,,,,,,,,,,,,,,,,,,,,,,,,,,,,,,,,,,,,,,,,,,,,,,,,,,,,,,,,
1577420099.914086,124.000000,0.000000,4315.897461,4452.307617,4028.718018,4946.153809,4110.769043,450.000000,4.000000,,,,0.000000,4.000000,4.000000,4.000000,4.000000,4.000000,,,,,,,,,,,,,,,,,,,,,,,,,,,,,,,,,,,,,,,,,,,,,,,,,,,,,,,,
1577420099.921984,125.000000,0.000000,4320.512695,4448.717773,4051.281982,4996.410156,4119.487305,450.000000,4.000000,,,,0.000000,4.000000,4.000000,4.000000,4.000000,4.000000,,,,,,,,,,,,,,,,,,,,,,,,,,,,,,,,,,,,,,,,,,,,,,,,,,,,,,,,
1577420099.929781,126.000000,0.000000,4287.179688,4488.205078,4037.435791,4833.846191,4088.718018,450.000000,4.000000,,,,0.000000,4.000000,4.000000,4.000000,4.000000,4.000000,,,,,,,,,,,,,,,,,,,,,,,,,,,,,,,,,,,,,,,,,,,,,,,,,,,,,,,,
1577420099.937578,127.000000,0.000000,4261.025879,4489.230957,4011.794922,4853.846191,4066.666748,236.000000,4.000000,,,,0.000000,4.000000,4.000000,4.000000,4.000000,4.000000,,,,,,,,,,,,,,,,,,,,,,,,,,,,,,,,,,,,,,,,,,,,,,,,,,,,,,,,
1577420099.945275,0.000000,0.000000,4272.820313,4466.666504,4046.666748,4999.487305,4092.307617,450.000000,4.000000,,,,0.000000,4.000000,4.000000,4.000000,4.000000,4.000000,,,,,,,,,,,,,,,,,,,,,,,,,,,,,,,,,,,,,,,,,,,,,,,,,,,,,,,,
1577420099.953172,1.000000,0.000000,4290.256348,4496.410156,4075.897461,4878.461426,4114.871582,450.000000,4.000000,,,,0.000000,4.000000,4.000000,4.000000,4.000000,4.000000,,,,,,,,,,,,,,,,,,,,,,,,,,,,,,,,,,,,,,,,,,,,,,,,,,,,,,,,
1577420099.960969,2.000000,0.000000,4266.666504,4512.307617,4052.820557,4757.948730,4093.333252,16234.000000,4.000000,,,,0.000000,4.000000,4.000000,4.000000,4.000000,4.000000,,,,,,,,,,,,,,,,,,,,,,,,,,,,,,,,,,,,,,,,,,,,,,,,,,,,,,,,
1577420099.968866,3.000000,0.000000,4276.922852,4514.871582,4066.153809,4869.230957,4099.487305,450.000000,4.000000,,,,0.000000,4.000000,4.000000,4.000000,4.000000,4.000000,,,,,,,,,,,,,,,,,,,,,,,,,,,,,,,,,,,,,,,,,,,,,,,,,,,,,,,,
1577420099.976663,4.000000,0.000000,4293.846191,4525.641113,4091.794922,4875.384766,4111.794922,16183.000000,4.000000,,,,0.000000,4.000000,4.000000,4.000000,4.000000,4.000000,,,,,,,,,,,,,,,,,,,,,,,,,,,,,,,,9.134734,5.693544,3.127080,3.117045,5.577215,31.536585,4.193857,2.232404,2.297220,6.494907,42.077625,6.556700,2.050225,1.584934,1.326333,265.082947,55.091389,33.853783,21.667135,119.090919,41.641983,5.547649,3.799507,2.869330,2.217960
1577420099.984560,5.000000,0.000000,4262.563965,4501.025879,4085.641113,4806.666504,4089.743652,450.000000,4.000000,,,,0.000000,4.000000,4.000000,4.000000,4.000000,4.000000,,,,,,,,,,,,,,,,,,,,,,,,,,,,,,,,,,,,,,,,,,,,,,,,,,,,,,,,
1577420099.992357,6.000000,0.000000,4262.563965,4504.102539,4084.102539,4840.512695,4089.743652,16070.000000,4.000000,,,,0.000000,4.000000,4.000000,4.000000,4.000000,4.000000,,,,,,,,,,,,,,,,,,,,,,,,,,,,,,,,,,,,,,,,,,,,,,,,,,,,,,,,
1577420100.000254,7.000000,0.000000,4286.666504,4541.025879,4096.922852,4877.436035,4106.666504,450.000000,4.000000,,,,0.000000,4.000000,4.000000,4.000000,4.000000,4.000000,,,,,,,,,,,,,,,,,,,,,,,,,,,,,,,,,,,,,,,,,,,,,,,,,,,,,,,,
1577420100.008051,8.000000,0.000000,4272.820313,4512.307617,4094.358887,4862.563965,4097.436035,450.000000,4.000000,,,,0.000000,4.000000,4.000000,4.000000,4.000000,4.000000,,,,,,,,,,,,,,,,,,,,,,,,,,,,,,,,,,,,,,,,,,,,,,,,,,,,,,,,
1577420100.015748,9.000000,0.000000,4268.205078,4488.205078,4089.743652,4827.692383,4100.512695,16139.000000,4.000000,,,,0.000000,4.000000,4.000000,4.000000,4.000000,4.000000,,,,,,,,,,,,,,,,,,,,,,,,,,,,,,,,,,,,,,,,,,,,,,,,,,,,,,,,
1577420100.023545,10.000000,0.000000,4294.871582,4528.717773,4110.769043,4796.410156,4142.563965,450.000000,4.000000,,,,0.000000,4.000000,4.000000,4.000000,4.000000,4.000000,,,,,,,,,,,,,,,,,,,,,,,,,,,,,,,,,,,,,,,,,,,,,,,,,,,,,,,,
1577420100.031242,11.000000,0.000000,4301.025879,4523.077148,4105.641113,4856.410156,4155.384766,16139.000000,4.000000,,,,0.000000,4.000000,4.000000,4.000000,4.000000,4.000000,,,,,,,,,,,,,,,,,,,,,,,,,,,,,,,,,,,,,,,,,,,,,,,,,,,,,,,,
1577420100.039139,12.000000,0.000000,4278.974121,4472.307617,4065.128174,4890.256348,4118.974121,450.000000,4.000000,,,,0.000000,4.000000,4.000000,4.000000,4.000000,4.000000,,,,,,,,,,,,,,,,,,,,,,,,,,,,,,,,,,,,,,,,,,,,,,,,,,,,,,,,
1577420100.046936,13.000000,0.000000,4266.666504,4487.179688,4048.718018,4767.692383,4108.205078,450.000000,4.000000,,,,0.000000,4.000000,4.000000,4.000000,4.000000,4.000000,,,,,,,,,,,,,,,,,,,,,,,,,,,,,,,,,,,,,,,,,,,,,,,,,,,,,,,,
1577420100.054833,14.000000,0.000000,4277.436035,4506.666504,4051.794922,4751.282227,4136.922852,450.000000,4.000000,,,,0.000000,4.000000,4.000000,4.000000,4.000000,4.000000,,,,,,,,,,,,,,,,,,,,,,,,,,,,,,,,,,,,,,,,,,,,,,,,,,,,,,,,
1577420100.062631,15.000000,0.000000,4280.512695,4477.436035,4043.589844,4880.000000,4146.666504,16139.000000,4.000000,,,,0.000000,4.000000,4.000000,4.000000,4.000000,4.000000,,,,,,,,,,,,,,,,,,,,,,,,,,,,,,,,,,,,,,,,,,,,,,,,,,,,,,,,
1577420100.070528,16.000000,0.000000,4286.153809,4482.563965,4032.820557,4878.461426,4141.538574,0.000000,4.000000,,,,0.000000,4.000000,4.000000,4.000000,4.000000,4.000000,,,,,,,,,,,,,,,,,,,,,,,,,,,,,,,,,,,,,,,,,,,,,,,,,,,,,,,,
1577420100.078325,17.000000,0.000000,4294.358887,4505.641113,4043.076904,4733.846191,4135.384766,0.000000,4.000000,,,,0.000000,4.000000,4.000000,4.000000,4.000000,4.000000,,,,,,,,,,,,,,,,,,,,,,,,,,,,,,,,,,,,,,,,,,,,,,,,,,,,,,,,
1577420100.086222,18.000000,0.000000,4283.589844,4487.692383,4074.358887,4720.512695,4123.077148,0.000000,4.000000,,,,0.000000,4.000000,4.000000,4.000000,4.000000,4.000000,,,,,,,,,,,,,,,,,,,,,,,,,,,,,,,,,,,,,,,,,,,,,,,,,,,,,,,,
1577420100.094019,19.000000,0.000000,4270.769043,4465.128418,4113.846191,4858.461426,4118.974121,0.000000,4.000000,,,,0.000000,4.000000,4.000000,4.000000,4.000000,4.000000,,,,,,,,,,,,,,,,,,,,,,,,,,,,,,,,,,,,,,,,,,,,,,,,,,,,,,,,
1577420100.101917,20.000000,0.000000,4263.589844,4478.461426,4136.410156,4824.102539,4126.666504,0.000000,4.000000,,,,0.000000,4.000000,4.000000,4.000000,4.000000,4.000000,,,,,,,,,,,,,,,,,,,,,,,,,,,,,,,,12.069868,9.713454,5.147402,5.515277,11.363939,25.170700,4.175071,2.352295,3.160980,9.895490,46.894741,6.031154,2.430230,2.154426,1.690346,263.104706,67.369453,40.612648,21.241199,129.986267,32.087120,8.732796,5.230715,4.221499,3.241289
1577420100.109714,21.000000,0.000000,4279.487305,4508.205078,4142.563965,4723.589844,4148.717773,0.000000,4.000000,,,,0.000000,4.000000,4.000000,4.000000,4.000000,4.000000,,,,,,,,,,,,,,,,,,,,,,,,,,,,,,,,,,,,,,,,,,,,,,,,,,,,,,,,
1577420100.117611,22.000000,0.000000,4281.025879,4488.205078,4132.820313,4758.461426,4145.641113,0.000000,4.000000,,,,0.000000,4.000000,4.000000,4.000000,4.000000,4.000000,,,,,,,,,,,,,,,,,,,,,,,,,,,,,,,,,,,,,,,,,,,,,,,,,,,,,,,,
1577420100.125408,23.000000,0.000000,4249.743652,4478.461426,4114.358887,4793.846191,4120.000000,0.000000,4.000000,,,,0.000000,4.000000,4.000000,4.000000,4.000000,4.000000,,,,,,,,,,,,,,,,,,,,,,,,,,,,,,,,,,,,,,,,,,,,,,,,,,,,,,,,
1577420100.133305,24.000000,0.000000,4273.333496,4506.666504,4123.077148,4730.256348,4149.230957,0.000000,4.000000,,,,0.000000,4.000000,4.000000,4.000000,4.000000,4.000000,,,,,,,,,,,,,,,,,,,,,,,,,,,,,,,,,,,,,,,,,,,,,,,,,,,,,,,,
1577420100.141103,25.000000,0.000000,4285.641113,4460.000000,4112.307617,4745.641113,4157.948730,0.000000,4.000000,,,,0.000000,4.000000,4.000000,4.000000,4.000000,4.000000,,,,,,,,,,,,,,,,,,,,,,,,,,,,,,,,,,,,,,,,,,,,,,,,,,,,,,,,
1577420100.149000,26.000000,0.000000,4251.794922,4439.487305,4066.153809,4828.205078,4116.922852,0.000000,4.000000,,,,0.000000,4.000000,4.000000,4.000000,4.000000,4.000000,,,,,,,,,,,,,,,,,,,,,,,,,,,,,,,,,,,,,,,,,,,,,,,,,,,,,,,,
1577420100.156797,27.000000,0.000000,4254.871582,4494.358887,4054.358887,4758.974121,4119.487305,0.000000,4.000000,,,,0.000000,4.000000,4.000000,4.000000,4.000000,4.000000,,,,,,,,,,,,,,,,,,,,,,,,,,,,,,,,,,,,,,,,,,,,,,,,,,,,,,,,
1577420100.164594,28.000000,0.000000,4249.743652,4480.512695,4056.923096,4605.641113,4137.948730,0.000000,4.000000,,,,0.000000,4.000000,4.000000,4.000000,4.000000,4.000000,,,,,,,,,,,,,,,,,,,,,,,,,,,,,,,,,,,,,,,,,,,,,,,,,,,,,,,,
1577420100.172291,29.000000,0.000000,4246.153809,4466.153809,4038.974365,4629.743652,4137.436035,0.000000,4.000000,,,,0.000000,4.000000,4.000000,4.000000,4.000000,4.000000,,,,,,,,,,,,,,,,,,,,,,,,,,,,,,,,,,,,,,,,,,,,,,,,,,,,,,,,
1577420100.179988,30.000000,0.000000,4273.333496,4482.051270,4034.871826,4800.512695,4144.102539,0.000000,4.000000,,,,0.000000,4.000000,4.000000,4.000000,4.000000,4.000000,,,,,,,,,,,,,,,,,,,,,,,,,,,,,,,,,,,,,,,,,,,,,,,,,,,,,,,,
1577420100.187785,31.000000,0.000000,4273.846191,4466.153809,4030.256348,4804.615234,4144.615234,0.000000,4.000000,,,,0.000000,4.000000,4.000000,4.000000,4.000000,4.000000,,,,,,,,,,,,,,,,,,,,,,,,,,,,,,,,,,,,,,,,,,,,,,,,,,,,,,,,
1577420100.195482,32.000000,0.000000,4261.025879,4470.256348,4004.615479,4671.794922,4127.692383,0.000000,4.000000,,,,0.000000,4.000000,4.000000,4.000000,4.000000,4.000000,,,,,,,,,,,,,,,,,,,,,,,,,,,,,,,,,,,,,,,,,,,,,,,,,,,,,,,,
1577420100.203279,33.000000,0.000000,4259.487305,4481.025879,4009.743652,4695.384766,4129.230957,0.000000,4.000000,,,,0.000000,4.000000,4.000000,4.000000,4.000000,4.000000,,,,,,,,,,,,,,,,,,,,,,,,,,,,,,,,,,,,,,,,,,,,,,,,,,,,,,,,
1577420100.210976,34.000000,0.000000,4250.769043,4457.948730,4022.051270,4726.666504,4136.410156,0.000000,4.000000,,,,0.000000,4.000000,4.000000,4.000000,4.000000,4.000000,,,,,,,,,,,,,,,,,,,,,,,,,,,,,,,,,,,,,,,,,,,,,,,,,,,,,,,,
1577420100.218773,35.000000,0.000000,4231.794922,4450.256348,4011.794922,4615.897461,4118.974121,0.000000,4.000000,,,,0.000000,4.000000,4.000000,4.000000,4.000000,4.000000,,,,,,,,,,,,,,,,,,,,,,,,,,,,,,,,,,,,,,,,,,,,,,,,,,,,,,,,
1577420100.226470,36.000000,0.000000,4242.051270,4455.897461,4024.102539,4653.333496,4128.717773,0.000000,4.000000,,,,0.000000,4.000000,4.000000,4.000000,4.000000,4.000000,,,,,,,,,,,,,,,,,,,,,,,,,,,,,,,,17.765665,15.231889,8.511878,8.809930,19.221117,19.487076,4.130554,2.700289,4.321301,14.323904,57.575993,7.248391,3.394791,2.954844,2.164887,241.227325,76.074654,47.328625,22.123400,145.221329,26.415720,12.945963,7.955291,6.261912,4.590028
1577420100.234267,37.000000,0.000000,4264.615234,4457.436035,4038.974365,4767.179688,4151.794922,0.000000,4.000000,,,,0.000000,4.000000,4.000000,4.000000,4.000000,4.000000,,,,,,,,,,,,,,,,,,,,,,,,,,,,,,,,,,,,,,,,,,,,,,,,,,,,,,,,
1577420100.241964,38.000000,0.000000,4261.025879,4489.743652,4035.897461,4688.717773,4155.897461,0.000000,4.000000,,,,0.000000,4.000000,4.000000,4.000000,4.000000,4.000000,,,,,,,,,,,,,,,,,,,,,,,,,,,,,,,,,,,,,,,,,,,,,,,,,,,,,,,,
1577420100.249861,39.000000,0.000000,4260.000000,4518.974121,4036.410156,4642.563965,4163.077148,0.000000,4.000000,,,,0.000000,4.000000,4.000000,4.000000,4.000000,4.000000,,,,,,,,,,,,,,,,,,,,,,,,,,,,,,,,,,,,,,,,,,,,,,,,,,,,,,,,
1577420100.257659,40.000000,0.000000,4263.077148,4468.717773,4040.512939,4733.846191,4163.077148,0.000000,4.000000,,,,0.000000,4.000000,4.000000,4.000000,4.000000,4.000000,,,,,,,,,,,,,,,,,,,,,,,,,,,,,,,,,,,,,,,,,,,,,,,,,,,,,,,,
1577420100.265456,41.000000,0.000000,4252.307617,4426.153809,4040.512939,4737.436035,4161.025879,0.000000,4.000000,,,,0.000000,4.000000,4.000000,4.000000,4.000000,4.000000,,,,,,,,,,,,,,,,,,,,,,,,,,,,,,,,,,,,,,,,,,,,,,,,,,,,,,,,
1577420100.273153,42.000000,0.000000,4249.230957,4463.589844,4033.333252,4628.717773,4156.922852,0.000000,4.000000,,,,0.000000,4.000000,4.000000,4.000000,4.000000,4.000000,,,,,,,,,,,,,,,,,,,,,,,,,,,,,,,,,,,,,,,,,,,,,,,,,,,,,,,,
1577420100.281050,43.000000,1.000000,4251.282227,4460.968750,4035.498535,4639.487305,4161.196777,0.000000,4.000000,,,,0.000000,4.000000,4.000000,4.000000,4.000000,4.000000,,,,,,,,,,,,,,,,,,,,,,,,,,,,,,,,,,,,,,,,,,,,,,,,,,,,,,,,
1577420100.288847,44.000000,1.000000,4253.333496,4458.347656,4037.663818,4650.256348,4165.470215,0.000000,4.000000,,,,0.000000,4.000000,4.000000,4.000000,4.000000,4.000000,,,,,,,,,,,,,,,,,,,,,,,,,,,,,,,,,,,,,,,,,,,,,,,,,,,,,,,,
1577420100.296644,45.000000,1.000000,4255.384766,4455.726563,4039.829102,4661.025879,4169.743652,0.000000,4.000000,,,,0.000000,4.000000,4.000000,4.000000,4.000000,4.000000,,,,,,,,,,,,,,,,,,,,,,,,,,,,,,,,,,,,,,,,,,,,,,,,,,,,,,,,
1577420100.304442,46.000000,1.000000,4257.436035,4453.105469,4041.994385,4671.794922,4174.017090,0.000000,4.000000,,,,0.000000,4.000000,4.000000,4.000000,4.000000,4.000000,,,,,,,,,,,,,,,,,,,,,,,,,,,,,,,,,,,,,,,,,,,,,,,,,,,,,,,,
1577420100.312239,47.000000,1.000000,4259.487305,4450.484375,4044.159424,4682.563965,4178.290527,0.000000,4.000000,,,,0.000000,4.000000,4.000000,4.000000,4.000000,4.000000,,,,,,,,,,,,,,,,,,,,,,,,,,,,,,,,,,,,,,,,,,,,,,,,,,,,,,,,
1577420100.320036,48.000000,1.000000,4261.538574,4447.863281,4046.324707,4693.333496,4182.563965,0.000000,4.000000,,,,0.000000,4.000000,4.000000,4.000000,4.000000,4.000000,,,,,,,,,,,,,,,,,,,,,,,,,,,,,,,,,,,,,,,,,,,,,,,,,,,,,,,,
1577420100.327833,49.000000,1.000000,4263.589844,4445.242188,4048.489990,4704.102539,4186.837402,0.000000,4.000000,,,,0.000000,4.000000,4.000000,4.000000,4.000000,4.000000,,,,,,,,,,,,,,,,,,,,,,,,,,,,,,,,,,,,,,,,,,,,,,,,,,,,,,,,
1577420100.335631,50.000000,1.000000,4265.641113,4442.621094,4050.655273,4714.871582,4191.111328,0.000000,4.000000,,,,0.000000,4.000000,4.000000,4.000000,4.000000,4.000000,,,,,,,,,,,,,,,,,,,,,,,,,,,,,,,,,,,,,,,,,,,,,,,,,,,,,,,,
1577420100.343428,51.000000,0.000000,4267.692383,4440.000000,4052.820557,4725.641113,4195.384766,0.000000,4.000000,,,,0.000000,4.000000,4.000000,4.000000,4.000000,4.000000,,,,,,,,,,,,,,,,,,,,,,,,,,,,,,,,,,,,,,,,,,,,,,,,,,,,,,,,
1577420100.351225,52.000000,0.000000,4252.820313,4457.436035,4051.794922,4521.025879,4182.051270,0.000000,4.000000,,,,0.000000,4.000000,4.000000,4.000000,4.000000,4.000000,,,,,,,,,,,,,,,,,,,,,,,,,,,,,,,,25.073376,20.949310,12.452456,12.191417,27.234926,15.222171,4.091759,3.185141,5.475033,18.691380,71.627380,10.598040,4.768527,3.785115,2.639063,207.348450,78.757973,52.599030,24.023855,159.995102,24.704828,17.219387,11.268512,8.496618,5.923974
1577420100.358922,53.000000,0.000000,4242.051270,4462.563965,4044.102539,4506.153809,4169.743652,0.000000,4.000000,,,,0.000000,4.000000,4.000000,4.000000,4.000000,4.000000,,,,,,,,,,,,,,,,,,,,,,,,,,,,,,,,,,,,,,,,,,,,,,,,,,,,,,,,
1577420100.366718,54.000000,0.000000,4240.512695,4438.974121,4042.564209,4638.974121,4167.692383,0.000000,4.000000,,,,0.000000,4.000000,4.000000,4.000000,4.000000,4.000000,,,,,,,,,,,,,,,,,,,,,,,,,,,,,,,,,,,,,,,,,,,,,,,,,,,,,,,,
1577420100.374515,55.000000,0.000000,4255.384766,4455.384766,4055.384521,4572.820313,4175.384766,0.000000,4.000000,,,,0.000000,4.000000,4.000000,4.000000,4.000000,4.000000,,,,,,,,,,,,,,,,,,,,,,,,,,,,,,,,,,,,,,,,,,,,,,,,,,,,,,,,
1577420100.382211,56.000000,0.000000,4247.179688,4443.077148,4049.743652,4577.436035,4172.820313,0.000000,4.000000,,,,0.000000,4.000000,4.000000,4.000000,4.000000,4.000000,,,,,,,,,,,,,,,,,,,,,,,,,,,,,,,,,,,,,,,,,,,,,,,,,,,,,,,,
1577420100.389908,57.000000,0.000000,4240.000000,4427.179688,4035.897461,4668.205078,4174.871582,0.000000,4.000000,,,,0.000000,4.000000,4.000000,4.000000,4.000000,4.000000,,,,,,,,,,,,,,,,,,,,,,,,,,,,,,,,,,,,,,,,,,,,,,,,,,,,,,,,
1577420100.397704,58.000000,0.000000,4263.077148,4471.794922,4053.846191,4531.282227,4187.179688,0.000000,4.000000,,,,0.000000,4.000000,4.000000,4.000000,4.000000,4.000000,,,,,,,,,,,,,,,,,,,,,,,,,,,,,,,,,,,,,,,,,,,,,,,,,,,,,,,,
1577420100.405401,59.000000,0.000000,4273.846191,4475.384766,4067.692383,4502.051270,4182.563965,0.000000,4.000000,,,,0.000000,4.000000,4.000000,4.000000,4.000000,4.000000,,,,,,,,,,,,,,,,,,,,,,,,,,,,,,,,,,,,,,,,,,,,,,,,,,,,,,,,
1577420100.413198,60.000000,0.000000,4245.641113,4417.436035,4032.307617,4653.846191,4149.743652,0.000000,4.000000,,,,0.000000,4.000000,4.000000,4.000000,4.000000,4.000000,,,,,,,,,,,,,,,,,,,,,,,,,,,,,,,,,,,,,,,,,,,,,,,,,,,,,,,,
1577420100.420894,61.000000,0.000000,4215.897461,4425.128418,4013.846191,4518.974121,4133.846191,0.000000,4.000000,,,,0.000000,4.000000,4.000000,4.000000,4.000000,4.000000,,,,,,,,,,,,,,,,,,,,,,,,,,,,,,,,,,,,,,,,,,,,,,,,,,,,,,,,
1577420100.428691,62.000000,0.000000,4231.282227,4489.230957,4039.487061,4418.974121,4164.615234,0.000000,4.000000,,,,0.000000,4.000000,4.000000,4.000000,4.000000,4.000000,,,,,,,,,,,,,,,,,,,,,,,,,,,,,,,,,,,,,,,,,,,,,,,,,,,,,,,,
1577420100.436387,63.000000,0.000000,4257.436035,4464.102539,4049.743652,4621.538574,4191.282227,0.000000,4.000000,,,,0.000000,4.000000,4.000000,4.000000,4.000000,4.000000,,,,,,,,,,,,,,,,,,,,,,,,,,,,,,,,,,,,,,,,,,,,,,,,,,,,,,,,
1577420100.444184,64.000000,0.000000,4254.871582,4409.743652,4036.410156,4597.948730,4190.769043,450.000000,4.000000,,,,0.000000,4.000000,4.000000,4.000000,4.000000,4.000000,,,,,,,,,,,,,,,,,,,,,,,,,,,,,,,,,,,,,,,,,,,,,,,,,,,,,,,,
1577420100.451881,65.000000,0.000000,4255.897461,4445.641113,4030.769287,4438.461426,4184.615234,450.000000,4.000000,,,,0.000000,4.000000,4.000000,4.000000,4.000000,4.000000,,,,,,,,,,,,,,,,,,,,,,,,,,,,,,,,,,,,,,,,,,,,,,,,,,,,,,,,
1577420100.459677,66.000000,0.000000,4267.179688,4460.000000,4047.692383,4513.333496,4186.666504,16212.000000,4.000000,,,,0.000000,4.000000,4.000000,4.000000,4.000000,4.000000,,,,,,,,,,,,,,,,,,,,,,,,,,,,,,,,,,,,,,,,,,,,,,,,,,,,,,,,
1577420100.467374,67.000000,0.000000,4282.051270,4426.153809,4074.358887,4589.743652,4205.128418,450.000000,4.000000,,,,0.000000,4.000000,4.000000,4.000000,4.000000,4.000000,,,,,,,,,,,,,,,,,,,,,,,,,,,,,,,,,,,,,,,,,,,,,,,,,,,,,,,,
1577420100.475170,68.000000,0.000000,4266.153809,4431.282227,4058.974365,4454.871582,4195.384766,16188.000000,4.000000,,,,0.000000,4.000000,4.000000,4.000000,4.000000,4.000000,,,,,,,,,,,,,,,,,,,,,,,,,,,,,,,,31.824646,25.051788,15.677486,14.601294,32.892712,12.707512,4.012610,3.602707,6.262268,21.642630,84.870697,15.495197,6.139922,4.357191,2.973414,168.662292,74.502182,54.586853,25.934114,168.290131,25.010454,20.284277,14.000957,10.185495,6.828443
1577420100.482867,69.000000,0.000000,4238.974121,4433.846191,4038.461426,4422.051270,4177.436035,450.000000,4.000000,,,,0.000000,4.000000,4.000000,4.000000,4.000000,4.000000,,,,,,,,,,,,,,,,,,,,,,,,,,,,,,,,,,,,,,,,,,,,,,,,,,,,,,,,
1577420100.490663,70.000000,0.000000,4271.794922,4427.692383,4062.564209,4552.820313,4212.307617,16086.000000,4.000000,,,,0.000000,4.000000,4.000000,4.000000,4.000000,4.000000,,,,,,,,,,,,,,,,,,,,,,,,,,,,,,,,,,,,,,,,,,,,,,,,,,,,,,,,
1577420100.498360,71.000000,0.000000,4301.538574,4438.974121,4074.871826,4576.922852,4247.179688,450.000000,4.000000,,,,0.000000,4.000000,4.000000,4.000000,4.000000,4.000000,,,,,,,,,,,,,,,,,,,,,,,,,,,,,,,,,,,,,,,,,,,,,,,,,,,,,,,,
1577420100.506156,72.000000,0.000000,4294.871582,4453.846191,4062.051270,4492.820313,4243.077148,450.000000,4.000000,,,,0.000000,4.000000,4.000000,4.000000,4.000000,4.000000,,,,,,,,,,,,,,,,,,,,,,,,,,,,,,,,,,,,,,,,,,,,,,,,,,,,,,,,
1577420100.513852,73.000000,0.000000,4308.205078,4454.871582,4056.410156,4410.769043,4237.948730,16182.000000,4.000000,,,,0.000000,4.000000,4.000000,4.000000,4.000000,4.000000,,,,,,,,,,,,,,,,,,,,,,,,,,,,,,,,,,,,,,,,,,,,,,,,,,,,,,,,
1577420100.521649,74.000000,0.000000,4332.820313,4446.153809,4063.589844,4413.846191,4241.025879,450.000000,4.000000,,,,0.000000,4.000000,4.000000,4.000000,4.000000,4.000000,,,,,,,,,,,,,,,,,,,,,,,,,,,,,,,,,,,,,,,,,,,,,,,,,,,,,,,,
1577420100.529345,75.000000,0.000000,4351.282227,4453.846191,4076.410156,4495.897461,4243.589844,16197.000000,4.000000,,,,0.000000,4.000000,4.000000,4.000000,4.000000,4.000000,,,,,,,,,,,,,,,,,,,,,,,,,,,,,,,,,,,,,,,,,,,,,,,,,,,,,,,,
1577420100.537141,76.000000,0.000000,4362.051270,4450.769043,4080.512939,4530.256348,4247.692383,450.000000,4.000000,,,,0.000000,4.000000,4.000000,4.000000,4.000000,4.000000,,,,,,,,,,,,,,,,,,,,,,,,,,,,,,,,,,,,,,,,,,,,,,,,,,,,,,,,
1577420100.544838,77.000000,0.000000,4370.256348,4444.615234,4082.051270,4469.230957,4261.538574,450.000000,4.000000,,,,0.000000,4.000000,4.000000,4.000000,4.000000,4.000000,,,,,,,,,,,,,,,,,,,,,,,,,,,,,,,,,,,,,,,,,,,,,,,,,,,,,,,,
1577420100.552534,78.000000,0.000000,4374.871582,4447.179688,4078.461426,4432.820313,4264.102539,450.000000,4.000000,,,,0.000000,4.000000,4.000000,4.000000,4.000000,4.000000,,,,,,,,,,,,,,,,,,,,,,,,,,,,,,,,,,,,,,,,,,,,,,,,,,,,,,,,
1577420100.560331,79.000000,0.000000,4347.179688,4431.794922,4062.564209,4516.410156,4231.794922,16197.000000,4.000000,,,,0.000000,4.000000,4.000000,4.000000,4.000000,4.000000,,,,,,,,,,,,,,,,,,,,,,,,,,,,,,,,,,,,,,,,,,,,,,,,,,,,,,,,
1577420100.568028,80.000000,0.000000,4347.179688,4442.563965,4057.948730,4531.794922,4233.846191,450.000000,4.000000,,,,0.000000,4.000000,4.000000,4.000000,4.000000,4.000000,,,,,,,,,,,,,,,,,,,,,,,,,,,,,,,,,,,,,,,,,,,,,,,,,,,,,,,,
1577420100.575824,81.000000,0.000000,4360.512695,4436.922852,4042.051270,4389.743652,4235.384766,450.000000,4.000000,,,,0.000000,4.000000,4.000000,4.000000,4.000000,4.000000,,,,,,,,,,,,,,,,,,,,,,,,,,,,,,,,,,,,,,,,,,,,,,,,,,,,,,,,
1577420100.583521,82.000000,0.000000,4314.871582,4403.077148,4028.205078,4360.512695,4190.769043,450.000000,4.000000,,,,0.000000,4.000000,4.000000,4.000000,4.000000,4.000000,,,,,,,,,,,,,,,,,,,,,,,,,,,,,,,,,,,,,,,,,,,,,,,,,,,,,,,,
1577420100.591317,83.000000,0.000000,4333.333496,4436.922852,4041.538574,4489.743652,4214.358887,16197.000000,4.000000,,,,0.000000,4.000000,4.000000,4.000000,4.000000,4.000000,,,,,,,,,,,,,,,,,,,,,,,,,,,,,,,,,,,,,,,,,,,,,,,,,,,,,,,,
1577420100.599014,84.000000,0.000000,4356.922852,4455.897461,4035.897461,4404.615234,4228.717773,450.000000,4.000000,,,,0.000000,4.000000,4.000000,4.000000,4.000000,4.000000,,,,,,,,,,,,,,,,,,,,,,,,,,,,,,,,35.836285,26.033957,16.984758,15.198609,34.218082,11.060001,3.781997,3.742738,6.420521,22.177818,93.623825,20.451916,7.048900,4.436684,3.061352,132.571869,63.971573,52.272148,26.802681,165.534500,24.799742,21.025665,15.072410,10.686177,7.000228
1577420100.606810,85.000000,0.000000,4324.102539,4428.717773,4049.230713,4357.948730,4199.487305,450.000000,4.000000,,,,0.000000,4.000000,4.000000,4.000000,4.000000,4.000000,,,,,,,,,,,,,,,,,,,,,,,,,,,,,,,,,,,,,,,,,,,,,,,,,,,,,,,,
1577420100.614507,86.000000,0.000000,4337.436035,4445.641113,4054.871826,4457.948730,4205.128418,450.000000,4.000000,,,,0.000000,4.000000,4.000000,4.000000,4.000000,4.000000,,,,,,,,,,,,,,,,,,,,,,,,,,,,,,,,,,,,,,,,,,,,,,,,,,,,,,,,
1577420100.622304,87.000000,0.000000,4320.000000,4467.692383,4056.410156,4380.512695,4193.846191,16197.000000,4.000000,,,,0.000000,4.000000,4.000000,4.000000,4.000000,4.000000,,,,,,,,,,,,,,,,,,,,,,,,,,,,,,,,,,,,,,,,,,,,,,,,,,,,,,,,
1577420100.630000,88.000000,0.000000,4314.871582,4469.230957,4098.461426,4376.922852,4184.615234,450.000000,4.000000,,,,0.000000,4.000000,4.000000,4.000000,4.000000,4.000000,,,,,,,,,,,,,,,,,,,,,,,,,,,,,,,,,,,,,,,,,,,,,,,,,,,,,,,,
1577420100.637797,89.000000,0.000000,4328.717773,4427.179688,4087.179443,4447.692383,4163.589844,450.000000,4.000000,,,,0.000000,4.000000,4.000000,4.000000,4.000000,4.000000,,,,,,,,,,,,,,,,,,,,,,,,,,,,,,,,,,,,,,,,,,,,,,,,,,,,,,,,
1577420100.645493,90.000000,0.000000,4292.820313,4402.051270,4085.128174,4410.256348,4152.307617,450.000000,4.000000,,,,0.000000,4.000000,4.000000,4.000000,4.000000,4.000000,,,,,,,,,,,,,,,,,,,,,,,,,,,,,,,,,,,,,,,,,,,,,,,,,,,,,,,,
1577420100.653290,91.000000,0.000000,4356.922852,4476.410156,4130.256348,4421.538574,4208.717773,16197.000000,4.000000,,,,0.000000,4.000000,4.000000,4.000000,4.000000,4.000000,,,,,,,,,,,,,,,,,,,,,,,,,,,,,,,,,,,,,,,,,,,,,,,,,,,,,,,,
1577420100.660986,92.000000,0.000000,4442.051270,4505.128418,4145.641113,4368.717773,4238.974121,450.000000,4.000000,,,,0.000000,4.000000,4.000000,4.000000,4.000000,4.000000,,,,,,,,,,,,,,,,,,,,,,,,,,,,,,,,,,,,,,,,,,,,,,,,,,,,,,,,
1577420100.668783,93.000000,0.000000,4504.102539,4509.743652,4178.461426,4412.820313,4283.077148,450.000000,4.000000,,,,0.000000,4.000000,4.000000,4.000000,4.000000,4.000000,,,,,,,,,,,,,,,,,,,,,,,,,,,,,,,,,,,,,,,,,,,,,,,,,,,,,,,,
1577420100.676480,94.000000,0.000000,4587.179688,4544.615234,4195.384766,4530.256348,4324.615234,450.000000,4.000000,,,,0.000000,4.000000,4.000000,4.000000,4.000000,4.000000,,,,,,,,,,,,,,,,,,,,,,,,,,,,,,,,,,,,,,,,,,,,,,,,,,,,,,,,
1577420100.684176,95.000000,0.000000,4631.794922,4536.922852,4213.333496,4447.179688,4331.282227,16197.000000,4.000000,,,,0.000000,4.000000,4.000000,4.000000,4.000000,4.000000,,,,,,,,,,,,,,,,,,,,,,,,,,,,,,,,,,,,,,,,,,,,,,,,,,,,,,,,
1577420100.691973,96.000000,0.000000,4801.538574,4596.922852,4256.922852,4488.717773,4408.717773,450.000000,4.000000,,,,0.000000,4.000000,4.000000,4.000000,4.000000,4.000000,,,,,,,,,,,,,,,,,,,,,,,,,,,,,,,,,,,,,,,,,,,,,,,,,,,,,,,,
1577420100.699769,97.000000,0.000000,4751.794922,4488.205078,4167.692383,4408.205078,4330.769043,450.000000,4.000000,,,,0.000000,4.000000,4.000000,4.000000,4.000000,4.000000,,,,,,,,,,,,,,,,,,,,,,,,,,,,,,,,,,,,,,,,,,,,,,,,,,,,,,,,
1577420100.707466,98.000000,0.000000,4670.256348,4460.512695,4214.871582,4291.282227,4333.846191,450.000000,4.000000,,,,0.000000,4.000000,4.000000,4.000000,4.000000,4.000000,,,,,,,,,,,,,,,,,,,,,,,,,,,,,,,,,,,,,,,,,,,,,,,,,,,,,,,,
1577420100.715162,99.000000,0.000000,5114.871582,4749.743652,4331.282227,4737.436035,4585.641113,16197.000000,4.000000,,,,0.000000,4.000000,4.000000,4.000000,4.000000,4.000000,,,,,,,,,,,,,,,,,,,,,,,,,,,,,,,,,,,,,,,,,,,,,,,,,,,,,,,,
1577420100.722959,100.000000,0.000000,4860.512695,4445.128418,4181.538574,4623.077148,4434.871582,450.000000,4.000000,,,,0.000000,4.000000,4.000000,4.000000,4.000000,4.000000,,,,,,,,,,,,,,,,,,,,,,,,,,,,,,,,35.600723,23.439243,15.944943,13.786064,30.725584,9.878515,3.305319,3.529041,5.902306,20.125338,94.866463,23.767166,7.250438,3.975727,2.880884,99.621704,49.524063,46.188114,26.224733,150.945236,22.577068,19.107492,14.102015,9.812752,6.389471
1577420100.730655,101.000000,0.000000,4296.410156,4168.205078,4169.743652,4124.102539,4269.743652,450.000000,4.000000,,,,0.000000,4.000000,4.000000,4.000000,4.000000,4.000000,,,,,,,,,,,,,,,,,,,,,,,,,,,,,,,,,,,,,,,,,,,,,,,,,,,,,,,,
1577420100.738452,102.000000,0.000000,4464.615234,4415.897461,4083.076904,4196.410156,4236.922852,450.000000,4.000000,,,,0.000000,4.000000,4.000000,4.000000,4.000000,4.000000,,,,,,,,,,,,,,,,,,,,,,,,,,,,,,,,,,,,,,,,,,,,,,,,,,,,,,,,
1577420100.746149,103.000000,0.000000,4414.358887,4353.333496,3943.076904,4261.538574,4071.794922,16197.000000,4.000000,,,,0.000000,4.000000,4.000000,4.000000,4.000000,4.000000,,,,,,,,,,,,,,,,,,,,,,,,,,,,,,,,,,,,,,,,,,,,,,,,,,,,,,,,
1577420100.753945,104.000000,0.000000,4362.051270,4378.974121,4090.769287,4323.077148,4172.307617,450.000000,4.000000,,,,0.000000,4.000000,4.000000,4.000000,4.000000,4.000000,,,,,,,,,,,,,,,,,,,,,,,,,,,,,,,,,,,,,,,,,,,,,,,,,,,,,,,,
1577420100.761642,105.000000,0.000000,4497.948730,4482.563965,4083.589844,4236.922852,4212.307617,450.000000,4.000000,,,,0.000000,4.000000,4.000000,4.000000,4.000000,4.000000,,,,,,,,,,,,,,,,,,,,,,,,,,,,,,,,,,,,,,,,,,,,,,,,,,,,,,,,
1577420100.769438,106.000000,0.000000,4435.384766,4377.948730,4043.076904,4086.666748,4138.974121,450.000000,4.000000,,,,0.000000,4.000000,4.000000,4.000000,4.000000,4.000000,,,,,,,,,,,,,,,,,,,,,,,,,,,,,,,,,,,,,,,,,,,,,,,,,,,,,,,,
1577420100.777135,107.000000,0.000000,4434.358887,4382.563965,4081.538574,4330.769043,4163.077148,16197.000000,4.000000,,,,0.000000,4.000000,4.000000,4.000000,4.000000,4.000000,,,,,,,,,,,,,,,,,,,,,,,,,,,,,,,,,,,,,,,,,,,,,,,,,,,,,,,,
1577420100.784931,108.000000,0.000000,4423.589844,4413.333496,4055.897461,4313.333496,4124.615234,450.000000,4.000000,,,,0.000000,4.000000,4.000000,4.000000,4.000000,4.000000,,,,,,,,,,,,,,,,,,,,,,,,,,,,,,,,,,,,,,,,,,,,,,,,,,,,,,,,
1577420100.792628,109.000000,0.000000,4420.000000,4427.692383,4074.871826,4067.692383,4134.871582,450.000000,4.000000,,,,0.000000,4.000000,4.000000,4.000000,4.000000,4.000000,,,,,,,,,,,,,,,,,,,,,,,,,,,,,,,,,,,,,,,,,,,,,,,,,,,,,,,,
1577420100.800425,110.000000,0.000000,4424.615234,4404.615234,4074.358887,4196.410156,4132.820313,450.000000,4.000000,,,,0.000000,4.000000,4.000000,4.000000,4.000000,4.000000,,,,,,,,,,,,,,,,,,,,,,,,,,,,,,,,,,,,,,,,,,,,,,,,,,,,,,,,
1577420100.808221,111.000000,0.000000,4389.743652,4389.230957,4060.000000,4292.307617,4091.281982,16197.000000,4.000000,,,,0.000000,4.000000,4.000000,4.000000,4.000000,4.000000,,,,,,,,,,,,,,,,,,,,,,,,,,,,,,,,,,,,,,,,,,,,,,,,,,,,,,,,
1577420100.815918,112.000000,0.000000,4398.461426,4420.512695,4073.846191,4101.025879,4097.948730,450.000000,4.000000,,,,0.000000,4.000000,4.000000,4.000000,4.000000,4.000000,,,,,,,,,,,,,,,,,,,,,,,,,,,,,,,,,,,,,,,,,,,,,,,,,,,,,,,,
1577420100.823614,113.000000,0.000000,4428.205078,4411.282227,4084.102539,4115.384766,4118.974121,450.000000,4.000000,,,,0.000000,4.000000,4.000000,4.000000,4.000000,4.000000,,,,,,,,,,,,,,,,,,,,,,,,,,,,,,,,,,,,,,,,,,,,,,,,,,,,,,,,
1577420100.831411,114.000000,0.000000,4423.589844,4403.589844,4067.179443,4197.436035,4107.179688,450.000000,4.000000,,,,0.000000,4.000000,4.000000,4.000000,4.000000,4.000000,,,,,,,,,,,,,,,,,,,,,,,,,,,,,,,,,,,,,,,,,,,,,,,,,,,,,,,,
1577420100.839107,115.000000,0.000000,4397.436035,4429.743652,4049.230713,4169.230957,4081.538574,16197.000000,4.000000,,,,0.000000,4.000000,4.000000,4.000000,4.000000,4.000000,,,,,,,,,,,,,,,,,,,,,,,,,,,,,,,,,,,,,,,,,,,,,,,,,,,,,,,,
1577420100.846904,116.000000,0.000000,4403.589844,4439.487305,4066.153809,4182.563965,4082.564209,450.000000,4.000000,,,,0.000000,4.000000,4.000000,4.000000,4.000000,4.000000,,,,,,,,,,,,,,,,,,,,,,,,,,,,,,,,32.779556,18.246517,13.220233,10.934080,23.762823,8.998410,2.668932,3.080887,4.929220,16.271973,88.678467,24.402561,6.792103,3.133679,2.516249,69.892754,34.533840,38.144283,24.378199,127.997330,19.180286,15.033274,11.548494,7.940057,5.240013
1577420100.854600,117.000000,0.000000,4444.615234,4433.333496,4095.384521,4139.487305,4100.512695,450.000000,4.000000,,,,0.000000,4.000000,4.000000,4.000000,4.000000,4.000000,,,,,,,,,,,,,,,,,,,,,,,,,,,,,,,,,,,,,,,,,,,,,,,,,,,,,,,,
1577420100.862397,118.000000,0.000000,4459.487305,4438.974121,4106.666504,4162.563965,4091.281982,450.000000,4.000000,,,,0.000000,4.000000,4.000000,4.000000,4.000000,4.000000,,,,,,,,,,,,,,,,,,,,,,,,,,,,,,,,,,,,,,,,,,,,,,,,,,,,,,,,
1577420100.870094,119.000000,0.000000,4438.461426,4435.384766,4100.000000,4249.743652,4062.564209,16197.000000,4.000000,,,,0.000000,4.000000,4.000000,4.000000,4.000000,4.000000,,,,,,,,,,,,,,,,,,,,,,,,,,,,,,,,,,,,,,,,,,,,,,,,,,,,,,,,
