title:0_full, start timestamp:2020-01-02T17:42:57.790536+03:00, stop timestamp:2020-01-02T17:44:09.707898+03:00, headset type:INSIGHT, headset serial:A2D200FB, headset firmware:930, subject name:Qasim, channels:44, sampling rate:eeg_128;pow_8, samples:9223      , version:2.0
Timestamp,EEG.Counter,EEG.Interpolated,EEG.AF3,EEG.T7,EEG.Pz,EEG.T8,EEG.AF4,EEG.RawCq,EEG.Battery,MarkerIndex,MarkerType,MarkerValueInt,EEG.MarkerHardware,CQ.AF3,CQ.T7,CQ.Pz,CQ.T8,CQ.AF4,POW.AF3.Theta,POW.AF3.Alpha,POW.AF3.BetaL,POW.AF3.BetaH,POW.AF3.Gamma,POW.T7.Theta,POW.T7.Alpha,POW.T7.BetaL,POW.T7.BetaH,POW.T7.Gamma,POW.Pz.Theta,POW.Pz.Alpha,POW.Pz.BetaL,POW.Pz.BetaH,POW.Pz.Gamma,POW.T8.Theta,POW.T8.Alpha,POW.T8.BetaL,POW.T8.BetaH,POW.T8.Gamma,POW.AF4.Theta,POW.AF4.Alpha,POW.AF4.BetaL,POW.AF4.BetaH,POW.AF4.Gamma
1577976177.790536,98.000000,0.000000,4154.358887,4260.512695,4171.282227,4170.769043,4169.230957,450.000000,0.000000,,,,0.000000,4.000000,4.000000,2.000000,4.000000,4.000000,,,,,,,,,,,,,,,,,,,,,,,,,
1577976177.798433,99.000000,0.000000,4144.102539,4259.487305,4166.153809,4151.794922,4165.128418,16199.000000,0.000000,,,,0.000000,4.000000,4.000000,2.000000,4.000000,4.000000,,,,,,,,,,,,,,,,,,,,,,,,,
1577976177.806230,100.000000,0.000000,4144.102539,4261.538574,4160.512695,4153.846191,4169.230957,450.000000,0.000000,,,,0.000000,4.000000,4.000000,2.000000,4.000000,4.000000,,,,,,,,,,,,,,,,,,,,,,,,,
1577976177.814127,101.000000,0.000000,4208.717773,4304.102539,4190.256348,4211.282227,4233.846191,450.000000,0.000000,,,,0.000000,4.000000,4.000000,2.000000,4.000000,4.000000,,,,,,,,,,,,,,,,,,,,,,,,,
1577976177.821925,102.000000,0.000000,4242.051270,4320.000000,4200.000000,4228.205078,4262.563965,450.000000,0.000000,,,,0.000000,4.000000,4.000000,2.000000,4.000000,4.000000,,,,,,,,,,,,,,,,,,,,,,,,,
1577976177.829822,103.000000,0.000000,4184.615234,4277.948730,4162.051270,4177.436035,4203.589844,16199.000000,0.000000,,,,0.000000,4.000000,4.000000,2.000000,4.000000,4.000000,,,,,,,,,,,,,,,,,,,,,,,,,
1577976177.837619,104.000000,0.000000,4136.922852,4236.410156,4141.538574,4138.461426,4151.794922,450.000000,0.000000,,,,0.000000,4.000000,4.000000,2.000000,4.000000,4.000000,,,,,,,,,,,,,,,,,,,,,,,,,
1577976177.845516,105.000000,0.000000,4149.743652,4254.871582,4158.461426,4146.666504,4157.948730,450.000000,0.000000,,,,0.000000,4.000000,4.000000,2.000000,4.000000,4.000000,,,,,,,,,,,,,,,,,,,,,,,,,
1577976177.853313,106.000000,0.000000,4146.153809,4283.077148,4152.820313,4147.179688,4156.410156,450.000000,0.000000,,,,0.000000,4.000000,4.000000,2.000000,4.000000,4.000000,,,,,,,,,,,,,,,,,,,,,,,,,
1577976177.861211,107.000000,0.000000,4122.563965,4260.512695,4135.897461,4132.307617,4135.384766,16199.000000,0.000000,,,,0.000000,4.000000,4.000000,2.000000,4.000000,4.000000,,,,,,,,,,,,,,,,,,,,,,,,,
1577976177.869008,108.000000,0.000000,4129.230957,4245.641113,4143.077148,4137.436035,4140.000000,450.000000,0.000000,,,,0.000000,4.000000,4.000000,2.000000,4.000000,4.000000,,,,,,,,,,,,,,,,,,,,,,,,,
1577976177.876905,109.000000,0.000000,4153.333496,4281.538574,4149.743652,4155.897461,4164.615234,450.000000,0.000000,,,,0.000000,4.000000,4.000000,2.000000,4.000000,4.000000,,,,,,,,,,,,,,,,,,,,,,,,,
1577976177.884802,110.000000,0.000000,4179.487305,4310.256348,4154.871582,4175.384766,4193.333496,450.000000,0.000000,,,,0.000000,4.000000,4.000000,2.000000,4.000000,4.000000,,,,,,,,,,,,,,,,,,,,,,,,,
1577976177.892600,111.000000,0.000000,4187.179688,4287.179688,4158.974121,4183.077148,4193.333496,16199.000000,0.000000,,,,0.000000,4.000000,4.000000,2.000000,4.000000,4.000000,83.791985,18.088373,14.426477,3.141267,5.144022,10.359046,7.029050,9.629267,3.769544,3.156410,1.005465,3.628742,5.426395,1.242954,2.699681,2.824565,5.943041,13.292192,3.269835,4.398538,33.851795,13.932178,16.697840,3.042604,5.171223
1577976177.900497,112.000000,0.000000,4147.179688,4249.230957,4131.794922,4149.743652,4146.666504,450.000000,0.000000,,,,0.000000,4.000000,4.000000,2.000000,4.000000,4.000000,,,,,,,,,,,,,,,,,,,,,,,,,
1577976177.908295,113.000000,0.000000,4110.769043,4250.256348,4110.769043,4111.282227,4113.846191,450.000000,0.000000,,,,0.000000,4.000000,4.000000,2.000000,4.000000,4.000000,,,,,,,,,,,,,,,,,,,,,,,,,
1577976177.916092,114.000000,0.000000,4132.820313,4286.153809,4136.410156,4129.743652,4137.436035,450.000000,0.000000,,,,0.000000,4.000000,4.000000,2.000000,4.000000,4.000000,,,,,,,,,,,,,,,,,,,,,,,,,
1577976177.923989,115.000000,0.000000,4166.153809,4290.769043,4156.922852,4165.641113,4171.282227,16199.000000,0.000000,,,,0.000000,4.000000,4.000000,2.000000,4.000000,4.000000,,,,,,,,,,,,,,,,,,,,,,,,,
1577976177.931786,116.000000,0.000000,4174.871582,4265.641113,4156.410156,4168.717773,4185.128418,450.000000,0.000000,,,,0.000000,4.000000,4.000000,2.000000,4.000000,4.000000,,,,,,,,,,,,,,,,,,,,,,,,,
1577976177.939483,117.000000,0.000000,4168.717773,4264.615234,4156.410156,4153.846191,4176.922852,450.000000,0.000000,,,,0.000000,4.000000,4.000000,2.000000,4.000000,4.000000,,,,,,,,,,,,,,,,,,,,,,,,,
1577976177.947280,118.000000,0.000000,4154.871582,4278.461426,4149.230957,4149.230957,4158.461426,450.000000,0.000000,,,,0.000000,4.000000,4.000000,2.000000,4.000000,4.000000,,,,,,,,,,,,,,,,,,,,,,,,,
1577976177.954977,119.000000,0.000000,4149.230957,4263.589844,4141.025879,4155.384766,4157.948730,16199.000000,0.000000,,,,0.000000,4.000000,4.000000,2.000000,4.000000,4.000000,,,,,,,,,,,,,,,,,,,,,,,,,
1577976177.962874,120.000000,0.000000,4143.589844,4237.948730,4142.051270,4143.077148,4158.974121,450.000000,0.000000,,,,0.000000,4.000000,4.000000,2.000000,4.000000,4.000000,,,,,,,,,,,,,,,,,,,,,,,,,
1577976177.970772,121.000000,0.000000,4128.205078,4244.615234,4140.000000,4122.051270,4136.922852,450.000000,0.000000,,,,0.000000,4.000000,4.000000,2.000000,4.000000,4.000000,,,,,,,,,,,,,,,,,,,,,,,,,
1577976177.978570,122.000000,0.000000,4125.128418,4263.077148,4134.358887,4120.000000,4124.102539,450.000000,0.000000,,,,0.000000,4.000000,4.000000,2.000000,4.000000,4.000000,,,,,,,,,,,,,,,,,,,,,,,,,
1577976177.986368,123.000000,0.000000,4144.615234,4258.974121,4136.410156,4126.666504,4137.436035,16199.000000,0.000000,,,,0.000000,4.000000,4.000000,2.000000,4.000000,4.000000,,,,,,,,,,,,,,,,,,,,,,,,,
1577976177.994265,124.000000,0.000000,4141.025879,4249.230957,4137.948730,4123.589844,4135.897461,450.000000,0.000000,,,,0.000000,4.000000,4.000000,2.000000,4.000000,4.000000,,,,,,,,,,,,,,,,,,,,,,,,,
1577976178.002062,125.000000,0.000000,4114.871582,4257.436035,4134.358887,4125.641113,4116.410156,450.000000,0.000000,,,,0.000000,4.000000,4.000000,2.000000,4.000000,4.000000,,,,,,,,,,,,,,,,,,,,,,,,,
1577976178.009959,126.000000,0.000000,4107.179688,4262.563965,4133.333496,4124.102539,4105.641113,450.000000,0.000000,,,,0.000000,4.000000,4.000000,2.000000,4.000000,4.000000,,,,,,,,,,,,,,,,,,,,,,,,,
1577976178.017857,127.000000,0.000000,4073.846191,4231.282227,4114.871582,4078.974365,4065.641113,224.000000,0.000000,,,,0.000000,4.000000,4.000000,2.000000,4.000000,4.000000,53.183407,16.634764,16.918316,3.027614,4.833232,9.752899,7.486923,8.803855,3.985978,2.913922,1.141603,4.114734,6.120171,1.094918,2.647999,2.921984,5.544545,13.855679,3.496298,4.475429,22.860489,12.830013,18.738363,3.025734,4.878315
1577976178.025654,0.000000,0.000000,4047.179443,4212.820313,4096.922852,4057.435791,4035.384521,450.000000,0.000000,,,,0.000000,4.000000,4.000000,2.000000,4.000000,4.000000,,,,,,,,,,,,,,,,,,,,,,,,,
1577976178.033552,1.000000,0.000000,4138.974121,4282.051270,4143.589844,4149.230957,4121.538574,450.000000,0.000000,,,,0.000000,4.000000,4.000000,2.000000,4.000000,4.000000,,,,,,,,,,,,,,,,,,,,,,,,,
1577976178.041350,2.000000,0.000000,4265.641113,4374.871582,4206.153809,4254.871582,4247.692383,16203.000000,0.000000,,,,0.000000,4.000000,4.000000,2.000000,4.000000,4.000000,,,,,,,,,,,,,,,,,,,,,,,,,
1577976178.049247,3.000000,0.000000,4274.358887,4373.846191,4193.846191,4250.256348,4260.512695,450.000000,0.000000,,,,0.000000,4.000000,4.000000,2.000000,4.000000,4.000000,,,,,,,,,,,,,,,,,,,,,,,,,
1577976178.057045,4.000000,0.000000,4183.589844,4304.615234,4128.717773,4163.077148,4167.179688,16198.000000,0.000000,,,,0.000000,4.000000,4.000000,2.000000,4.000000,4.000000,,,,,,,,,,,,,,,,,,,,,,,,,
1577976178.064942,5.000000,0.000000,4133.846191,4294.871582,4116.922852,4114.871582,4112.307617,450.000000,0.000000,,,,0.000000,4.000000,4.000000,2.000000,4.000000,4.000000,,,,,,,,,,,,,,,,,,,,,,,,,
1577976178.072740,6.000000,0.000000,4191.282227,4339.487305,4175.384766,4170.256348,4172.820313,316.000000,0.000000,,,,0.000000,4.000000,4.000000,2.000000,4.000000,4.000000,,,,,,,,,,,,,,,,,,,,,,,,,
1577976178.080637,7.000000,0.000000,4251.282227,4326.153809,4204.615234,4228.717773,4234.871582,450.000000,0.000000,,,,0.000000,4.000000,4.000000,2.000000,4.000000,4.000000,,,,,,,,,,,,,,,,,,,,,,,,,
1577976178.088435,8.000000,0.000000,4226.153809,4287.692383,4177.436035,4200.512695,4204.102539,450.000000,0.000000,,,,0.000000,4.000000,4.000000,2.000000,4.000000,4.000000,,,,,,,,,,,,,,,,,,,,,,,,,
1577976178.096332,9.000000,0.000000,4176.410156,4303.077148,4155.897461,4150.769043,4155.897461,16165.000000,0.000000,,,,0.000000,4.000000,4.000000,2.000000,4.000000,4.000000,,,,,,,,,,,,,,,,,,,,,,,,,
1577976178.104130,10.000000,0.000000,4172.820313,4326.153809,4162.051270,4155.897461,4157.948730,450.000000,0.000000,,,,0.000000,4.000000,4.000000,2.000000,4.000000,4.000000,,,,,,,,,,,,,,,,,,,,,,,,,
1577976178.112027,11.000000,0.000000,4179.487305,4312.820313,4165.641113,4170.256348,4168.717773,16199.000000,0.000000,,,,0.000000,4.000000,4.000000,2.000000,4.000000,4.000000,,,,,,,,,,,,,,,,,,,,,,,,,
1577976178.119925,12.000000,0.000000,4149.230957,4293.846191,4147.179688,4135.897461,4140.512695,450.000000,0.000000,,,,0.000000,4.000000,4.000000,2.000000,4.000000,4.000000,,,,,,,,,,,,,,,,,,,,,,,,,
1577976178.127722,13.000000,0.000000,4138.461426,4302.563965,4137.436035,4120.000000,4124.615234,450.000000,0.000000,,,,0.000000,4.000000,4.000000,2.000000,4.000000,4.000000,,,,,,,,,,,,,,,,,,,,,,,,,
1577976178.135620,14.000000,0.000000,4181.025879,4328.205078,4166.153809,4171.282227,4162.563965,450.000000,0.000000,,,,0.000000,4.000000,4.000000,2.000000,4.000000,4.000000,,,,,,,,,,,,,,,,,,,,,,,,,
1577976178.143418,15.000000,0.000000,4207.179688,4338.974121,4194.358887,4221.538574,4194.871582,16199.000000,0.000000,,,,0.000000,4.000000,4.000000,2.000000,4.000000,4.000000,31.061396,14.814837,18.042154,3.236736,4.737022,10.279252,8.449656,7.657968,4.228724,2.786798,1.579006,4.310197,6.658074,1.056692,2.731712,3.117689,5.121434,13.556642,3.819151,4.782498,15.482055,11.595438,19.341230,3.305453,4.789644
1577976178.151315,16.000000,0.000000,4190.256348,4329.743652,4177.948730,4210.256348,4180.512695,0.000000,0.000000,,,,0.000000,4.000000,4.000000,2.000000,4.000000,4.000000,,,,,,,,,,,,,,,,,,,,,,,,,
1577976178.159113,17.000000,0.000000,4185.128418,4342.051270,4164.102539,4189.230957,4164.615234,0.000000,0.000000,,,,0.000000,4.000000,4.000000,2.000000,4.000000,4.000000,,,,,,,,,,,,,,,,,,,,,,,,,
1577976178.167011,18.000000,0.000000,4178.461426,4347.179688,4171.794922,4180.512695,4153.846191,0.000000,0.000000,,,,0.000000,4.000000,4.000000,2.000000,4.000000,4.000000,,,,,,,,,,,,,,,,,,,,,,,,,
1577976178.174808,19.000000,0.000000,4158.974121,4304.102539,4168.717773,4167.179688,4134.358887,0.000000,0.000000,,,,0.000000,4.000000,4.000000,2.000000,4.000000,4.000000,,,,,,,,,,,,,,,,,,,,,,,,,
1577976178.182706,20.000000,0.000000,4162.051270,4283.077148,4158.461426,4167.692383,4125.128418,0.000000,0.000000,,,,0.000000,4.000000,4.000000,2.000000,4.000000,4.000000,,,,,,,,,,,,,,,,,,,,,,,,,
1577976178.190504,21.000000,0.000000,4146.666504,4305.641113,4151.794922,4155.384766,4107.179688,0.000000,0.000000,,,,0.000000,4.000000,4.000000,2.000000,4.000000,4.000000,,,,,,,,,,,,,,,,,,,,,,,,,
1577976178.198401,22.000000,0.000000,4126.153809,4311.794922,4151.794922,4136.922852,4090.256348,0.000000,0.000000,,,,0.000000,4.000000,4.000000,2.000000,4.000000,4.000000,,,,,,,,,,,,,,,,,,,,,,,,,
1577976178.206199,23.000000,0.000000,4150.256348,4293.333496,4154.871582,4154.871582,4109.743652,0.000000,0.000000,,,,0.000000,4.000000,4.000000,2.000000,4.000000,4.000000,,,,,,,,,,,,,,,,,,,,,,,,,
1577976178.214097,24.000000,0.000000,4178.461426,4300.000000,4164.102539,4186.153809,4132.820313,0.000000,0.000000,,,,0.000000,4.000000,4.000000,2.000000,4.000000,4.000000,,,,,,,,,,,,,,,,,,,,,,,,,
1577976178.221894,25.000000,0.000000,4183.077148,4334.871582,4177.436035,4197.436035,4138.974121,0.000000,0.000000,,,,0.000000,4.000000,4.000000,2.000000,4.000000,4.000000,,,,,,,,,,,,,,,,,,,,,,,,,
1577976178.229792,26.000000,0.000000,4168.717773,4335.384766,4166.666504,4175.897461,4127.692383,0.000000,0.000000,,,,0.000000,4.000000,4.000000,2.000000,4.000000,4.000000,,,,,,,,,,,,,,,,,,,,,,,,,
1577976178.237590,27.000000,0.000000,4152.307617,4297.948730,4143.077148,4151.794922,4108.205078,0.000000,0.000000,,,,0.000000,4.000000,4.000000,2.000000,4.000000,4.000000,,,,,,,,,,,,,,,,,,,,,,,,,
1577976178.245487,28.000000,0.000000,4170.769043,4277.948730,4150.769043,4166.666504,4124.615234,0.000000,0.000000,,,,0.000000,4.000000,4.000000,2.000000,4.000000,4.000000,,,,,,,,,,,,,,,,,,,,,,,,,
1577976178.253285,29.000000,0.000000,4207.179688,4280.512695,4175.384766,4196.410156,4159.487305,0.000000,0.000000,,,,0.000000,4.000000,4.000000,2.000000,4.000000,4.000000,,,,,,,,,,,,,,,,,,,,,,,,,
1577976178.261182,30.000000,0.000000,4189.230957,4266.153809,4160.512695,4172.820313,4136.410156,0.000000,0.000000,,,,0.000000,4.000000,4.000000,2.000000,4.000000,4.000000,,,,,,,,,,,,,,,,,,,,,,,,,
1577976178.269080,31.000000,0.000000,4132.820313,4241.538574,4128.205078,4121.538574,4082.051270,0.000000,0.000000,,,,0.000000,4.000000,4.000000,2.000000,4.000000,4.000000,18.904905,12.853120,17.704098,3.872144,4.852651,12.205192,9.782045,6.411491,4.490061,2.869842,2.370078,4.181587,6.981281,1.160416,2.898794,3.617081,4.699880,12.449597,4.292907,5.239585,12.433966,10.369247,18.501656,4.015096,4.891277
1577976178.276878,32.000000,0.000000,4129.743652,4235.897461,4127.179688,4116.410156,4081.025635,0.000000,0.000000,,,,0.000000,4.000000,4.000000,2.000000,4.000000,4.000000,,,,,,,,,,,,,,,,,,,,,,,,,
1577976178.284776,33.000000,0.000000,4166.666504,4243.077148,4141.025879,4139.487305,4112.820313,0.000000,0.000000,,,,0.000000,4.000000,4.000000,2.000000,4.000000,4.000000,,,,,,,,,,,,,,,,,,,,,,,,,
1577976178.292574,34.000000,0.000000,4176.410156,4257.436035,4143.077148,4153.846191,4125.641113,0.000000,0.000000,,,,0.000000,4.000000,4.000000,2.000000,4.000000,4.000000,,,,,,,,,,,,,,,,,,,,,,,,,
1577976178.300471,35.000000,0.000000,4156.922852,4254.871582,4129.230957,4137.948730,4110.769043,0.000000,0.000000,,,,0.000000,4.000000,4.000000,2.000000,4.000000,4.000000,,,,,,,,,,,,,,,,,,,,,,,,,
1577976178.308269,36.000000,0.000000,4141.538574,4226.153809,4124.615234,4119.487305,4095.897461,0.000000,0.000000,,,,0.000000,4.000000,4.000000,2.000000,4.000000,4.000000,,,,,,,,,,,,,,,,,,,,,,,,,
1577976178.316167,37.000000,0.000000,4148.717773,4218.461426,4149.230957,4145.128418,4115.384766,0.000000,0.000000,,,,0.000000,4.000000,4.000000,2.000000,4.000000,4.000000,,,,,,,,,,,,,,,,,,,,,,,,,
1577976178.323965,38.000000,0.000000,4164.102539,4216.410156,4160.000000,4165.641113,4138.974121,0.000000,0.000000,,,,0.000000,4.000000,4.000000,2.000000,4.000000,4.000000,,,,,,,,,,,,,,,,,,,,,,,,,
1577976178.331863,39.000000,0.000000,4170.256348,4194.358887,4138.974121,4145.641113,4136.410156,0.000000,0.000000,,,,0.000000,4.000000,4.000000,2.000000,4.000000,4.000000,,,,,,,,,,,,,,,,,,,,,,,,,
1577976178.339660,40.000000,0.000000,4171.794922,4192.307617,4138.461426,4145.128418,4133.333496,0.000000,0.000000,,,,0.000000,4.000000,4.000000,2.000000,4.000000,4.000000,,,,,,,,,,,,,,,,,,,,,,,,,
1577976178.347458,41.000000,0.000000,4173.333496,4207.692383,4156.922852,4164.102539,4131.282227,0.000000,0.000000,,,,0.000000,4.000000,4.000000,2.000000,4.000000,4.000000,,,,,,,,,,,,,,,,,,,,,,,,,
1577976178.355356,42.000000,0.000000,4154.871582,4193.846191,4146.153809,4137.436035,4103.589844,0.000000,0.000000,,,,0.000000,4.000000,4.000000,2.000000,4.000000,4.000000,,,,,,,,,,,,,,,,,,,,,,,,,
1577976178.363253,43.000000,0.000000,4118.974121,4161.025879,4126.153809,4101.025879,4065.128174,0.000000,0.000000,,,,0.000000,4.000000,4.000000,2.000000,4.000000,4.000000,,,,,,,,,,,,,,,,,,,,,,,,,
1577976178.371051,44.000000,0.000000,4102.051270,4163.077148,4123.077148,4107.692383,4051.794922,0.000000,0.000000,,,,0.000000,4.000000,4.000000,2.000000,4.000000,4.000000,,,,,,,,,,,,,,,,,,,,,,,,,
1577976178.378849,45.000000,0.000000,4112.307617,4202.563965,4126.666504,4128.205078,4065.641113,0.000000,0.000000,,,,0.000000,4.000000,4.000000,2.000000,4.000000,4.000000,,,,,,,,,,,,,,,,,,,,,,,,,
1577976178.386746,46.000000,0.000000,4122.051270,4229.230957,4129.230957,4132.820313,4081.025635,0.000000,0.000000,,,,0.000000,4.000000,4.000000,2.000000,4.000000,4.000000,,,,,,,,,,,,,,,,,,,,,,,,,
1577976178.394643,47.000000,0.000000,4122.051270,4224.615234,4129.230957,4130.769043,4085.128174,0.000000,0.000000,,,,0.000000,4.000000,4.000000,2.000000,4.000000,4.000000,14.664875,11.071560,16.230186,5.102343,5.150472,15.224090,11.191032,5.214301,4.765235,3.195281,3.336309,3.820149,6.989835,1.428983,3.088601,4.520325,4.506607,10.764182,5.071264,5.768072,12.919618,9.426555,16.582071,5.332397,5.163214
1577976178.402441,48.000000,0.000000,4114.358887,4218.461426,4121.025879,4123.589844,4079.487061,0.000000,0.000000,,,,0.000000,4.000000,4.000000,2.000000,4.000000,4.000000,,,,,,,,,,,,,,,,,,,,,,,,,
1577976178.410339,49.000000,0.000000,4095.384521,4214.871582,4114.358887,4101.025879,4064.102539,0.000000,0.000000,,,,0.000000,4.000000,4.000000,2.000000,4.000000,4.000000,,,,,,,,,,,,,,,,,,,,,,,,,
1577976178.418136,50.000000,0.000000,4078.461426,4207.692383,4121.025879,4090.769287,4047.179443,0.000000,0.000000,,,,0.000000,4.000000,4.000000,2.000000,4.000000,4.000000,,,,,,,,,,,,,,,,,,,,,,,,,
1577976178.426034,51.000000,0.000000,4090.256348,4223.589844,4135.897461,4116.922852,4057.435791,0.000000,0.000000,,,,0.000000,4.000000,4.000000,2.000000,4.000000,4.000000,,,,,,,,,,,,,,,,,,,,,,,,,
1577976178.433832,52.000000,0.000000,4095.897461,4247.692383,4138.461426,4118.461426,4064.102539,0.000000,0.000000,,,,0.000000,4.000000,4.000000,2.000000,4.000000,4.000000,,,,,,,,,,,,,,,,,,,,,,,,,
1577976178.441729,53.000000,0.000000,4044.615479,4247.179688,4106.153809,4065.128174,4014.871826,0.000000,0.000000,,,,0.000000,4.000000,4.000000,2.000000,4.000000,4.000000,,,,,,,,,,,,,,,,,,,,,,,,,
1577976178.449627,54.000000,0.000000,4015.897461,4259.487305,4090.256348,4058.974365,3988.718018,0.000000,0.000000,,,,0.000000,4.000000,4.000000,2.000000,4.000000,4.000000,,,,,,,,,,,,,,,,,,,,,,,,,
1577976178.457425,55.000000,0.000000,4082.564209,4309.743652,4130.256348,4135.897461,4061.025635,0.000000,0.000000,,,,0.000000,4.000000,4.000000,2.000000,4.000000,4.000000,,,,,,,,,,,,,,,,,,,,,,,,,
1577976178.465223,56.000000,0.000000,4138.974121,4346.153809,4150.769043,4171.794922,4127.179688,0.000000,0.000000,,,,0.000000,4.000000,4.000000,2.000000,4.000000,4.000000,,,,,,,,,,,,,,,,,,,,,,,,,
1577976178.473120,57.000000,0.000000,4119.487305,4342.051270,4123.589844,4137.436035,4110.256348,0.000000,0.000000,,,,0.000000,4.000000,4.000000,2.000000,4.000000,4.000000,,,,,,,,,,,,,,,,,,,,,,,,,
1577976178.480918,58.000000,0.000000,4097.948730,4332.820313,4114.871582,4116.922852,4084.615479,0.000000,0.000000,,,,0.000000,4.000000,4.000000,2.000000,4.000000,4.000000,,,,,,,,,,,,,,,,,,,,,,,,,
1577976178.488815,59.000000,0.000000,4073.333252,4323.077148,4112.307617,4097.948730,4065.128174,0.000000,0.000000,,,,0.000000,4.000000,4.000000,2.000000,4.000000,4.000000,,,,,,,,,,,,,,,,,,,,,,,,,
1577976178.496613,60.000000,0.000000,4051.281982,4322.051270,4099.487305,4082.564209,4043.076904,0.000000,0.000000,,,,0.000000,4.000000,4.000000,2.000000,4.000000,4.000000,,,,,,,,,,,,,,,,,,,,,,,,,
1577976178.504510,61.000000,0.000000,4090.769287,4358.974121,4126.153809,4131.282227,4076.923096,0.000000,0.000000,,,,0.000000,4.000000,4.000000,2.000000,4.000000,4.000000,,,,,,,,,,,,,,,,,,,,,,,,,
1577976178.512307,62.000000,0.000000,4127.179688,4386.666504,4156.922852,4161.025879,4114.358887,0.000000,0.000000,,,,0.000000,4.000000,4.000000,2.000000,4.000000,4.000000,,,,,,,,,,,,,,,,,,,,,,,,,
1577976178.520205,63.000000,0.000000,4110.769043,4367.179688,4149.743652,4125.641113,4095.897461,0.000000,0.000000,,,,0.000000,4.000000,4.000000,2.000000,4.000000,4.000000,14.583455,10.012712,14.170323,7.001884,5.572706,18.251860,12.441172,4.223635,5.042287,3.707570,4.245437,3.377583,6.617383,1.850881,3.257701,5.774800,4.897964,8.910536,6.280920,6.300009,15.276667,9.234996,14.164752,7.304040,5.573845
1577976178.528002,64.000000,0.000000,4106.666504,4349.230957,4139.487305,4118.461426,4082.564209,450.000000,0.000000,,,,0.000000,4.000000,4.000000,2.000000,4.000000,4.000000,,,,,,,,,,,,,,,,,,,,,,,,,
1577976178.535900,65.000000,0.000000,4118.974121,4355.897461,4141.538574,4146.153809,4100.000000,450.000000,0.000000,,,,0.000000,4.000000,4.000000,2.000000,4.000000,4.000000,,,,,,,,,,,,,,,,,,,,,,,,,
1577976178.543797,66.000000,0.000000,4105.128418,4377.948730,4148.717773,4145.128418,4104.102539,16211.000000,0.000000,,,,0.000000,4.000000,4.000000,2.000000,4.000000,4.000000,,,,,,,,,,,,,,,,,,,,,,,,,
1577976178.551595,67.000000,0.000000,4095.897461,4406.666504,4149.743652,4129.743652,4096.410156,450.000000,0.000000,,,,0.000000,4.000000,4.000000,2.000000,4.000000,4.000000,,,,,,,,,,,,,,,,,,,,,,,,,
1577976178.559493,68.000000,0.000000,4107.692383,4417.948730,4144.102539,4127.179688,4097.948730,16203.000000,0.000000,,,,0.000000,4.000000,4.000000,2.000000,4.000000,4.000000,,,,,,,,,,,,,,,,,,,,,,,,,
1577976178.567290,69.000000,0.000000,4106.153809,4403.077148,4143.077148,4120.512695,4090.769287,450.000000,0.000000,,,,0.000000,4.000000,4.000000,2.000000,4.000000,4.000000,,,,,,,,,,,,,,,,,,,,,,,,,
1577976178.575188,70.000000,0.000000,4090.256348,4382.563965,4147.692383,4113.846191,4078.461426,318.000000,0.000000,,,,0.000000,4.000000,4.000000,2.000000,4.000000,4.000000,,,,,,,,,,,,,,,,,,,,,,,,,
1577976178.582986,71.000000,0.000000,4073.333252,4380.512695,4133.846191,4102.051270,4063.589844,450.000000,0.000000,,,,0.000000,4.000000,4.000000,2.000000,4.000000,4.000000,,,,,,,,,,,,,,,,,,,,,,,,,
1577976178.590883,72.000000,0.000000,4081.538574,4405.641113,4120.512695,4101.538574,4065.128174,450.000000,0.000000,,,,0.000000,4.000000,4.000000,2.000000,4.000000,4.000000,,,,,,,,,,,,,,,,,,,,,,,,,
1577976178.598681,73.000000,0.000000,4105.128418,4431.282227,4123.589844,4111.282227,4086.153809,16164.000000,0.000000,,,,0.000000,4.000000,4.000000,2.000000,4.000000,4.000000,,,,,,,,,,,,,,,,,,,,,,,,,
1577976178.606579,74.000000,0.000000,4117.948730,4439.487305,4129.230957,4115.897461,4101.025879,450.000000,0.000000,,,,0.000000,4.000000,4.000000,2.000000,4.000000,4.000000,,,,,,,,,,,,,,,,,,,,,,,,,
1577976178.614376,75.000000,0.000000,4153.846191,4457.436035,4159.487305,4162.051270,4138.461426,16201.000000,0.000000,,,,0.000000,4.000000,4.000000,2.000000,4.000000,4.000000,,,,,,,,,,,,,,,,,,,,,,,,,
1577976178.622274,76.000000,0.000000,4213.333496,4479.487305,4197.436035,4225.641113,4199.487305,450.000000,0.000000,,,,0.000000,4.000000,4.000000,2.000000,4.000000,4.000000,,,,,,,,,,,,,,,,,,,,,,,,,
1577976178.630072,77.000000,0.000000,4228.205078,4467.692383,4195.384766,4219.487305,4212.820313,450.000000,0.000000,,,,0.000000,4.000000,4.000000,2.000000,4.000000,4.000000,,,,,,,,,,,,,,,,,,,,,,,,,
1577976178.637969,78.000000,0.000000,4189.743652,4446.666504,4163.589844,4172.307617,4173.333496,450.000000,0.000000,,,,0.000000,4.000000,4.000000,2.000000,4.000000,4.000000,,,,,,,,,,,,,,,,,,,,,,,,,
1577976178.645767,79.000000,0.000000,4169.230957,4426.153809,4149.743652,4159.487305,4153.846191,16201.000000,0.000000,,,,0.000000,4.000000,4.000000,2.000000,4.000000,4.000000,16.463127,10.043312,12.056359,9.385268,6.013910,20.165209,13.269747,3.653237,5.299829,4.267157,4.847401,2.999570,5.870934,2.361194,3.378692,7.142771,6.061720,7.352267,7.860789,6.758715,18.513054,10.092773,11.901996,9.699319,6.044890
1577976178.653664,80.000000,0.000000,4186.153809,4405.128418,4164.102539,4161.025879,4166.666504,450.000000,0.000000,,,,0.000000,4.000000,4.000000,2.000000,4.000000,4.000000,,,,,,,,,,,,,,,,,,,,,,,,,
1577976178.661461,81.000000,0.000000,4194.358887,4404.102539,4168.205078,4151.794922,4168.717773,450.000000,0.000000,,,,0.000000,4.000000,4.000000,2.000000,4.000000,4.000000,,,,,,,,,,,,,,,,,,,,,,,,,
1577976178.669359,82.000000,0.000000,4167.692383,4405.128418,4141.025879,4135.384766,4144.102539,450.000000,0.000000,,,,0.000000,4.000000,4.000000,2.000000,4.000000,4.000000,,,,,,,,,,,,,,,,,,,,,,,,,
1577976178.677156,83.000000,0.000000,4130.256348,4385.641113,4117.948730,4100.512695,4110.256348,16201.000000,0.000000,,,,0.000000,4.000000,4.000000,2.000000,4.000000,4.000000,,,,,,,,,,,,,,,,,,,,,,,,,
1577976178.685054,84.000000,0.000000,4129.230957,4364.102539,4131.794922,4096.410156,4109.230957,450.000000,0.000000,,,,0.000000,4.000000,4.000000,2.000000,4.000000,4.000000,,,,,,,,,,,,,,,,,,,,,,,,,
1577976178.692951,85.000000,0.000000,4150.769043,4364.102539,4147.179688,4128.205078,4135.384766,450.000000,0.000000,,,,0.000000,4.000000,4.000000,2.000000,4.000000,4.000000,,,,,,,,,,,,,,,,,,,,,,,,,
1577976178.700749,86.000000,0.000000,4133.333496,4367.692383,4134.871582,4127.179688,4123.589844,450.000000,0.000000,,,,0.000000,4.000000,4.000000,2.000000,4.000000,4.000000,,,,,,,,,,,,,,,,,,,,,,,,,
1577976178.708647,87.000000,0.000000,4129.230957,4392.820313,4143.077148,4127.179688,4118.461426,16201.000000,0.000000,,,,0.000000,4.000000,4.000000,2.000000,4.000000,4.000000,,,,,,,,,,,,,,,,,,,,,,,,,
1577976178.716445,88.000000,0.000000,4193.333496,4446.153809,4190.769043,4183.589844,4175.384766,450.000000,0.000000,,,,0.000000,4.000000,4.000000,2.000000,4.000000,4.000000,,,,,,,,,,,,,,,,,,,,,,,,,
1577976178.724342,89.000000,0.000000,4213.846191,4445.128418,4202.051270,4204.615234,4195.384766,450.000000,0.000000,,,,0.000000,4.000000,4.000000,2.000000,4.000000,4.000000,,,,,,,,,,,,,,,,,,,,,,,,,
1577976178.732140,90.000000,0.000000,4152.307617,4392.307617,4154.871582,4146.153809,4138.461426,450.000000,0.000000,,,,0.000000,4.000000,4.000000,2.000000,4.000000,4.000000,,,,,,,,,,,,,,,,,,,,,,,,,
1577976178.740038,91.000000,0.000000,4135.897461,4389.230957,4143.077148,4118.461426,4122.051270,16201.000000,0.000000,,,,0.000000,4.000000,4.000000,2.000000,4.000000,4.000000,,,,,,,,,,,,,,,,,,,,,,,,,
1577976178.747835,92.000000,0.000000,4181.025879,4418.461426,4184.102539,4160.512695,4167.179688,450.000000,0.000000,,,,0.000000,4.000000,4.000000,2.000000,4.000000,4.000000,,,,,,,,,,,,,,,,,,,,,,,,,
1577976178.755733,93.000000,0.000000,4176.410156,4389.230957,4178.461426,4167.692383,4163.589844,450.000000,0.000000,,,,0.000000,4.000000,4.000000,2.000000,4.000000,4.000000,,,,,,,,,,,,,,,,,,,,,,,,,
1577976178.763531,94.000000,0.000000,4116.410156,4341.538574,4127.179688,4106.153809,4106.153809,450.000000,0.000000,,,,0.000000,4.000000,4.000000,2.000000,4.000000,4.000000,,,,,,,,,,,,,,,,,,,,,,,,,
1577976178.771428,95.000000,0.000000,4095.384521,4351.282227,4126.153809,4085.641113,4093.333252,16201.000000,0.000000,,,,0.000000,4.000000,4.000000,2.000000,4.000000,4.000000,18.859118,10.856979,10.299912,11.854617,6.345519,20.116877,13.398794,3.730935,5.530536,4.704119,4.962572,2.758506,4.856148,2.869713,3.431603,8.279334,7.760355,6.447877,9.555276,7.066753,21.683607,11.703288,10.377569,12.084479,6.455646
1577976178.779226,96.000000,0.000000,4139.487305,4384.615234,4171.282227,4147.179688,4148.205078,450.000000,0.000000,,,,0.000000,4.000000,4.000000,2.000000,4.000000,4.000000,,,,,,,,,,,,,,,,,,,,,,,,,
1577976178.787124,97.000000,0.000000,4162.563965,4389.743652,4176.410156,4171.794922,4176.922852,450.000000,0.000000,,,,0.000000,4.000000,4.000000,2.000000,4.000000,4.000000,,,,,,,,,,,,,,,,,,,,,,,,,
1577976178.794921,98.000000,0.000000,4145.128418,4384.615234,4152.307617,4143.077148,4158.461426,450.000000,0.000000,,,,0.000000,4.000000,4.000000,2.000000,4.000000,4.000000,,,,,,,,,,,,,,,,,,,,,,,,,
1577976178.802819,99.000000,0.000000,4142.563965,4383.589844,4152.820313,4152.820313,4152.820313,16201.000000,0.000000,,,,0.000000,4.000000,4.000000,2.000000,4.000000,4.000000,,,,,,,,,,,,,,,,,,,,,,,,,
1577976178.810617,100.000000,0.000000,4134.358887,4364.102539,4148.717773,4151.282227,4141.538574,450.000000,0.000000,,,,0.000000,4.000000,4.000000,2.000000,4.000000,4.000000,,,,,,,,,,,,,,,,,,,,,,,,,
1577976178.818514,101.000000,0.000000,4117.948730,4358.974121,4131.794922,4123.589844,4125.641113,450.000000,0.000000,,,,0.000000,4.000000,4.000000,2.000000,4.000000,4.000000,,,,,,,,,,,,,,,,,,,,,,,,,
1577976178.826312,102.000000,0.000000,4143.589844,4385.128418,4141.538574,4147.692383,4151.794922,450.000000,0.000000,,,,0.000000,4.000000,4.000000,2.000000,4.000000,4.000000,,,,,,,,,,,,,,,,,,,,,,,,,
1577976178.834210,103.000000,0.000000,4180.512695,4383.589844,4163.077148,4179.487305,4185.641113,16201.000000,0.000000,,,,0.000000,4.000000,4.000000,2.000000,4.000000,4.000000,,,,,,,,,,,,,,,,,,,,,,,,,
1577976178.842108,104.000000,0.000000,4161.025879,4344.615234,4150.256348,4146.666504,4164.102539,450.000000,0.000000,,,,0.000000,4.000000,4.000000,2.000000,4.000000,4.000000,,,,,,,,,,,,,,,,,,,,,,,,,
1577976178.849906,105.000000,0.000000,4148.717773,4342.563965,4138.461426,4132.307617,4153.333496,450.000000,0.000000,,,,0.000000,4.000000,4.000000,2.000000,4.000000,4.000000,,,,,,,,,,,,,,,,,,,,,,,,,
1577976178.857703,106.000000,0.000000,4190.769043,4379.487305,4157.948730,4169.743652,4193.846191,450.000000,0.000000,,,,0.000000,4.000000,4.000000,2.000000,4.000000,4.000000,,,,,,,,,,,,,,,,,,,,,,,,,
1577976178.865601,107.000000,0.000000,4190.769043,4388.205078,4156.410156,4166.666504,4194.358887,16201.000000,0.000000,,,,0.000000,4.000000,4.000000,2.000000,4.000000,4.000000,,,,,,,,,,,,,,,,,,,,,,,,,
1577976178.873499,108.000000,0.000000,4145.128418,4387.179688,4140.512695,4139.487305,4160.000000,450.000000,0.000000,,,,0.000000,4.000000,4.000000,2.000000,4.000000,4.000000,,,,,,,,,,,,,,,,,,,,,,,,,
1577976178.881297,109.000000,0.000000,4147.179688,4406.666504,4152.307617,4144.102539,4158.974121,450.000000,0.000000,,,,0.000000,4.000000,4.000000,2.000000,4.000000,4.000000,,,,,,,,,,,,,,,,,,,,,,,,,
1577976178.889195,110.000000,0.000000,4172.820313,4416.922852,4165.641113,4148.717773,4166.666504,450.000000,0.000000,,,,0.000000,4.000000,4.000000,2.000000,4.000000,4.000000,,,,,,,,,,,,,,,,,,,,,,,,,
1577976178.896992,111.000000,0.000000,4173.333496,4424.102539,4164.102539,4144.102539,4170.256348,16201.000000,0.000000,,,,0.000000,4.000000,4.000000,2.000000,4.000000,4.000000,20.704590,11.943545,9.097462,13.827206,6.440784,18.265848,12.797955,4.559355,5.723109,4.870454,4.605213,2.684163,3.750542,3.268186,3.395151,8.911659,9.542358,6.335666,10.940134,7.144760,23.798357,13.451735,9.872404,13.865187,6.657892
1577976178.904790,112.000000,0.000000,4176.922852,4428.717773,4165.128418,4143.589844,4184.102539,450.000000,0.000000,,,,0.000000,4.000000,4.000000,2.000000,4.000000,4.000000,,,,,,,,,,,,,,,,,,,,,,,,,
1577976178.912688,113.000000,0.000000,4172.820313,4395.384766,4155.897461,4138.461426,4169.743652,450.000000,0.000000,,,,0.000000,4.000000,4.000000,2.000000,4.000000,4.000000,,,,,,,,,,,,,,,,,,,,,,,,,
1577976178.920585,114.000000,0.000000,4152.820313,4366.153809,4147.179688,4134.871582,4136.922852,450.000000,0.000000,,,,0.000000,4.000000,4.000000,2.000000,4.000000,4.000000,,,,,,,,,,,,,,,,,,,,,,,,,
1577976178.928383,115.000000,0.000000,4152.820313,4389.230957,4152.307617,4129.743652,4137.436035,16201.000000,0.000000,,,,0.000000,4.000000,4.000000,2.000000,4.000000,4.000000,,,,,,,,,,,,,,,,,,,,,,,,,
1577976178.936181,116.000000,0.000000,4158.974121,4412.307617,4150.256348,4122.051270,4146.666504,450.000000,0.000000,,,,0.000000,4.000000,4.000000,2.000000,4.000000,4.000000,,,,,,,,,,,,,,,,,,,,,,,,,
1577976178.943878,117.000000,0.000000,4148.205078,4417.948730,4143.077148,4121.538574,4138.974121,450.000000,0.000000,,,,0.000000,4.000000,4.000000,2.000000,4.000000,4.000000,,,,,,,,,,,,,,,,,,,,,,,,,
1577976178.951676,118.000000,0.000000,4143.589844,4440.000000,4143.077148,4116.410156,4134.358887,450.000000,0.000000,,,,0.000000,4.000000,4.000000,2.000000,4.000000,4.000000,,,,,,,,,,,,,,,,,,,,,,,,,
1577976178.959374,119.000000,0.000000,4164.615234,4465.641113,4152.307617,4131.794922,4150.769043,16201.000000,0.000000,,,,0.000000,4.000000,4.000000,2.000000,4.000000,4.000000,,,,,,,,,,,,,,,,,,,,,,,,,
1577976178.967271,120.000000,0.000000,4173.846191,4443.589844,4154.871582,4158.461426,4160.000000,450.000000,0.000000,,,,0.000000,4.000000,4.000000,2.000000,4.000000,4.000000,,,,,,,,,,,,,,,,,,,,,,,,,
1577976178.975069,121.000000,0.000000,4156.922852,4389.230957,4148.205078,4137.436035,4148.717773,450.000000,0.000000,,,,0.000000,4.000000,4.000000,2.000000,4.000000,4.000000,,,,,,,,,,,,,,,,,,,,,,,,,
1577976178.982966,122.000000,0.000000,4161.025879,4375.897461,4156.922852,4126.666504,4150.769043,450.000000,0.000000,,,,0.000000,4.000000,4.000000,2.000000,4.000000,4.000000,,,,,,,,,,,,,,,,,,,,,,,,,
1577976178.990764,123.000000,0.000000,4186.666504,4397.436035,4174.871582,4165.128418,4172.307617,16201.000000,0.000000,,,,0.000000,4.000000,4.000000,2.000000,4.000000,4.000000,,,,,,,,,,,,,,,,,,,,,,,,,
1577976178.998662,124.000000,0.000000,4181.025879,4369.230957,4161.538574,4166.666504,4166.666504,450.000000,0.000000,,,,0.000000,4.000000,4.000000,2.000000,4.000000,4.000000,,,,,,,,,,,,,,,,,,,,,,,,,
1577976179.006560,125.000000,0.000000,4144.102539,4304.102539,4129.743652,4109.230957,4128.205078,450.000000,0.000000,,,,0.000000,4.000000,4.000000,2.000000,4.000000,4.000000,,,,,,,,,,,,,,,,,,,,,,,,,
1577976179.014358,126.000000,0.000000,4138.461426,4307.692383,4132.820313,4085.128174,4123.077148,450.000000,0.000000,,,,0.000000,4.000000,4.000000,2.000000,4.000000,4.000000,,,,,,,,,,,,,,,,,,,,,,,,,
1577976179.022156,127.000000,0.000000,4184.615234,4358.974121,4165.641113,4134.871582,4169.743652,224.000000,0.000000,,,,0.000000,4.000000,4.000000,2.000000,4.000000,4.000000,21.170639,12.920295,8.414351,14.798662,6.244512,15.504279,11.890129,5.995559,5.865399,4.699721,3.905501,2.866537,2.763790,3.485178,3.266187,8.968224,11.201810,6.916201,11.636175,6.958478,24.288607,14.777379,10.277130,14.572238,6.552956
1577976179.030053,0.000000,0.000000,4226.666504,4372.307617,4174.358887,4182.563965,4206.666504,450.000000,0.000000,,,,0.000000,4.000000,4.000000,2.000000,4.000000,4.000000,,,,,,,,,,,,,,,,,,,,,,,,,
1577976179.037851,1.000000,0.000000,4189.743652,4347.179688,4140.000000,4140.512695,4169.743652,450.000000,0.000000,,,,0.000000,4.000000,4.000000,2.000000,4.000000,4.000000,,,,,,,,,,,,,,,,,,,,,,,,,
1577976179.045748,2.000000,0.000000,4142.051270,4335.384766,4130.769043,4092.307617,4132.820313,16209.000000,0.000000,,,,0.000000,4.000000,4.000000,2.000000,4.000000,4.000000,,,,,,,,,,,,,,,,,,,,,,,,,
1577976179.053546,3.000000,0.000000,4175.897461,4350.256348,4163.077148,4134.358887,4169.743652,450.000000,0.000000,,,,0.000000,4.000000,4.000000,2.000000,4.000000,4.000000,,,,,,,,,,,,,,,,,,,,,,,,,
1577976179.061443,4.000000,0.000000,4199.487305,4349.743652,4165.128418,4156.922852,4188.717773,16209.000000,0.000000,,,,0.000000,4.000000,4.000000,2.000000,4.000000,4.000000,,,,,,,,,,,,,,,,,,,,,,,,,
1577976179.069241,5.000000,0.000000,4167.692383,4340.512695,4149.743652,4126.153809,4165.641113,450.000000,0.000000,,,,0.000000,4.000000,4.000000,2.000000,4.000000,4.000000,,,,,,,,,,,,,,,,,,,,,,,,,
1577976179.077138,6.000000,0.000000,4164.102539,4332.307617,4158.461426,4127.179688,4173.846191,320.000000,0.000000,,,,0.000000,4.000000,4.000000,2.000000,4.000000,4.000000,,,,,,,,,,,,,,,,,,,,,,,,,
1577976179.084935,7.000000,0.000000,4173.333496,4300.000000,4157.948730,4120.000000,4176.410156,450.000000,0.000000,,,,0.000000,4.000000,4.000000,2.000000,4.000000,4.000000,,,,,,,,,,,,,,,,,,,,,,,,,
1577976179.092833,8.000000,0.000000,4156.922852,4268.717773,4152.307617,4097.948730,4153.846191,450.000000,0.000000,,,,0.000000,4.000000,4.000000,2.000000,4.000000,4.000000,,,,,,,,,,,,,,,,,,,,,,,,,
1577976179.100630,9.000000,0.000000,4171.794922,4291.794922,4170.256348,4127.179688,4175.897461,16172.000000,0.000000,,,,0.000000,4.000000,4.000000,2.000000,4.000000,4.000000,,,,,,,,,,,,,,,,,,,,,,,,,
1577976179.108528,10.000000,0.000000,4187.692383,4337.436035,4165.128418,4138.974121,4193.846191,450.000000,0.000000,,,,0.000000,4.000000,4.000000,2.000000,4.000000,4.000000,,,,,,,,,,,,,,,,,,,,,,,,,
1577976179.116325,11.000000,0.000000,4151.794922,4341.538574,4132.307617,4092.307617,4155.384766,16208.000000,0.000000,,,,0.000000,4.000000,4.000000,2.000000,4.000000,4.000000,,,,,,,,,,,,,,,,,,,,,,,,,
1577976179.124023,12.000000,0.000000,4141.025879,4325.641113,4139.487305,4086.153809,4142.051270,450.000000,0.000000,,,,0.000000,4.000000,4.000000,2.000000,4.000000,4.000000,,,,,,,,,,,,,,,,,,,,,,,,,
1577976179.131820,13.000000,0.000000,4188.205078,4333.846191,4170.256348,4140.000000,4188.205078,450.000000,0.000000,,,,0.000000,4.000000,4.000000,2.000000,4.000000,4.000000,,,,,,,,,,,,,,,,,,,,,,,,,
1577976179.139518,14.000000,0.000000,4212.820313,4338.974121,4165.641113,4158.974121,4218.974121,450.000000,0.000000,,,,0.000000,4.000000,4.000000,2.000000,4.000000,4.000000,,,,,,,,,,,,,,,,,,,,,,,,,
1577976179.147415,15.000000,0.000000,4176.922852,4295.384766,4132.820313,4117.948730,4191.282227,16208.000000,0.000000,,,,0.000000,4.000000,4.000000,2.000000,4.000000,4.000000,20.396839,13.706680,8.160855,14.541492,5.817198,12.900744,11.206162,7.756463,5.925354,4.250540,3.114319,3.375938,2.086960,3.500618,3.073469,8.558255,12.740432,7.954936,11.455739,6.555450,23.329414,15.419130,11.301777,14.061825,6.159444
1577976179.155213,16.000000,0.000000,4146.153809,4265.641113,4123.077148,4092.307617,4162.051270,0.000000,0.000000,,,,0.000000,4.000000,4.000000,2.000000,4.000000,4.000000,,,,,,,,,,,,,,,,,,,,,,,,,
1577976179.163111,17.000000,0.000000,4150.256348,4278.461426,4128.717773,4106.666504,4163.589844,0.000000,0.000000,,,,0.000000,4.000000,4.000000,2.000000,4.000000,4.000000,,,,,,,,,,,,,,,,,,,,,,,,,
1577976179.170908,18.000000,0.000000,4144.102539,4258.974121,4121.538574,4105.641113,4156.410156,0.000000,0.000000,,,,0.000000,4.000000,4.000000,2.000000,4.000000,4.000000,,,,,,,,,,,,,,,,,,,,,,,,,
1577976179.178806,19.000000,0.000000,4136.410156,4248.717773,4129.743652,4093.333252,4149.230957,0.000000,0.000000,,,,0.000000,4.000000,4.000000,2.000000,4.000000,4.000000,,,,,,,,,,,,,,,,,,,,,,,,,
1577976179.186604,20.000000,0.000000,4159.487305,4278.974121,4148.717773,4112.307617,4169.230957,0.000000,0.000000,,,,0.000000,4.000000,4.000000,2.000000,4.000000,4.000000,,,,,,,,,,,,,,,,,,,,,,,,,
1577976179.194501,21.000000,0.000000,4169.230957,4271.794922,4138.974121,4125.641113,4175.897461,0.000000,0.000000,,,,0.000000,4.000000,4.000000,2.000000,4.000000,4.000000,,,,,,,,,,,,,,,,,,,,,,,,,
1577976179.202299,22.000000,0.000000,4142.563965,4246.153809,4115.897461,4101.025879,4150.769043,0.000000,0.000000,,,,0.000000,4.000000,4.000000,2.000000,4.000000,4.000000,,,,,,,,,,,,,,,,,,,,,,,,,
1577976179.210197,23.000000,0.000000,4133.333496,4257.948730,4116.922852,4086.153809,4141.025879,0.000000,0.000000,,,,0.000000,4.000000,4.000000,2.000000,4.000000,4.000000,,,,,,,,,,,,,,,,,,,,,,,,,
1577976179.217995,24.000000,0.000000,4160.000000,4266.153809,4141.538574,4109.230957,4164.102539,0.000000,0.000000,,,,0.000000,4.000000,4.000000,2.000000,4.000000,4.000000,,,,,,,,,,,,,,,,,,,,,,,,,
1577976179.225892,25.000000,0.000000,4184.615234,4264.102539,4161.025879,4134.358887,4189.230957,0.000000,0.000000,,,,0.000000,4.000000,4.000000,2.000000,4.000000,4.000000,,,,,,,,,,,,,,,,,,,,,,,,,
1577976179.233690,26.000000,0.000000,4194.358887,4267.692383,4162.563965,4137.436035,4201.538574,0.000000,0.000000,,,,0.000000,4.000000,4.000000,2.000000,4.000000,4.000000,,,,,,,,,,,,,,,,,,,,,,,,,
1577976179.241587,27.000000,0.000000,4188.717773,4249.230957,4152.307617,4118.974121,4193.333496,0.000000,0.000000,,,,0.000000,4.000000,4.000000,2.000000,4.000000,4.000000,,,,,,,,,,,,,,,,,,,,,,,,,
1577976179.249385,28.000000,0.000000,4167.692383,4234.871582,4140.000000,4096.410156,4171.282227,0.000000,0.000000,,,,0.000000,4.000000,4.000000,2.000000,4.000000,4.000000,,,,,,,,,,,,,,,,,,,,,,,,,
1577976179.257282,29.000000,0.000000,4162.051270,4260.512695,4141.025879,4102.051270,4163.589844,0.000000,0.000000,,,,0.000000,4.000000,4.000000,2.000000,4.000000,4.000000,,,,,,,,,,,,,,,,,,,,,,,,,
1577976179.265080,30.000000,0.000000,4171.794922,4273.333496,4148.717773,4125.128418,4168.717773,0.000000,0.000000,,,,0.000000,4.000000,4.000000,2.000000,4.000000,4.000000,,,,,,,,,,,,,,,,,,,,,,,,,
1577976179.272977,31.000000,0.000000,4155.384766,4246.153809,4136.922852,4108.205078,4152.820313,0.000000,0.000000,,,,0.000000,4.000000,4.000000,2.000000,4.000000,4.000000,18.782743,14.438085,8.203158,13.188946,5.317647,11.289938,11.125513,9.654317,5.886849,3.699173,2.432833,4.201810,1.809230,3.340502,2.871928,7.894892,14.268206,9.128998,10.483917,6.070039,21.496853,15.548067,12.534711,12.561454,5.618248
1577976179.280875,32.000000,0.000000,4144.102539,4245.641113,4128.717773,4092.820557,4138.461426,0.000000,0.000000,,,,0.000000,4.000000,4.000000,2.000000,4.000000,4.000000,,,,,,,,,,,,,,,,,,,,,,,,,
1577976179.288673,33.000000,0.000000,4183.077148,4280.000000,4149.743652,4118.974121,4168.717773,0.000000,0.000000,,,,0.000000,4.000000,4.000000,2.000000,4.000000,4.000000,,,,,,,,,,,,,,,,,,,,,,,,,
1577976179.296471,34.000000,0.000000,4204.615234,4276.410156,4155.897461,4114.358887,4191.282227,0.000000,0.000000,,,,0.000000,4.000000,4.000000,2.000000,4.000000,4.000000,,,,,,,,,,,,,,,,,,,,,,,,,
1577976179.304168,35.000000,0.000000,4190.256348,4251.794922,4140.512695,4097.436035,4178.461426,0.000000,0.000000,,,,0.000000,4.000000,4.000000,2.000000,4.000000,4.000000,,,,,,,,,,,,,,,,,,,,,,,,,
1577976179.312066,36.000000,0.000000,4211.794922,4262.051270,4151.282227,4137.436035,4189.743652,0.000000,0.000000,,,,0.000000,4.000000,4.000000,2.000000,4.000000,4.000000,,,,,,,,,,,,,,,,,,,,,,,,,
1577976179.319864,37.000000,0.000000,4238.974121,4267.179688,4172.307617,4162.563965,4215.384766,0.000000,0.000000,,,,0.000000,4.000000,4.000000,2.000000,4.000000,4.000000,,,,,,,,,,,,,,,,,,,,,,,,,
1577976179.327761,38.000000,0.000000,4204.102539,4235.897461,4160.512695,4113.846191,4194.358887,0.000000,0.000000,,,,0.000000,4.000000,4.000000,2.000000,4.000000,4.000000,,,,,,,,,,,,,,,,,,,,,,,,,
1577976179.335559,39.000000,0.000000,4171.282227,4223.589844,4147.692383,4082.564209,4170.769043,0.000000,0.000000,,,,0.000000,4.000000,4.000000,2.000000,4.000000,4.000000,,,,,,,,,,,,,,,,,,,,,,,,,
1577976179.343457,40.000000,0.000000,4187.692383,4231.282227,4159.487305,4116.410156,4186.153809,0.000000,0.000000,,,,0.000000,4.000000,4.000000,2.000000,4.000000,4.000000,,,,,,,,,,,,,,,,,,,,,,,,,
1577976179.351254,41.000000,0.000000,4182.051270,4214.871582,4150.769043,4112.307617,4175.897461,0.000000,0.000000,,,,0.000000,4.000000,4.000000,2.000000,4.000000,4.000000,,,,,,,,,,,,,,,,,,,,,,,,,
1577976179.359052,42.000000,0.000000,4165.128418,4205.641113,4137.948730,4078.974365,4155.897461,0.000000,0.000000,,,,0.000000,4.000000,4.000000,2.000000,4.000000,4.000000,,,,,,,,,,,,,,,,,,,,,,,,,
1577976179.366749,43.000000,0.000000,4199.487305,4215.897461,4159.487305,4107.179688,4188.717773,0.000000,0.000000,,,,0.000000,4.000000,4.000000,2.000000,4.000000,4.000000,,,,,,,,,,,,,,,,,,,,,,,,,
1577976179.374647,44.000000,0.000000,4222.051270,4216.922852,4170.256348,4135.897461,4205.128418,0.000000,0.000000,,,,0.000000,4.000000,4.000000,2.000000,4.000000,4.000000,,,,,,,,,,,,,,,,,,,,,,,,,
1577976179.382445,45.000000,0.000000,4187.179688,4221.538574,4147.692383,4102.563965,4170.769043,0.000000,0.000000,,,,0.000000,4.000000,4.000000,2.000000,4.000000,4.000000,,,,,,,,,,,,,,,,,,,,,,,,,
1577976179.390342,46.000000,0.000000,4194.871582,4247.179688,4148.205078,4096.922852,4184.615234,0.000000,0.000000,,,,0.000000,4.000000,4.000000,2.000000,4.000000,4.000000,,,,,,,,,,,,,,,,,,,,,,,,,
1577976179.398140,47.000000,0.000000,4256.922852,4261.025879,4165.128418,4134.358887,4238.461426,0.000000,0.000000,,,,0.000000,4.000000,4.000000,2.000000,4.000000,4.000000,16.772287,15.126428,8.330848,11.160533,4.928603,10.867603,11.781050,11.565137,5.752192,3.257775,1.986212,5.161712,1.862613,3.062408,2.719070,7.208179,15.720597,10.051933,9.005030,5.680311,19.313753,15.417248,13.458060,10.544127,5.125370
1577976179.406038,48.000000,0.000000,4273.846191,4236.410156,4149.230957,4120.000000,4241.538574,0.000000,0.000000,,,,0.000000,4.000000,4.000000,2.000000,4.000000,4.000000,,,,,,,,,,,,,,,,,,,,,,,,,
1577976179.413835,49.000000,0.000000,4293.333496,4218.974121,4146.153809,4104.102539,4254.871582,0.000000,0.000000,,,,0.000000,4.000000,4.000000,2.000000,4.000000,4.000000,,,,,,,,,,,,,,,,,,,,,,,,,
1577976179.421733,50.000000,0.000000,4383.077148,4254.358887,4184.102539,4169.743652,4338.461426,0.000000,0.000000,,,,0.000000,4.000000,4.000000,2.000000,4.000000,4.000000,,,,,,,,,,,,,,,,,,,,,,,,,
1577976179.429530,51.000000,0.000000,4433.846191,4278.974121,4182.563965,4204.102539,4377.436035,0.000000,0.000000,,,,0.000000,4.000000,4.000000,2.000000,4.000000,4.000000,,,,,,,,,,,,,,,,,,,,,,,,,
1577976179.437428,52.000000,0.000000,4400.512695,4232.307617,4141.025879,4147.179688,4335.897461,0.000000,0.000000,,,,0.000000,4.000000,4.000000,2.000000,4.000000,4.000000,,,,,,,,,,,,,,,,,,,,,,,,,
1577976179.445325,53.000000,0.000000,4391.794922,4192.820313,4153.333496,4106.666504,4321.025879,0.000000,0.000000,,,,0.000000,4.000000,4.000000,2.000000,4.000000,4.000000,,,,,,,,,,,,,,,,,,,,,,,,,
1577976179.453123,54.000000,0.000000,4417.948730,4217.436035,4189.743652,4129.743652,4344.102539,0.000000,0.000000,,,,0.000000,4.000000,4.000000,2.000000,4.000000,4.000000,,,,,,,,,,,,,,,,,,,,,,,,,
1577976179.461021,55.000000,0.000000,4420.000000,4236.410156,4180.512695,4145.128418,4346.153809,0.000000,0.000000,,,,0.000000,4.000000,4.000000,2.000000,4.000000,4.000000,,,,,,,,,,,,,,,,,,,,,,,,,
1577976179.468819,56.000000,0.000000,4416.922852,4217.436035,4168.717773,4128.717773,4339.487305,0.000000,0.000000,,,,0.000000,4.000000,4.000000,2.000000,4.000000,4.000000,,,,,,,,,,,,,,,,,,,,,,,,,
1577976179.476617,57.000000,0.000000,4407.179688,4191.794922,4165.641113,4103.589844,4333.333496,0.000000,0.000000,,,,0.000000,4.000000,4.000000,2.000000,4.000000,4.000000,,,,,,,,,,,,,,,,,,,,,,,,,
1577976179.484315,58.000000,0.000000,4371.794922,4182.051270,4154.871582,4096.922852,4311.282227,0.000000,0.000000,,,,0.000000,4.000000,4.000000,2.000000,4.000000,4.000000,,,,,,,,,,,,,,,,,,,,,,,,,
1577976179.492112,59.000000,0.000000,4373.333496,4205.641113,4175.897461,4134.358887,4321.025879,0.000000,0.000000,,,,0.000000,4.000000,4.000000,2.000000,4.000000,4.000000,,,,,,,,,,,,,,,,,,,,,,,,,
1577976179.499810,60.000000,0.000000,4404.615234,4234.871582,4205.641113,4173.333496,4354.871582,0.000000,0.000000,,,,0.000000,4.000000,4.000000,2.000000,4.000000,4.000000,,,,,,,,,,,,,,,,,,,,,,,,,
1577976179.507607,61.000000,0.000000,4371.282227,4215.897461,4178.461426,4153.333496,4326.666504,0.000000,0.000000,,,,0.000000,4.000000,4.000000,2.000000,4.000000,4.000000,,,,,,,,,,,,,,,,,,,,,,,,,
1577976179.515305,62.000000,0.000000,4320.000000,4184.102539,4146.666504,4126.666504,4285.128418,0.000000,0.000000,,,,0.000000,4.000000,4.000000,2.000000,4.000000,4.000000,,,,,,,,,,,,,,,,,,,,,,,,,
1577976179.523202,63.000000,0.000000,4326.153809,4191.794922,4158.974121,4125.128418,4299.487305,0.000000,0.000000,,,,0.000000,4.000000,4.000000,2.000000,4.000000,4.000000,14.762105,15.511613,8.183072,8.986820,4.752166,11.297694,12.959106,13.360830,5.522884,3.069142,1.772306,5.956693,2.041640,2.743105,2.639373,6.562822,16.714657,10.292104,7.390655,5.508543,17.080576,15.068495,13.453789,8.523160,4.816575
1577976179.531000,64.000000,0.000000,4311.282227,4188.717773,4153.333496,4095.384521,4293.333496,450.000000,0.000000,,,,0.000000,4.000000,4.000000,2.000000,4.000000,4.000000,,,,,,,,,,,,,,,,,,,,,,,,,
1577976179.538898,65.000000,0.000000,4278.974121,4174.358887,4138.974121,4084.102539,4264.615234,450.000000,0.000000,,,,0.000000,4.000000,4.000000,2.000000,4.000000,4.000000,,,,,,,,,,,,,,,,,,,,,,,,,
1577976179.546696,66.000000,0.000000,4301.025879,4192.307617,4156.410156,4124.615234,4281.538574,16209.000000,0.000000,,,,0.000000,4.000000,4.000000,2.000000,4.000000,4.000000,,,,,,,,,,,,,,,,,,,,,,,,,
1577976179.554593,67.000000,0.000000,4311.282227,4194.358887,4172.820313,4129.230957,4291.794922,450.000000,0.000000,,,,0.000000,4.000000,4.000000,2.000000,4.000000,4.000000,,,,,,,,,,,,,,,,,,,,,,,,,
1577976179.562391,68.000000,0.000000,4294.871582,4185.128418,4176.410156,4114.871582,4284.102539,16209.000000,0.000000,,,,0.000000,4.000000,4.000000,2.000000,4.000000,4.000000,,,,,,,,,,,,,,,,,,,,,,,,,
1577976179.570288,69.000000,0.000000,4311.282227,4210.256348,4186.666504,4143.077148,4299.487305,450.000000,0.000000,,,,0.000000,4.000000,4.000000,2.000000,4.000000,4.000000,,,,,,,,,,,,,,,,,,,,,,,,,
1577976179.578086,70.000000,0.000000,4325.641113,4226.153809,4203.589844,4167.179688,4312.820313,319.000000,0.000000,,,,0.000000,4.000000,4.000000,2.000000,4.000000,4.000000,,,,,,,,,,,,,,,,,,,,,,,,,
1577976179.585984,71.000000,0.000000,4303.077148,4196.922852,4200.512695,4152.307617,4296.922852,450.000000,0.000000,,,,0.000000,4.000000,4.000000,2.000000,4.000000,4.000000,,,,,,,,,,,,,,,,,,,,,,,,,
1577976179.593782,72.000000,0.000000,4275.897461,4176.410156,4166.666504,4112.820313,4269.230957,450.000000,0.000000,,,,0.000000,4.000000,4.000000,2.000000,4.000000,4.000000,,,,,,,,,,,,,,,,,,,,,,,,,
1577976179.601679,73.000000,0.000000,4282.563965,4207.692383,4149.743652,4098.974121,4272.820313,16171.000000,0.000000,,,,0.000000,4.000000,4.000000,2.000000,4.000000,4.000000,,,,,,,,,,,,,,,,,,,,,,,,,
1577976179.609477,74.000000,0.000000,4311.794922,4247.179688,4168.205078,4135.384766,4308.717773,450.000000,0.000000,,,,0.000000,4.000000,4.000000,2.000000,4.000000,4.000000,,,,,,,,,,,,,,,,,,,,,,,,,
1577976179.617374,75.000000,0.000000,4318.974121,4245.128418,4173.846191,4148.205078,4320.512695,16204.000000,0.000000,,,,0.000000,4.000000,4.000000,2.000000,4.000000,4.000000,,,,,,,,,,,,,,,,,,,,,,,,,
1577976179.625172,76.000000,0.000000,4303.589844,4217.436035,4164.615234,4117.948730,4301.025879,450.000000,0.000000,,,,0.000000,4.000000,4.000000,2.000000,4.000000,4.000000,,,,,,,,,,,,,,,,,,,,,,,,,
1577976179.633070,77.000000,0.000000,4292.820313,4203.589844,4167.692383,4111.794922,4289.230957,450.000000,0.000000,,,,0.000000,4.000000,4.000000,2.000000,4.000000,4.000000,,,,,,,,,,,,,,,,,,,,,,,,,
1577976179.640867,78.000000,0.000000,4276.922852,4187.692383,4160.512695,4110.769043,4272.820313,450.000000,0.000000,,,,0.000000,4.000000,4.000000,2.000000,4.000000,4.000000,,,,,,,,,,,,,,,,,,,,,,,,,
1577976179.648764,79.000000,0.000000,4264.102539,4167.692383,4151.282227,4095.384521,4257.436035,16204.000000,0.000000,,,,0.000000,4.000000,4.000000,2.000000,4.000000,4.000000,13.008243,15.330114,7.480199,7.106745,4.773196,11.951639,14.226394,14.787339,5.170779,3.141484,1.703197,6.290329,2.128221,2.442636,2.613199,5.874076,16.736082,9.582116,5.960532,5.571460,14.610331,14.447769,12.169694,6.852696,4.709914
1577976179.656562,80.000000,0.000000,4300.000000,4188.717773,4174.871582,4126.153809,4291.794922,450.000000,0.000000,,,,0.000000,4.000000,4.000000,2.000000,4.000000,4.000000,,,,,,,,,,,,,,,,,,,,,,,,,
1577976179.664259,81.000000,0.000000,4329.230957,4215.384766,4186.153809,4157.436035,4321.025879,450.000000,0.000000,,,,0.000000,4.000000,4.000000,2.000000,4.000000,4.000000,,,,,,,,,,,,,,,,,,,,,,,,,
1577976179.672057,82.000000,0.000000,4298.461426,4193.333496,4156.922852,4124.102539,4293.846191,450.000000,0.000000,,,,0.000000,4.000000,4.000000,2.000000,4.000000,4.000000,,,,,,,,,,,,,,,,,,,,,,,,,
1577976179.679755,83.000000,0.000000,4289.230957,4176.410156,4153.846191,4109.230957,4282.563965,16204.000000,0.000000,,,,0.000000,4.000000,4.000000,2.000000,4.000000,4.000000,,,,,,,,,,,,,,,,,,,,,,,,,
1577976179.687552,84.000000,0.000000,4315.897461,4197.948730,4179.487305,4134.871582,4302.051270,450.000000,0.000000,,,,0.000000,4.000000,4.000000,2.000000,4.000000,4.000000,,,,,,,,,,,,,,,,,,,,,,,,,
1577976179.695250,85.000000,0.000000,4316.922852,4213.333496,4180.512695,4142.051270,4303.077148,450.000000,0.000000,,,,0.000000,4.000000,4.000000,2.000000,4.000000,4.000000,,,,,,,,,,,,,,,,,,,,,,,,,
1577976179.703147,86.000000,0.000000,4299.487305,4202.563965,4167.692383,4122.051270,4290.256348,450.000000,0.000000,,,,0.000000,4.000000,4.000000,2.000000,4.000000,4.000000,,,,,,,,,,,,,,,,,,,,,,,,,
1577976179.710945,87.000000,0.000000,4285.128418,4191.282227,4165.128418,4101.025879,4276.922852,16204.000000,0.000000,,,,0.000000,4.000000,4.000000,2.000000,4.000000,4.000000,,,,,,,,,,,,,,,,,,,,,,,,,
1577976179.718843,88.000000,0.000000,4278.461426,4197.436035,4167.692383,4108.205078,4271.282227,450.000000,0.000000,,,,0.000000,4.000000,4.000000,2.000000,4.000000,4.000000,,,,,,,,,,,,,,,,,,,,,,,,,
1577976179.726640,89.000000,0.000000,4297.436035,4211.794922,4173.333496,4143.589844,4290.769043,450.000000,0.000000,,,,0.000000,4.000000,4.000000,2.000000,4.000000,4.000000,,,,,,,,,,,,,,,,,,,,,,,,,
1577976179.734538,90.000000,0.000000,4310.769043,4204.615234,4169.230957,4146.153809,4304.102539,450.000000,0.000000,,,,0.000000,4.000000,4.000000,2.000000,4.000000,4.000000,,,,,,,,,,,,,,,,,,,,,,,,,
1577976179.742336,91.000000,0.000000,4292.307617,4184.615234,4152.820313,4111.282227,4288.205078,16204.000000,0.000000,,,,0.000000,4.000000,4.000000,2.000000,4.000000,4.000000,,,,,,,,,,,,,,,,,,,,,,,,,
1577976179.750233,92.000000,0.000000,4276.922852,4188.205078,4150.256348,4094.358887,4274.871582,450.000000,0.000000,,,,0.000000,4.000000,4.000000,2.000000,4.000000,4.000000,,,,,,,,,,,,,,,,,,,,,,,,,
1577976179.758031,93.000000,0.000000,4281.025879,4224.615234,4173.846191,4109.230957,4278.974121,450.000000,0.000000,,,,0.000000,4.000000,4.000000,2.000000,4.000000,4.000000,,,,,,,,,,,,,,,,,,,,,,,,,
1577976179.765929,94.000000,0.000000,4299.487305,4263.589844,4196.410156,4140.512695,4302.051270,450.000000,0.000000,,,,0.000000,4.000000,4.000000,2.000000,4.000000,4.000000,,,,,,,,,,,,,,,,,,,,,,,,,
1577976179.773726,95.000000,0.000000,4289.230957,4249.743652,4178.461426,4140.000000,4296.410156,16204.000000,0.000000,,,,0.000000,4.000000,4.000000,2.000000,4.000000,4.000000,13.266617,14.528222,6.292802,5.710793,4.879348,12.364220,15.025114,15.418285,4.661194,3.369541,1.681868,6.034151,2.024801,2.189088,2.595047,5.067698,15.487066,8.064445,4.867393,5.784181,12.658862,13.528195,9.823649,5.615794,4.712303
1577976179.781624,96.000000,0.000000,4236.410156,4203.077148,4141.538574,4095.384521,4237.436035,450.000000,0.000000,,,,0.000000,4.000000,4.000000,2.000000,4.000000,4.000000,,,,,,,,,,,,,,,,,,,,,,,,,
1577976179.789422,97.000000,0.000000,4216.410156,4206.153809,4145.128418,4087.692383,4208.205078,450.000000,0.000000,,,,0.000000,4.000000,4.000000,2.000000,4.000000,4.000000,,,,,,,,,,,,,,,,,,,,,,,,,
1577976179.797219,98.000000,0.000000,4251.282227,4236.922852,4174.871582,4123.589844,4241.025879,450.000000,0.000000,,,,0.000000,4.000000,4.000000,2.000000,4.000000,4.000000,,,,,,,,,,,,,,,,,,,,,,,,,
1577976179.804917,99.000000,0.000000,4265.641113,4236.410156,4172.307617,4127.179688,4245.641113,16204.000000,0.000000,,,,0.000000,4.000000,4.000000,2.000000,4.000000,4.000000,,,,,,,,,,,,,,,,,,,,,,,,,
1577976179.812714,100.000000,0.000000,4237.436035,4231.282227,4148.205078,4107.692383,4207.179688,450.000000,0.000000,,,,0.000000,4.000000,4.000000,2.000000,4.000000,4.000000,,,,,,,,,,,,,,,,,,,,,,,,,
1577976179.820411,101.000000,0.000000,4216.922852,4252.820313,4143.077148,4107.692383,4186.666504,450.000000,0.000000,,,,0.000000,4.000000,4.000000,2.000000,4.000000,4.000000,,,,,,,,,,,,,,,,,,,,,,,,,
1577976179.828309,102.000000,0.000000,4202.051270,4267.692383,4142.051270,4104.102539,4176.922852,450.000000,0.000000,,,,0.000000,4.000000,4.000000,2.000000,4.000000,4.000000,,,,,,,,,,,,,,,,,,,,,,,,,
1577976179.836107,103.000000,0.000000,4188.717773,4253.846191,4127.179688,4098.461426,4162.563965,16204.000000,0.000000,,,,0.000000,4.000000,4.000000,2.000000,4.000000,4.000000,,,,,,,,,,,,,,,,,,,,,,,,,
1577976179.844004,104.000000,0.000000,4204.615234,4250.769043,4130.256348,4121.025879,4175.384766,450.000000,0.000000,,,,0.000000,4.000000,4.000000,2.000000,4.000000,4.000000,,,,,,,,,,,,,,,,,,,,,,,,,
1577976179.851902,105.000000,0.000000,4232.820313,4279.487305,4153.846191,4152.307617,4205.128418,450.000000,0.000000,,,,0.000000,4.000000,4.000000,2.000000,4.000000,4.000000,,,,,,,,,,,,,,,,,,,,,,,,,
1577976179.859700,106.000000,0.000000,4212.307617,4281.538574,4148.205078,4133.846191,4186.666504,450.000000,0.000000,,,,0.000000,4.000000,4.000000,2.000000,4.000000,4.000000,,,,,,,,,,,,,,,,,,,,,,,,,
1577976179.867598,107.000000,0.000000,4169.743652,4246.666504,4134.871582,4090.769287,4148.717773,16204.000000,0.000000,,,,0.000000,4.000000,4.000000,2.000000,4.000000,4.000000,,,,,,,,,,,,,,,,,,,,,,,,,
1577976179.875396,108.000000,0.000000,4189.743652,4263.589844,4156.410156,4099.487305,4171.282227,450.000000,0.000000,,,,0.000000,4.000000,4.000000,2.000000,4.000000,4.000000,,,,,,,,,,,,,,,,,,,,,,,,,
1577976179.883293,109.000000,0.000000,4223.589844,4311.282227,4171.282227,4136.410156,4205.128418,450.000000,0.000000,,,,0.000000,4.000000,4.000000,2.000000,4.000000,4.000000,,,,,,,,,,,,,,,,,,,,,,,,,
1577976179.891091,110.000000,0.000000,4213.333496,4293.333496,4160.512695,4145.641113,4193.846191,450.000000,0.000000,,,,0.000000,4.000000,4.000000,2.000000,4.000000,4.000000,,,,,,,,,,,,,,,,,,,,,,,,,
1577976179.898989,111.000000,0.000000,4212.307617,4275.897461,4166.666504,4143.589844,4193.846191,16204.000000,0.000000,,,,0.000000,4.000000,4.000000,2.000000,4.000000,4.000000,18.125544,13.332950,5.021791,4.769497,4.929823,12.341957,14.888807,14.922160,4.012996,3.612278,1.657619,5.319568,1.815149,1.980509,2.544105,4.214367,13.126661,6.284282,4.105489,6.010432,12.543133,12.413748,7.145653,4.716520,4.688695
1577976179.906787,112.000000,0.000000,4218.974121,4320.000000,4174.358887,4143.589844,4202.563965,450.000000,0.000000,,,,0.000000,4.000000,4.000000,2.000000,4.000000,4.000000,,,,,,,,,,,,,,,,,,,,,,,,,
1577976179.914584,113.000000,0.000000,4176.922852,4323.077148,4142.563965,4120.000000,4164.615234,450.000000,0.000000,,,,0.000000,4.000000,4.000000,2.000000,4.000000,4.000000,,,,,,,,,,,,,,,,,,,,,,,,,
1577976179.922282,114.000000,0.000000,4151.794922,4284.102539,4136.922852,4120.512695,4149.743652,450.000000,0.000000,,,,0.000000,4.000000,4.000000,2.000000,4.000000,4.000000,,,,,,,,,,,,,,,,,,,,,,,,,
1577976179.930080,115.000000,0.000000,4188.205078,4286.153809,4172.820313,4155.384766,4185.641113,16204.000000,0.000000,,,,0.000000,4.000000,4.000000,2.000000,4.000000,4.000000,,,,,,,,,,,,,,,,,,,,,,,,,
1577976179.937777,116.000000,0.000000,4183.589844,4277.948730,4159.487305,4142.563965,4174.871582,450.000000,0.000000,,,,0.000000,4.000000,4.000000,2.000000,4.000000,4.000000,,,,,,,,,,,,,,,,,,,,,,,,,
1577976179.945675,117.000000,0.000000,4150.256348,4242.563965,4129.743652,4120.512695,4142.051270,450.000000,0.000000,,,,0.000000,4.000000,4.000000,2.000000,4.000000,4.000000,,,,,,,,,,,,,,,,,,,,,,,,,
1577976179.953472,118.000000,0.000000,4173.846191,4252.820313,4154.358887,4144.102539,4162.563965,450.000000,0.000000,,,,0.000000,4.000000,4.000000,2.000000,4.000000,4.000000,,,,,,,,,,,,,,,,,,,,,,,,,
1577976179.961370,119.000000,0.000000,4203.077148,4273.333496,4177.948730,4155.384766,4184.615234,16204.000000,0.000000,,,,0.000000,4.000000,4.000000,2.000000,4.000000,4.000000,,,,,,,,,,,,,,,,,,,,,,,,,
1577976179.969168,120.000000,0.000000,4195.384766,4263.077148,4168.717773,4141.538574,4173.333496,450.000000,0.000000,,,,0.000000,4.000000,4.000000,2.000000,4.000000,4.000000,,,,,,,,,,,,,,,,,,,,,,,,,
1577976179.977065,121.000000,0.000000,4191.794922,4263.077148,4172.820313,4139.487305,4168.205078,450.000000,0.000000,,,,0.000000,4.000000,4.000000,2.000000,4.000000,4.000000,,,,,,,,,,,,,,,,,,,,,,,,,
1577976179.984863,122.000000,0.000000,4190.769043,4267.179688,4174.871582,4129.230957,4163.589844,450.000000,0.000000,,,,0.000000,4.000000,4.000000,2.000000,4.000000,4.000000,,,,,,,,,,,,,,,,,,,,,,,,,
1577976179.992761,123.000000,0.000000,4167.179688,4246.666504,4154.358887,4114.358887,4142.563965,16204.000000,0.000000,,,,0.000000,4.000000,4.000000,2.000000,4.000000,4.000000,,,,,,,,,,,,,,,,,,,,,,,,,
1577976180.000659,124.000000,0.000000,4162.051270,4231.794922,4152.820313,4143.589844,4144.102539,450.000000,0.000000,,,,0.000000,4.000000,4.000000,2.000000,4.000000,4.000000,,,,,,,,,,,,,,,,,,,,,,,,,
1577976180.008457,125.000000,0.000000,4189.743652,4246.666504,4169.230957,4184.102539,4172.307617,450.000000,0.000000,,,,0.000000,4.000000,4.000000,2.000000,4.000000,4.000000,,,,,,,,,,,,,,,,,,,,,,,,,
1577976180.016254,126.000000,0.000000,4187.179688,4249.230957,4165.128418,4171.794922,4165.128418,450.000000,0.000000,,,,0.000000,4.000000,4.000000,2.000000,4.000000,4.000000,,,,,,,,,,,,,,,,,,,,,,,,,
1577976180.023952,127.000000,0.000000,4131.794922,4209.743652,4137.948730,4120.512695,4115.897461,224.000000,0.000000,,,,0.000000,4.000000,4.000000,2.000000,4.000000,4.000000,28.057039,12.145170,4.110986,4.136887,4.837355,11.951494,13.706217,13.249038,3.314896,3.766763,1.620701,4.431651,1.641758,1.799927,2.448991,3.475708,10.243574,4.843312,3.562080,6.127550,14.794903,11.311219,4.928060,4.010777,4.550841
1577976180.031750,0.000000,0.000000,4111.282227,4190.769043,4130.256348,4108.717773,4098.974121,450.000000,0.000000,,,,0.000000,4.000000,4.000000,2.000000,4.000000,4.000000,,,,,,,,,,,,,,,,,,,,,,,,,
1577976180.039447,1.000000,0.000000,4172.820313,4235.897461,4158.974121,4157.948730,4152.307617,450.000000,0.000000,,,,0.000000,4.000000,4.000000,2.000000,4.000000,4.000000,,,,,,,,,,,,,,,,,,,,,,,,,
1577976180.047245,2.000000,0.000000,4193.846191,4242.051270,4158.461426,4173.846191,4170.769043,16208.000000,0.000000,,,,0.000000,4.000000,4.000000,2.000000,4.000000,4.000000,,,,,,,,,,,,,,,,,,,,,,,,,
1577976180.054942,3.000000,0.000000,4156.922852,4199.487305,4136.922852,4145.128418,4138.461426,450.000000,0.000000,,,,0.000000,4.000000,4.000000,2.000000,4.000000,4.000000,,,,,,,,,,,,,,,,,,,,,,,,,
1577976180.062740,4.000000,0.000000,4169.230957,4221.025879,4154.358887,4155.897461,4148.205078,16209.000000,0.000000,,,,0.000000,4.000000,4.000000,2.000000,4.000000,4.000000,,,,,,,,,,,,,,,,,,,,,,,,,
1577976180.070437,5.000000,0.000000,4171.794922,4235.384766,4149.743652,4161.538574,4147.179688,450.000000,0.000000,,,,0.000000,4.000000,4.000000,2.000000,4.000000,4.000000,,,,,,,,,,,,,,,,,,,,,,,,,
1577976180.078235,6.000000,0.000000,4131.794922,4195.897461,4111.794922,4133.333496,4108.205078,319.000000,0.000000,,,,0.000000,4.000000,4.000000,2.000000,4.000000,4.000000,,,,,,,,,,,,,,,,,,,,,,,,,
1577976180.085932,7.000000,0.000000,4120.512695,4189.230957,4108.205078,4125.128418,4097.948730,450.000000,0.000000,,,,0.000000,4.000000,4.000000,2.000000,4.000000,4.000000,,,,,,,,,,,,,,,,,,,,,,,,,
1577976180.093730,8.000000,0.000000,4112.820313,4200.512695,4115.897461,4122.563965,4093.846191,450.000000,0.000000,,,,0.000000,4.000000,4.000000,2.000000,4.000000,4.000000,,,,,,,,,,,,,,,,,,,,,,,,,
1577976180.101427,9.000000,0.000000,4116.922852,4198.461426,4121.025879,4132.820313,4098.461426,16172.000000,0.000000,,,,0.000000,4.000000,4.000000,2.000000,4.000000,4.000000,,,,,,,,,,,,,,,,,,,,,,,,,
1577976180.109225,10.000000,0.000000,4174.358887,4216.410156,4154.358887,4178.461426,4151.794922,450.000000,0.000000,,,,0.000000,4.000000,4.000000,2.000000,4.000000,4.000000,,,,,,,,,,,,,,,,,,,,,,,,,
1577976180.116922,11.000000,0.000000,4205.128418,4225.641113,4166.666504,4197.948730,4183.589844,16204.000000,0.000000,,,,0.000000,4.000000,4.000000,2.000000,4.000000,4.000000,,,,,,,,,,,,,,,,,,,,,,,,,
1577976180.124720,12.000000,0.000000,4182.051270,4202.051270,4149.230957,4177.436035,4166.666504,450.000000,0.000000,,,,0.000000,4.000000,4.000000,2.000000,4.000000,4.000000,,,,,,,,,,,,,,,,,,,,,,,,,
1577976180.132417,13.000000,0.000000,4183.077148,4194.358887,4156.922852,4171.282227,4173.846191,450.000000,0.000000,,,,0.000000,4.000000,4.000000,2.000000,4.000000,4.000000,,,,,,,,,,,,,,,,,,,,,,,,,
1577976180.140315,14.000000,0.000000,4182.051270,4190.256348,4156.922852,4168.205078,4178.461426,450.000000,0.000000,,,,0.000000,4.000000,4.000000,2.000000,4.000000,4.000000,,,,,,,,,,,,,,,,,,,,,,,,,
1577976180.148113,15.000000,0.000000,4149.230957,4180.512695,4125.641113,4151.282227,4138.974121,16204.000000,0.000000,,,,0.000000,4.000000,4.000000,2.000000,4.000000,4.000000,41.708889,11.229016,3.789232,3.731697,4.628748,11.363847,11.741518,10.736208,2.720035,3.812194,1.585910,3.676343,1.618716,1.656309,2.338059,2.999452,7.600390,4.087185,3.184732,6.101262,19.385757,10.372024,3.644604,3.466149,4.327405
1577976180.156010,16.000000,0.000000,4139.487305,4189.743652,4121.538574,4148.205078,4120.000000,0.000000,0.000000,,,,0.000000,4.000000,4.000000,2.000000,4.000000,4.000000,,,,,,,,,,,,,,,,,,,,,,,,,
1577976180.163808,17.000000,0.000000,4155.384766,4189.743652,4145.128418,4152.307617,4137.436035,0.000000,0.000000,,,,0.000000,4.000000,4.000000,2.000000,4.000000,4.000000,,,,,,,,,,,,,,,,,,,,,,,,,
1577976180.171706,18.000000,0.000000,4173.333496,4184.102539,4150.769043,4162.051270,4155.384766,0.000000,0.000000,,,,0.000000,4.000000,4.000000,2.000000,4.000000,4.000000,,,,,,,,,,,,,,,,,,,,,,,,,
1577976180.179503,19.000000,0.000000,4202.051270,4204.102539,4151.794922,4185.641113,4172.307617,0.000000,0.000000,,,,0.000000,4.000000,4.000000,2.000000,4.000000,4.000000,,,,,,,,,,,,,,,,,,,,,,,,,
1577976180.187401,20.000000,0.000000,4225.128418,4218.461426,4158.461426,4188.205078,4182.563965,0.000000,0.000000,,,,0.000000,4.000000,4.000000,2.000000,4.000000,4.000000,,,,,,,,,,,,,,,,,,,,,,,,,
1577976180.195199,21.000000,0.000000,4208.717773,4188.205078,4143.077148,4153.333496,4164.102539,0.000000,0.000000,,,,0.000000,4.000000,4.000000,2.000000,4.000000,4.000000,,,,,,,,,,,,,,,,,,,,,,,,,
1577976180.203096,22.000000,0.000000,4193.333496,4157.948730,4132.307617,4149.743652,4150.769043,0.000000,0.000000,,,,0.000000,4.000000,4.000000,2.000000,4.000000,4.000000,,,,,,,,,,,,,,,,,,,,,,,,,
1577976180.210894,23.000000,0.000000,4202.563965,4150.256348,4142.563965,4169.230957,4159.487305,0.000000,0.000000,,,,0.000000,4.000000,4.000000,2.000000,4.000000,4.000000,,,,,,,,,,,,,,,,,,,,,,,,,
1577976180.218792,24.000000,0.000000,4170.256348,4123.589844,4139.487305,4133.333496,4132.307617,0.000000,0.000000,,,,0.000000,4.000000,4.000000,2.000000,4.000000,4.000000,,,,,,,,,,,,,,,,,,,,,,,,,
1577976180.226589,25.000000,0.000000,4151.794922,4130.769043,4155.897461,4138.974121,4128.717773,0.000000,0.000000,,,,0.000000,4.000000,4.000000,2.000000,4.000000,4.000000,,,,,,,,,,,,,,,,,,,,,,,,,
1577976180.234287,26.000000,0.000000,4200.512695,4172.307617,4189.743652,4208.717773,4194.871582,0.000000,0.000000,,,,0.000000,4.000000,4.000000,2.000000,4.000000,4.000000,,,,,,,,,,,,,,,,,,,,,,,,,
1577976180.242084,27.000000,0.000000,4205.641113,4147.179688,4167.179688,4178.461426,4201.025879,0.000000,0.000000,,,,0.000000,4.000000,4.000000,2.000000,4.000000,4.000000,,,,,,,,,,,,,,,,,,,,,,,,,
1577976180.249782,28.000000,0.000000,4185.128418,4092.820557,4134.871582,4127.179688,4167.179688,0.000000,0.000000,,,,0.000000,4.000000,4.000000,2.000000,4.000000,4.000000,,,,,,,,,,,,,,,,,,,,,,,,,
1577976180.257579,29.000000,0.000000,4259.487305,4115.384766,4168.717773,4198.461426,4236.410156,0.000000,0.000000,,,,0.000000,4.000000,4.000000,2.000000,4.000000,4.000000,,,,,,,,,,,,,,,,,,,,,,,,,
1577976180.265277,30.000000,0.000000,4338.974121,4163.077148,4201.538574,4260.512695,4321.538574,0.000000,0.000000,,,,0.000000,4.000000,4.000000,2.000000,4.000000,4.000000,,,,,,,,,,,,,,,,,,,,,,,,,
1577976180.273174,31.000000,0.000000,4305.641113,4142.051270,4174.871582,4225.128418,4291.282227,0.000000,0.000000,,,,0.000000,4.000000,4.000000,2.000000,4.000000,4.000000,55.097775,10.544930,3.944848,3.565541,4.405559,10.667315,9.445027,7.968075,2.344087,3.792630,1.597356,3.226875,1.750514,1.582184,2.256068,2.832283,5.761292,3.937010,3.029257,5.966440,24.979818,9.611266,3.213473,3.152846,4.116659
1577976180.280972,32.000000,0.000000,4252.307617,4104.102539,4152.307617,4198.461426,4242.563965,0.000000,0.000000,,,,0.000000,4.000000,4.000000,2.000000,4.000000,4.000000,,,,,,,,,,,,,,,,,,,,,,,,,
1577976180.288870,33.000000,0.000000,4255.897461,4111.282227,4166.666504,4201.538574,4249.230957,0.000000,0.000000,,,,0.000000,4.000000,4.000000,2.000000,4.000000,4.000000,,,,,,,,,,,,,,,,,,,,,,,,,
1577976180.296667,34.000000,0.000000,4270.769043,4136.922852,4179.487305,4198.461426,4261.025879,0.000000,0.000000,,,,0.000000,4.000000,4.000000,2.000000,4.000000,4.000000,,,,,,,,,,,,,,,,,,,,,,,,,
1577976180.304565,35.000000,0.000000,4250.769043,4132.820313,4166.153809,4189.230957,4239.487305,0.000000,0.000000,,,,0.000000,4.000000,4.000000,2.000000,4.000000,4.000000,,,,,,,,,,,,,,,,,,,,,,,,,
1577976180.312363,36.000000,0.000000,4205.128418,4102.563965,4137.436035,4143.077148,4194.358887,0.000000,0.000000,,,,0.000000,4.000000,4.000000,2.000000,4.000000,4.000000,,,,,,,,,,,,,,,,,,,,,,,,,
1577976180.320260,37.000000,0.000000,4198.974121,4104.615234,4132.307617,4113.333496,4183.589844,0.000000,0.000000,,,,0.000000,4.000000,4.000000,2.000000,4.000000,4.000000,,,,,,,,,,,,,,,,,,,,,,,,,
1577976180.328058,38.000000,0.000000,4236.410156,4133.846191,4156.410156,4161.025879,4216.410156,0.000000,0.000000,,,,0.000000,4.000000,4.000000,2.000000,4.000000,4.000000,,,,,,,,,,,,,,,,,,,,,,,,,
1577976180.335956,39.000000,0.000000,4257.948730,4136.922852,4177.436035,4207.692383,4239.487305,0.000000,0.000000,,,,0.000000,4.000000,4.000000,2.000000,4.000000,4.000000,,,,,,,,,,,,,,,,,,,,,,,,,
1577976180.343753,40.000000,0.000000,4258.461426,4132.820313,4183.077148,4197.948730,4243.077148,0.000000,0.000000,,,,0.000000,4.000000,4.000000,2.000000,4.000000,4.000000,,,,,,,,,,,,,,,,,,,,,,,,,
1577976180.351551,41.000000,0.000000,4254.358887,4144.615234,4175.384766,4185.641113,4244.102539,0.000000,0.000000,,,,0.000000,4.000000,4.000000,2.000000,4.000000,4.000000,,,,,,,,,,,,,,,,,,,,,,,,,
1577976180.359248,42.000000,0.000000,4252.307617,4150.256348,4168.205078,4204.102539,4247.179688,0.000000,0.000000,,,,0.000000,4.000000,4.000000,2.000000,4.000000,4.000000,,,,,,,,,,,,,,,,,,,,,,,,,
1577976180.367146,43.000000,0.000000,4248.717773,4148.717773,4168.717773,4206.666504,4248.205078,0.000000,0.000000,,,,0.000000,4.000000,4.000000,2.000000,4.000000,4.000000,,,,,,,,,,,,,,,,,,,,,,,,,
1577976180.374944,44.000000,0.000000,4235.384766,4145.128418,4164.102539,4183.589844,4237.948730,0.000000,0.000000,,,,0.000000,4.000000,4.000000,2.000000,4.000000,4.000000,,,,,,,,,,,,,,,,,,,,,,,,,
1577976180.382841,45.000000,0.000000,4214.871582,4126.666504,4147.692383,4169.743652,4220.512695,0.000000,0.000000,,,,0.000000,4.000000,4.000000,2.000000,4.000000,4.000000,,,,,,,,,,,,,,,,,,,,,,,,,
1577976180.390639,46.000000,0.000000,4217.948730,4127.179688,4153.333496,4177.436035,4223.589844,0.000000,0.000000,,,,0.000000,4.000000,4.000000,2.000000,4.000000,4.000000,,,,,,,,,,,,,,,,,,,,,,,,,
1577976180.398537,47.000000,0.000000,4246.153809,4150.256348,4182.051270,4196.410156,4245.128418,0.000000,0.000000,,,,0.000000,4.000000,4.000000,2.000000,4.000000,4.000000,63.517689,9.686100,4.483467,3.573229,4.246103,9.718476,7.227321,5.634490,2.181276,3.756860,1.692594,3.050677,1.982422,1.574544,2.219728,2.789781,4.729944,4.060138,3.088449,5.753851,29.579525,8.793929,3.384907,3.061058,3.982996
1577976180.406334,48.000000,0.000000,4245.128418,4126.153809,4177.436035,4202.051270,4244.615234,0.000000,0.000000,,,,0.000000,4.000000,4.000000,2.000000,4.000000,4.000000,,,,,,,,,,,,,,,,,,,,,,,,,
1577976180.414032,49.000000,0.000000,4231.282227,4095.384521,4155.384766,4197.948730,4235.897461,0.000000,0.000000,,,,0.000000,4.000000,4.000000,2.000000,4.000000,4.000000,,,,,,,,,,,,,,,,,,,,,,,,,
1577976180.421830,50.000000,0.000000,4261.538574,4131.794922,4167.179688,4211.794922,4262.563965,0.000000,0.000000,,,,0.000000,4.000000,4.000000,2.000000,4.000000,4.000000,,,,,,,,,,,,,,,,,,,,,,,,,
1577976180.429527,51.000000,0.000000,4270.769043,4156.410156,4178.461426,4226.666504,4268.717773,0.000000,0.000000,,,,0.000000,4.000000,4.000000,2.000000,4.000000,4.000000,,,,,,,,,,,,,,,,,,,,,,,,,
1577976180.437425,52.000000,0.000000,4229.743652,4127.179688,4164.102539,4217.948730,4233.846191,0.000000,0.000000,,,,0.000000,4.000000,4.000000,2.000000,4.000000,4.000000,,,,,,,,,,,,,,,,,,,,,,,,,
1577976180.445223,53.000000,0.000000,4223.077148,4120.512695,4162.051270,4203.077148,4228.205078,0.000000,0.000000,,,,0.000000,4.000000,4.000000,2.000000,4.000000,4.000000,,,,,,,,,,,,,,,,,,,,,,,,,
1577976180.453121,54.000000,0.000000,4243.077148,4145.128418,4165.128418,4197.436035,4244.102539,0.000000,0.000000,,,,0.000000,4.000000,4.000000,2.000000,4.000000,4.000000,,,,,,,,,,,,,,,,,,,,,,,,,
1577976180.460919,55.000000,0.000000,4229.230957,4142.563965,4148.205078,4181.538574,4230.769043,0.000000,0.000000,,,,0.000000,4.000000,4.000000,2.000000,4.000000,4.000000,,,,,,,,,,,,,,,,,,,,,,,,,
1577976180.468717,56.000000,0.000000,4211.282227,4115.897461,4136.410156,4157.948730,4214.358887,0.000000,0.000000,,,,0.000000,4.000000,4.000000,2.000000,4.000000,4.000000,,,,,,,,,,,,,,,,,,,,,,,,,
1577976180.476414,57.000000,0.000000,4209.230957,4110.256348,4140.000000,4140.000000,4214.358887,0.000000,0.000000,,,,0.000000,4.000000,4.000000,2.000000,4.000000,4.000000,,,,,,,,,,,,,,,,,,,,,,,,,
1577976180.484212,58.000000,0.000000,4218.461426,4135.384766,4160.000000,4153.333496,4229.230957,0.000000,0.000000,,,,0.000000,4.000000,4.000000,2.000000,4.000000,4.000000,,,,,,,,,,,,,,,,,,,,,,,,,
1577976180.491909,59.000000,0.000000,4254.871582,4144.102539,4180.000000,4208.717773,4269.230957,0.000000,0.000000,,,,0.000000,4.000000,4.000000,2.000000,4.000000,4.000000,,,,,,,,,,,,,,,,,,,,,,,,,
1577976180.499707,60.000000,0.000000,4281.538574,4126.153809,4177.436035,4245.128418,4289.230957,0.000000,0.000000,,,,0.000000,4.000000,4.000000,2.000000,4.000000,4.000000,,,,,,,,,,,,,,,,,,,,,,,,,
1577976180.507404,61.000000,0.000000,4254.871582,4120.000000,4162.563965,4218.461426,4258.974121,0.000000,0.000000,,,,0.000000,4.000000,4.000000,2.000000,4.000000,4.000000,,,,,,,,,,,,,,,,,,,,,,,,,
1577976180.515202,62.000000,0.000000,4216.410156,4119.487305,4158.461426,4184.102539,4232.307617,0.000000,0.000000,,,,0.000000,4.000000,4.000000,2.000000,4.000000,4.000000,,,,,,,,,,,,,,,,,,,,,,,,,
1577976180.522899,63.000000,0.000000,4207.179688,4120.512695,4170.256348,4181.538574,4230.256348,0.000000,0.000000,,,,0.000000,4.000000,4.000000,2.000000,4.000000,4.000000,63.356510,8.282413,5.634354,3.667980,4.180960,8.662129,5.339840,4.214336,2.138096,3.729441,1.861456,2.984289,2.239783,1.621799,2.215620,2.710832,4.142616,4.171187,3.308284,5.496540,31.162483,7.746766,4.108377,3.145578,3.943174
1577976180.530797,64.000000,0.000000,4208.717773,4144.102539,4164.615234,4176.410156,4223.589844,450.000000,0.000000,,,,0.000000,4.000000,4.000000,2.000000,4.000000,4.000000,,,,,,,,,,,,,,,,,,,,,,,,,
1577976180.538595,65.000000,0.000000,4196.410156,4158.461426,4137.436035,4164.102539,4211.282227,450.000000,0.000000,,,,0.000000,4.000000,4.000000,2.000000,4.000000,4.000000,,,,,,,,,,,,,,,,,,,,,,,,,
1577976180.546392,66.000000,0.000000,4182.563965,4138.974121,4133.333496,4168.717773,4204.102539,16209.000000,0.000000,,,,0.000000,4.000000,4.000000,2.000000,4.000000,4.000000,,,,,,,,,,,,,,,,,,,,,,,,,
1577976180.554090,67.000000,0.000000,4177.948730,4135.897461,4152.820313,4163.077148,4196.922852,450.000000,0.000000,,,,0.000000,4.000000,4.000000,2.000000,4.000000,4.000000,,,,,,,,,,,,,,,,,,,,,,,,,
1577976180.561987,68.000000,0.000000,4196.410156,4158.461426,4162.051270,4158.974121,4213.846191,16209.000000,0.000000,,,,0.000000,4.000000,4.000000,2.000000,4.000000,4.000000,,,,,,,,,,,,,,,,,,,,,,,,,
1577976180.569785,69.000000,0.000000,4224.615234,4184.102539,4163.589844,4189.230957,4243.589844,450.000000,0.000000,,,,0.000000,4.000000,4.000000,2.000000,4.000000,4.000000,,,,,,,,,,,,,,,,,,,,,,,,,
1577976180.577683,70.000000,0.000000,4222.563965,4224.102539,4162.563965,4199.487305,4242.563965,318.000000,0.000000,,,,0.000000,4.000000,4.000000,2.000000,4.000000,4.000000,,,,,,,,,,,,,,,,,,,,,,,,,
1577976180.585481,71.000000,0.000000,4211.282227,4262.051270,4156.922852,4182.563965,4233.846191,450.000000,0.000000,,,,0.000000,4.000000,4.000000,2.000000,4.000000,4.000000,,,,,,,,,,,,,,,,,,,,,,,,,
1577976180.593378,72.000000,0.000000,4223.077148,4268.205078,4157.436035,4196.922852,4249.743652,450.000000,0.000000,,,,0.000000,4.000000,4.000000,2.000000,4.000000,4.000000,,,,,,,,,,,,,,,,,,,,,,,,,
1577976180.601176,73.000000,0.000000,4240.512695,4275.384766,4164.615234,4218.974121,4268.205078,16171.000000,0.000000,,,,0.000000,4.000000,4.000000,2.000000,4.000000,4.000000,,,,,,,,,,,,,,,,,,,,,,,,,
1577976180.608873,74.000000,0.000000,4236.410156,4291.282227,4168.205078,4209.230957,4264.102539,450.000000,0.000000,,,,0.000000,4.000000,4.000000,2.000000,4.000000,4.000000,,,,,,,,,,,,,,,,,,,,,,,,,
1577976180.616671,75.000000,0.000000,4210.256348,4276.410156,4154.358887,4179.487305,4236.410156,16198.000000,0.000000,,,,0.000000,4.000000,4.000000,2.000000,4.000000,4.000000,,,,,,,,,,,,,,,,,,,,,,,,,
1577976180.624368,76.000000,0.000000,4187.179688,4267.692383,4135.384766,4158.974121,4213.846191,450.000000,0.000000,,,,0.000000,4.000000,4.000000,2.000000,4.000000,4.000000,,,,,,,,,,,,,,,,,,,,,,,,,
1577976180.632166,77.000000,0.000000,4209.743652,4307.179688,4151.794922,4176.410156,4231.794922,450.000000,0.000000,,,,0.000000,4.000000,4.000000,2.000000,4.000000,4.000000,,,,,,,,,,,,,,,,,,,,,,,,,
1577976180.639864,78.000000,0.000000,4255.897461,4330.256348,4183.077148,4208.205078,4266.666504,450.000000,0.000000,,,,0.000000,4.000000,4.000000,2.000000,4.000000,4.000000,,,,,,,,,,,,,,,,,,,,,,,,,
1577976180.647661,79.000000,0.000000,4264.102539,4314.358887,4184.102539,4207.179688,4271.282227,16198.000000,0.000000,,,,0.000000,4.000000,4.000000,2.000000,4.000000,4.000000,55.107460,6.496814,7.866886,3.811101,4.205008,7.851164,3.883370,3.773780,2.129918,3.712643,2.096036,2.890208,2.490922,1.725824,2.218741,2.674087,3.732892,4.390199,3.648975,5.244493,29.840328,6.705622,5.629220,3.362640,3.986842
1577976180.655359,80.000000,0.000000,4246.153809,4305.128418,4167.179688,4188.717773,4258.461426,450.000000,0.000000,,,,0.000000,4.000000,4.000000,2.000000,4.000000,4.000000,,,,,,,,,,,,,,,,,,,,,,,,,
1577976180.663156,81.000000,0.000000,4244.615234,4303.589844,4165.641113,4190.769043,4255.897461,450.000000,0.000000,,,,0.000000,4.000000,4.000000,2.000000,4.000000,4.000000,,,,,,,,,,,,,,,,,,,,,,,,,
1577976180.670854,82.000000,0.000000,4252.820313,4293.333496,4171.794922,4195.384766,4260.512695,450.000000,0.000000,,,,0.000000,4.000000,4.000000,2.000000,4.000000,4.000000,,,,,,,,,,,,,,,,,,,,,,,,,
1577976180.678651,83.000000,0.000000,4249.230957,4280.000000,4166.666504,4181.025879,4256.410156,16198.000000,0.000000,,,,0.000000,4.000000,4.000000,2.000000,4.000000,4.000000,,,,,,,,,,,,,,,,,,,,,,,,,
1577976180.686349,84.000000,0.000000,4225.641113,4258.974121,4153.846191,4161.025879,4233.846191,450.000000,0.000000,,,,0.000000,4.000000,4.000000,2.000000,4.000000,4.000000,,,,,,,,,,,,,,,,,,,,,,,,,
1577976180.694246,85.000000,0.000000,4191.794922,4238.461426,4144.102539,4143.589844,4203.589844,450.000000,0.000000,,,,0.000000,4.000000,4.000000,2.000000,4.000000,4.000000,,,,,,,,,,,,,,,,,,,,,,,,,
1577976180.702044,86.000000,0.000000,4193.846191,4251.282227,4161.025879,4157.948730,4217.948730,450.000000,0.000000,,,,0.000000,4.000000,4.000000,2.000000,4.000000,4.000000,,,,,,,,,,,,,,,,,,,,,,,,,
1577976180.709942,87.000000,0.000000,4227.179688,4273.846191,4178.974121,4183.589844,4253.333496,16198.000000,0.000000,,,,0.000000,4.000000,4.000000,2.000000,4.000000,4.000000,,,,,,,,,,,,,,,,,,,,,,,,,
1577976180.717739,88.000000,0.000000,4224.102539,4272.820313,4166.666504,4166.666504,4239.487305,450.000000,0.000000,,,,0.000000,4.000000,4.000000,2.000000,4.000000,4.000000,,,,,,,,,,,,,,,,,,,,,,,,,
1577976180.725637,89.000000,0.000000,4203.077148,4268.717773,4151.794922,4144.615234,4214.358887,450.000000,0.000000,,,,0.000000,4.000000,4.000000,2.000000,4.000000,4.000000,,,,,,,,,,,,,,,,,,,,,,,,,
1577976180.733435,90.000000,0.000000,4204.615234,4264.102539,4149.230957,4157.948730,4215.897461,450.000000,0.000000,,,,0.000000,4.000000,4.000000,2.000000,4.000000,4.000000,,,,,,,,,,,,,,,,,,,,,,,,,
1577976180.741332,91.000000,0.000000,4208.717773,4264.102539,4149.743652,4167.179688,4218.974121,16198.000000,0.000000,,,,0.000000,4.000000,4.000000,2.000000,4.000000,4.000000,,,,,,,,,,,,,,,,,,,,,,,,,
1577976180.749130,92.000000,0.000000,4209.743652,4281.025879,4148.717773,4156.410156,4222.051270,450.000000,0.000000,,,,0.000000,4.000000,4.000000,2.000000,4.000000,4.000000,,,,,,,,,,,,,,,,,,,,,,,,,
1577976180.757028,93.000000,0.000000,4218.461426,4297.436035,4145.641113,4161.025879,4233.333496,450.000000,0.000000,,,,0.000000,4.000000,4.000000,2.000000,4.000000,4.000000,,,,,,,,,,,,,,,,,,,,,,,,,
1577976180.764825,94.000000,0.000000,4224.102539,4302.051270,4141.025879,4157.436035,4230.256348,450.000000,0.000000,,,,0.000000,4.000000,4.000000,2.000000,4.000000,4.000000,,,,,,,,,,,,,,,,,,,,,,,,,
1577976180.772723,95.000000,0.000000,4253.333496,4311.794922,4152.820313,4153.333496,4245.641113,16198.000000,0.000000,,,,0.000000,4.000000,4.000000,2.000000,4.000000,4.000000,41.602352,5.004460,11.391005,3.889636,4.287288,8.016298,2.877841,3.947768,2.093726,3.697866,2.347144,2.741387,2.728187,1.866838,2.207814,2.776118,3.608572,5.099752,4.003107,5.040888,26.092783,6.271217,8.092985,3.569519,4.084096
1577976180.780521,96.000000,0.000000,4331.794922,4314.358887,4180.512695,4192.820313,4304.615234,450.000000,0.000000,,,,0.000000,4.000000,4.000000,2.000000,4.000000,4.000000,,,,,,,,,,,,,,,,,,,,,,,,,
1577976180.788418,97.000000,0.000000,4378.974121,4287.179688,4180.000000,4200.000000,4329.230957,450.000000,0.000000,,,,0.000000,4.000000,4.000000,2.000000,4.000000,4.000000,,,,,,,,,,,,,,,,,,,,,,,,,
1577976180.796216,98.000000,0.000000,4382.051270,4271.282227,4154.871582,4155.897461,4318.461426,450.000000,0.000000,,,,0.000000,4.000000,4.000000,2.000000,4.000000,4.000000,,,,,,,,,,,,,,,,,,,,,,,,,
1577976180.804113,99.000000,0.000000,4438.461426,4295.897461,4150.256348,4163.589844,4356.922852,16198.000000,0.000000,,,,0.000000,4.000000,4.000000,2.000000,4.000000,4.000000,,,,,,,,,,,,,,,,,,,,,,,,,
1577976180.811911,100.000000,0.000000,4510.769043,4320.000000,4168.205078,4194.871582,4411.794922,450.000000,0.000000,,,,0.000000,4.000000,4.000000,2.000000,4.000000,4.000000,,,,,,,,,,,,,,,,,,,,,,,,,
1577976180.819608,101.000000,0.000000,4527.692383,4308.717773,4175.897461,4175.897461,4423.589844,450.000000,0.000000,,,,0.000000,4.000000,4.000000,2.000000,4.000000,4.000000,,,,,,,,,,,,,,,,,,,,,,,,,
1577976180.827406,102.000000,0.000000,4515.384766,4287.692383,4154.871582,4150.769043,4411.282227,450.000000,0.000000,,,,0.000000,4.000000,4.000000,2.000000,4.000000,4.000000,,,,,,,,,,,,,,,,,,,,,,,,,
1577976180.835104,103.000000,0.000000,4501.025879,4293.846191,4135.384766,4152.820313,4394.358887,16198.000000,0.000000,,,,0.000000,4.000000,4.000000,2.000000,4.000000,4.000000,,,,,,,,,,,,,,,,,,,,,,,,,
1577976180.843001,104.000000,0.000000,4487.179688,4312.307617,4150.769043,4162.051270,4387.692383,450.000000,0.000000,,,,0.000000,4.000000,4.000000,2.000000,4.000000,4.000000,,,,,,,,,,,,,,,,,,,,,,,,,
1577976180.850799,105.000000,0.000000,4494.871582,4321.538574,4177.948730,4189.230957,4405.128418,450.000000,0.000000,,,,0.000000,4.000000,4.000000,2.000000,4.000000,4.000000,,,,,,,,,,,,,,,,,,,,,,,,,
1577976180.858697,106.000000,0.000000,4493.333496,4329.743652,4171.794922,4204.102539,4406.666504,450.000000,0.000000,,,,0.000000,4.000000,4.000000,2.000000,4.000000,4.000000,,,,,,,,,,,,,,,,,,,,,,,,,
1577976180.866495,107.000000,0.000000,4453.333496,4338.461426,4154.358887,4178.461426,4373.846191,16198.000000,0.000000,,,,0.000000,4.000000,4.000000,2.000000,4.000000,4.000000,,,,,,,,,,,,,,,,,,,,,,,,,
1577976180.874393,108.000000,0.000000,4403.589844,4328.205078,4148.717773,4155.384766,4335.897461,450.000000,0.000000,,,,0.000000,4.000000,4.000000,2.000000,4.000000,4.000000,,,,,,,,,,,,,,,,,,,,,,,,,
1577976180.882191,109.000000,0.000000,4362.563965,4327.179688,4144.102539,4152.307617,4300.512695,450.000000,0.000000,,,,0.000000,4.000000,4.000000,2.000000,4.000000,4.000000,,,,,,,,,,,,,,,,,,,,,,,,,
1577976180.890088,110.000000,0.000000,4357.436035,4367.692383,4161.025879,4166.666504,4301.538574,450.000000,0.000000,,,,0.000000,4.000000,4.000000,2.000000,4.000000,4.000000,,,,,,,,,,,,,,,,,,,,,,,,,
1577976180.897886,111.000000,0.000000,4342.563965,4384.102539,4161.538574,4164.615234,4296.410156,16198.000000,0.000000,,,,0.000000,4.000000,4.000000,2.000000,4.000000,4.000000,27.420301,4.338207,15.860587,3.808821,4.382759,9.607287,2.335515,4.243670,2.016019,3.665689,2.535807,2.536992,2.973060,2.008205,2.176924,3.173946,3.953896,6.661870,4.267773,4.895124,21.502855,6.779411,11.278490,3.631264,4.188800
1577976180.905684,112.000000,0.000000,4263.077148,4364.102539,4120.000000,4113.333496,4225.128418,450.000000,0.000000,,,,0.000000,4.000000,4.000000,2.000000,4.000000,4.000000,,,,,,,,,,,,,,,,,,,,,,,,,
1577976180.913381,113.000000,0.000000,4253.333496,4397.948730,4135.384766,4120.512695,4220.512695,450.000000,0.000000,,,,0.000000,4.000000,4.000000,2.000000,4.000000,4.000000,,,,,,,,,,,,,,,,,,,,,,,,,
1577976180.921179,114.000000,0.000000,4355.384766,4463.589844,4205.128418,4213.846191,4324.102539,450.000000,0.000000,,,,0.000000,4.000000,4.000000,2.000000,4.000000,4.000000,,,,,,,,,,,,,,,,,,,,,,,,,
1577976180.928876,115.000000,0.000000,4381.538574,4466.666504,4203.077148,4234.871582,4354.358887,16198.000000,0.000000,,,,0.000000,4.000000,4.000000,2.000000,4.000000,4.000000,,,,,,,,,,,,,,,,,,,,,,,,,
1577976180.936774,116.000000,0.000000,4300.000000,4429.743652,4152.307617,4175.897461,4288.717773,450.000000,0.000000,,,,0.000000,4.000000,4.000000,2.000000,4.000000,4.000000,,,,,,,,,,,,,,,,,,,,,,,,,
1577976180.944572,117.000000,0.000000,4261.025879,4405.128418,4151.794922,4168.717773,4259.487305,450.000000,0.000000,,,,0.000000,4.000000,4.000000,2.000000,4.000000,4.000000,,,,,,,,,,,,,,,,,,,,,,,,,
1577976180.952469,118.000000,0.000000,4268.205078,4370.769043,4170.769043,4183.077148,4262.051270,450.000000,0.000000,,,,0.000000,4.000000,4.000000,2.000000,4.000000,4.000000,,,,,,,,,,,,,,,,,,,,,,,,,
1577976180.960267,119.000000,0.000000,4255.897461,4362.563965,4165.128418,4164.615234,4250.769043,16198.000000,0.000000,,,,0.000000,4.000000,4.000000,2.000000,4.000000,4.000000,,,,,,,,,,,,,,,,,,,,,,,,,
1577976180.968164,120.000000,0.000000,4236.922852,4394.358887,4152.820313,4150.256348,4238.461426,450.000000,0.000000,,,,0.000000,4.000000,4.000000,2.000000,4.000000,4.000000,,,,,,,,,,,,,,,,,,,,,,,,,
1577976180.976062,121.000000,0.000000,4228.717773,4376.922852,4149.230957,4149.743652,4228.205078,450.000000,0.000000,,,,0.000000,4.000000,4.000000,2.000000,4.000000,4.000000,,,,,,,,,,,,,,,,,,,,,,,,,
1577976180.983860,122.000000,0.000000,4242.051270,4333.333496,4168.717773,4164.615234,4241.025879,450.000000,0.000000,,,,0.000000,4.000000,4.000000,2.000000,4.000000,4.000000,,,,,,,,,,,,,,,,,,,,,,,,,
1577976180.991658,123.000000,0.000000,4265.641113,4353.846191,4194.358887,4192.820313,4273.333496,16198.000000,0.000000,,,,0.000000,4.000000,4.000000,2.000000,4.000000,4.000000,,,,,,,,,,,,,,,,,,,,,,,,,
1577976180.999456,124.000000,0.000000,4274.358887,4399.487305,4195.897461,4207.179688,4281.538574,450.000000,0.000000,,,,0.000000,4.000000,4.000000,2.000000,4.000000,4.000000,,,,,,,,,,,,,,,,,,,,,,,,,
1577976181.007154,125.000000,0.000000,4265.641113,4408.205078,4176.410156,4209.230957,4261.025879,450.000000,0.000000,,,,0.000000,4.000000,4.000000,2.000000,4.000000,4.000000,,,,,,,,,,,,,,,,,,,,,,,,,
1577976181.015052,126.000000,0.000000,4227.692383,4403.077148,4150.769043,4186.153809,4224.615234,450.000000,0.000000,,,,0.000000,4.000000,4.000000,2.000000,4.000000,4.000000,,,,,,,,,,,,,,,,,,,,,,,,,
1577976181.022851,127.000000,0.000000,4175.897461,4401.025879,4140.000000,4137.436035,4183.077148,224.000000,0.000000,,,,0.000000,4.000000,4.000000,2.000000,4.000000,4.000000,17.244001,4.524728,20.413143,3.544411,4.446069,13.261517,2.123026,4.363789,1.940708,3.586365,2.575584,2.286262,3.256963,2.095345,2.126521,3.875832,4.744036,9.063410,4.350810,4.780403,17.676191,7.917757,14.593026,3.488483,4.253425
1577976181.030649,0.000000,0.000000,4154.358887,4403.077148,4146.666504,4115.384766,4164.102539,450.000000,0.000000,,,,0.000000,4.000000,4.000000,2.000000,4.000000,4.000000,,,,,,,,,,,,,,,,,,,,,,,,,
1577976181.038447,1.000000,0.000000,4177.436035,4425.128418,4153.846191,4138.461426,4180.512695,450.000000,0.000000,,,,0.000000,4.000000,4.000000,2.000000,4.000000,4.000000,,,,,,,,,,,,,,,,,,,,,,,,,
1577976181.046145,2.000000,0.000000,4202.051270,4440.000000,4155.384766,4151.794922,4199.487305,16206.000000,0.000000,,,,0.000000,4.000000,4.000000,2.000000,4.000000,4.000000,,,,,,,,,,,,,,,,,,,,,,,,,
1577976181.053942,3.000000,0.000000,4194.871582,4428.205078,4162.563965,4142.563965,4195.384766,450.000000,0.000000,,,,0.000000,4.000000,4.000000,2.000000,4.000000,4.000000,,,,,,,,,,,,,,,,,,,,,,,,,
1577976181.061640,4.000000,0.000000,4201.025879,4428.717773,4180.512695,4166.153809,4207.179688,16205.000000,0.000000,,,,0.000000,4.000000,4.000000,2.000000,4.000000,4.000000,,,,,,,,,,,,,,,,,,,,,,,,,
1577976181.069437,5.000000,0.000000,4229.230957,4433.846191,4194.358887,4202.051270,4229.743652,450.000000,0.000000,,,,0.000000,4.000000,4.000000,2.000000,4.000000,4.000000,,,,,,,,,,,,,,,,,,,,,,,,,
1577976181.077135,6.000000,0.000000,4230.256348,4408.205078,4191.282227,4190.256348,4222.051270,315.000000,0.000000,,,,0.000000,4.000000,4.000000,2.000000,4.000000,4.000000,,,,,,,,,,,,,,,,,,,,,,,,,
1577976181.084932,7.000000,0.000000,4186.666504,4358.461426,4164.615234,4152.820313,4184.615234,450.000000,0.000000,,,,0.000000,4.000000,4.000000,2.000000,4.000000,4.000000,,,,,,,,,,,,,,,,,,,,,,,,,
1577976181.092630,8.000000,0.000000,4151.282227,4335.384766,4138.974121,4141.025879,4150.256348,450.000000,0.000000,,,,0.000000,4.000000,4.000000,2.000000,4.000000,4.000000,,,,,,,,,,,,,,,,,,,,,,,,,
1577976181.100427,9.000000,0.000000,4174.871582,4373.333496,4157.436035,4160.000000,4169.230957,16165.000000,0.000000,,,,0.000000,4.000000,4.000000,2.000000,4.000000,4.000000,,,,,,,,,,,,,,,,,,,,,,,,,
1577976181.108125,10.000000,0.000000,4223.589844,4420.000000,4195.384766,4189.230957,4231.794922,450.000000,0.000000,,,,0.000000,4.000000,4.000000,2.000000,4.000000,4.000000,,,,,,,,,,,,,,,,,,,,,,,,,
1577976181.116022,11.000000,0.000000,4218.974121,4404.615234,4183.077148,4189.743652,4234.358887,16194.000000,0.000000,,,,0.000000,4.000000,4.000000,2.000000,4.000000,4.000000,,,,,,,,,,,,,,,,,,,,,,,,,
1577976181.123820,12.000000,0.000000,4174.358887,4379.487305,4146.153809,4153.846191,4177.948730,450.000000,0.000000,,,,0.000000,4.000000,4.000000,2.000000,4.000000,4.000000,,,,,,,,,,,,,,,,,,,,,,,,,
1577976181.131718,13.000000,0.000000,4192.820313,4411.282227,4157.436035,4157.436035,4190.769043,450.000000,0.000000,,,,0.000000,4.000000,4.000000,2.000000,4.000000,4.000000,,,,,,,,,,,,,,,,,,,,,,,,,
1577976181.139515,14.000000,0.000000,4242.051270,4435.897461,4185.128418,4200.000000,4245.641113,450.000000,0.000000,,,,0.000000,4.000000,4.000000,2.000000,4.000000,4.000000,,,,,,,,,,,,,,,,,,,,,,,,,
1577976181.147413,15.000000,0.000000,4226.666504,4413.333496,4170.769043,4193.846191,4233.846191,16194.000000,0.000000,,,,0.000000,4.000000,4.000000,2.000000,4.000000,4.000000,17.212217,5.290847,23.983091,3.141498,4.462978,18.682646,2.098993,4.308068,1.946160,3.435858,2.440377,1.991356,3.593481,2.068410,2.068125,4.747659,5.710269,11.907738,4.194736,4.662820,17.152773,9.093261,17.292948,3.168462,4.256640
1577976181.155211,16.000000,0.000000,4181.025879,4396.410156,4142.051270,4152.820313,4195.384766,0.000000,0.000000,,,,0.000000,4.000000,4.000000,2.000000,4.000000,4.000000,,,,,,,,,,,,,,,,,,,,,,,,,
1577976181.163108,17.000000,0.000000,4185.641113,4403.589844,4153.333496,4154.871582,4206.666504,0.000000,0.000000,,,,0.000000,4.000000,4.000000,2.000000,4.000000,4.000000,,,,,,,,,,,,,,,,,,,,,,,,,
1577976181.170906,18.000000,0.000000,4221.025879,4409.230957,4181.538574,4181.025879,4238.974121,0.000000,0.000000,,,,0.000000,4.000000,4.000000,2.000000,4.000000,4.000000,,,,,,,,,,,,,,,,,,,,,,,,,
1577976181.178804,19.000000,0.000000,4217.436035,4398.974121,4176.410156,4173.333496,4236.410156,0.000000,0.000000,,,,0.000000,4.000000,4.000000,2.000000,4.000000,4.000000,,,,,,,,,,,,,,,,,,,,,,,,,
1577976181.186601,20.000000,0.000000,4195.384766,4385.128418,4162.051270,4163.589844,4215.897461,0.000000,0.000000,,,,0.000000,4.000000,4.000000,2.000000,4.000000,4.000000,,,,,,,,,,,,,,,,,,,,,,,,,
1577976181.194299,21.000000,0.000000,4202.563965,4377.948730,4168.717773,4174.871582,4211.794922,0.000000,0.000000,,,,0.000000,4.000000,4.000000,2.000000,4.000000,4.000000,,,,,,,,,,,,,,,,,,,,,,,,,
1577976181.202097,22.000000,0.000000,4230.256348,4384.615234,4176.922852,4190.256348,4232.820313,0.000000,0.000000,,,,0.000000,4.000000,4.000000,2.000000,4.000000,4.000000,,,,,,,,,,,,,,,,,,,,,,,,,
1577976181.209795,23.000000,0.000000,4230.769043,4400.512695,4162.051270,4188.205078,4243.077148,0.000000,0.000000,,,,0.000000,4.000000,4.000000,2.000000,4.000000,4.000000,,,,,,,,,,,,,,,,,,,,,,,,,
1577976181.217592,24.000000,0.000000,4211.794922,4406.153809,4148.717773,4165.641113,4231.282227,0.000000,0.000000,,,,0.000000,4.000000,4.000000,2.000000,4.000000,4.000000,,,,,,,,,,,,,,,,,,,,,,,,,
1577976181.225290,25.000000,0.000000,4208.717773,4402.563965,4155.897461,4156.922852,4222.051270,0.000000,0.000000,,,,0.000000,4.000000,4.000000,2.000000,4.000000,4.000000,,,,,,,,,,,,,,,,,,,,,,,,,
1577976181.233087,26.000000,0.000000,4220.512695,4415.384766,4163.077148,4172.820313,4232.820313,0.000000,0.000000,,,,0.000000,4.000000,4.000000,2.000000,4.000000,4.000000,,,,,,,,,,,,,,,,,,,,,,,,,
1577976181.240785,27.000000,0.000000,4221.538574,4425.128418,4154.871582,4177.948730,4240.512695,0.000000,0.000000,,,,0.000000,4.000000,4.000000,2.000000,4.000000,4.000000,,,,,,,,,,,,,,,,,,,,,,,,,
1577976181.248582,28.000000,0.000000,4197.436035,4407.179688,4145.128418,4163.589844,4215.897461,0.000000,0.000000,,,,0.000000,4.000000,4.000000,2.000000,4.000000,4.000000,,,,,,,,,,,,,,,,,,,,,,,,,
1577976181.256280,29.000000,0.000000,4207.692383,4428.205078,4163.589844,4182.563965,4215.897461,0.000000,0.000000,,,,0.000000,4.000000,4.000000,2.000000,4.000000,4.000000,,,,,,,,,,,,,,,,,,,,,,,,,
1577976181.264178,30.000000,0.000000,4240.000000,4466.666504,4180.512695,4205.128418,4243.077148,0.000000,0.000000,,,,0.000000,4.000000,4.000000,2.000000,4.000000,4.000000,,,,,,,,,,,,,,,,,,,,,,,,,
1577976181.271976,31.000000,0.000000,4194.871582,4402.563965,4152.307617,4155.897461,4206.153809,0.000000,0.000000,,,,0.000000,4.000000,4.000000,2.000000,4.000000,4.000000,31.663780,6.337344,25.840099,2.694912,4.473418,25.246210,2.287663,4.187493,2.081965,3.220687,2.168667,1.652562,3.981935,1.901399,2.034837,5.487667,6.430036,14.581022,3.802300,4.529242,21.850645,9.770546,18.875006,2.768861,4.227594
1577976181.279774,32.000000,0.000000,4135.897461,4336.922852,4135.384766,4111.282227,4153.846191,0.000000,0.000000,,,,0.000000,4.000000,4.000000,2.000000,4.000000,4.000000,,,,,,,,,,,,,,,,,,,,,,,,,
1577976181.287471,33.000000,0.000000,4184.102539,4408.205078,4174.871582,4157.948730,4197.436035,0.000000,0.000000,,,,0.000000,4.000000,4.000000,2.000000,4.000000,4.000000,,,,,,,,,,,,,,,,,,,,,,,,,
1577976181.295369,34.000000,0.000000,4236.922852,4470.256348,4193.333496,4200.000000,4248.205078,0.000000,0.000000,,,,0.000000,4.000000,4.000000,2.000000,4.000000,4.000000,,,,,,,,,,,,,,,,,,,,,,,,,
1577976181.303166,35.000000,0.000000,4213.333496,4424.615234,4165.641113,4178.461426,4227.179688,0.000000,0.000000,,,,0.000000,4.000000,4.000000,2.000000,4.000000,4.000000,,,,,,,,,,,,,,,,,,,,,,,,,
1577976181.311064,36.000000,0.000000,4204.102539,4396.922852,4158.974121,4166.666504,4216.922852,0.000000,0.000000,,,,0.000000,4.000000,4.000000,2.000000,4.000000,4.000000,,,,,,,,,,,,,,,,,,,,,,,,,
1577976181.318862,37.000000,0.000000,4214.358887,4408.205078,4167.692383,4168.717773,4225.641113,0.000000,0.000000,,,,0.000000,4.000000,4.000000,2.000000,4.000000,4.000000,,,,,,,,,,,,,,,,,,,,,,,,,
1577976181.326759,38.000000,0.000000,4220.000000,4408.717773,4171.794922,4172.820313,4233.333496,0.000000,0.000000,,,,0.000000,4.000000,4.000000,2.000000,4.000000,4.000000,,,,,,,,,,,,,,,,,,,,,,,,,
1577976181.334557,39.000000,0.000000,4227.179688,4400.512695,4164.615234,4173.846191,4238.461426,0.000000,0.000000,,,,0.000000,4.000000,4.000000,2.000000,4.000000,4.000000,,,,,,,,,,,,,,,,,,,,,,,,,
1577976181.342455,40.000000,0.000000,4208.717773,4377.948730,4142.051270,4152.820313,4214.871582,0.000000,0.000000,,,,0.000000,4.000000,4.000000,2.000000,4.000000,4.000000,,,,,,,,,,,,,,,,,,,,,,,,,
1577976181.350252,41.000000,0.000000,4186.666504,4367.692383,4141.538574,4143.077148,4196.410156,0.000000,0.000000,,,,0.000000,4.000000,4.000000,2.000000,4.000000,4.000000,,,,,,,,,,,,,,,,,,,,,,,,,
1577976181.358150,42.000000,0.000000,4221.538574,4397.948730,4175.384766,4180.512695,4238.974121,0.000000,0.000000,,,,0.000000,4.000000,4.000000,2.000000,4.000000,4.000000,,,,,,,,,,,,,,,,,,,,,,,,,
1577976181.365948,43.000000,0.000000,4279.487305,4427.179688,4204.102539,4231.282227,4293.846191,0.000000,0.000000,,,,0.000000,4.000000,4.000000,2.000000,4.000000,4.000000,,,,,,,,,,,,,,,,,,,,,,,,,
1577976181.373745,44.000000,0.000000,4256.410156,4410.256348,4180.512695,4208.205078,4261.538574,0.000000,0.000000,,,,0.000000,4.000000,4.000000,2.000000,4.000000,4.000000,,,,,,,,,,,,,,,,,,,,,,,,,
1577976181.381443,45.000000,0.000000,4178.974121,4366.666504,4140.000000,4134.871582,4187.179688,0.000000,0.000000,,,,0.000000,4.000000,4.000000,2.000000,4.000000,4.000000,,,,,,,,,,,,,,,,,,,,,,,,,
1577976181.389141,46.000000,0.000000,4186.153809,4358.974121,4161.538574,4137.948730,4201.538574,0.000000,0.000000,,,,0.000000,4.000000,4.000000,2.000000,4.000000,4.000000,,,,,,,,,,,,,,,,,,,,,,,,,
1577976181.396938,47.000000,0.000000,4273.846191,4408.205078,4221.538574,4215.384766,4291.794922,0.000000,0.000000,,,,0.000000,4.000000,4.000000,2.000000,4.000000,4.000000,58.509216,7.580616,25.976271,2.353492,4.554692,31.542297,2.975654,4.165137,2.348646,2.983028,1.850189,1.304182,4.413526,1.629484,2.068309,5.867689,6.578829,16.593405,3.277825,4.395781,31.000879,9.781661,19.350092,2.459464,4.240132
1577976181.404636,48.000000,0.000000,4267.692383,4423.077148,4202.051270,4204.615234,4285.128418,0.000000,0.000000,,,,0.000000,4.000000,4.000000,2.000000,4.000000,4.000000,,,,,,,,,,,,,,,,,,,,,,,,,
1577976181.412534,49.000000,0.000000,4184.102539,4365.128418,4143.589844,4130.256348,4196.410156,0.000000,0.000000,,,,0.000000,4.000000,4.000000,2.000000,4.000000,4.000000,,,,,,,,,,,,,,,,,,,,,,,,,
1577976181.420332,50.000000,0.000000,4195.384766,4353.846191,4164.102539,4151.282227,4204.615234,0.000000,0.000000,,,,0.000000,4.000000,4.000000,2.000000,4.000000,4.000000,,,,,,,,,,,,,,,,,,,,,,,,,
1577976181.428230,51.000000,0.000000,4250.256348,4395.384766,4203.077148,4210.256348,4262.563965,0.000000,0.000000,,,,0.000000,4.000000,4.000000,2.000000,4.000000,4.000000,,,,,,,,,,,,,,,,,,,,,,,,,
1577976181.436028,52.000000,0.000000,4238.974121,4377.436035,4190.769043,4203.077148,4250.769043,0.000000,0.000000,,,,0.000000,4.000000,4.000000,2.000000,4.000000,4.000000,,,,,,,,,,,,,,,,,,,,,,,,,
1577976181.443925,53.000000,0.000000,4226.666504,4331.794922,4174.871582,4193.333496,4224.615234,0.000000,0.000000,,,,0.000000,4.000000,4.000000,2.000000,4.000000,4.000000,,,,,,,,,,,,,,,,,,,,,,,,,
1577976181.451723,54.000000,0.000000,4250.769043,4288.205078,4177.436035,4185.128418,4237.948730,0.000000,0.000000,,,,0.000000,4.000000,4.000000,2.000000,4.000000,4.000000,,,,,,,,,,,,,,,,,,,,,,,,,
1577976181.459521,55.000000,0.000000,4238.974121,4250.769043,4161.538574,4114.358887,4231.794922,0.000000,0.000000,,,,0.000000,4.000000,4.000000,2.000000,4.000000,4.000000,,,,,,,,,,,,,,,,,,,,,,,,,
1577976181.467219,56.000000,0.000000,4187.179688,4295.384766,4121.025879,4077.435791,4192.307617,0.000000,0.000000,,,,0.000000,4.000000,4.000000,2.000000,4.000000,4.000000,,,,,,,,,,,,,,,,,,,,,,,,,
1577976181.475016,57.000000,0.000000,4201.025879,4309.743652,4129.230957,4178.461426,4205.128418,0.000000,0.000000,,,,0.000000,4.000000,4.000000,2.000000,4.000000,4.000000,,,,,,,,,,,,,,,,,,,,,,,,,
1577976181.482714,58.000000,0.000000,4290.769043,4222.051270,4201.538574,4241.538574,4292.820313,0.000000,0.000000,,,,0.000000,4.000000,4.000000,2.000000,4.000000,4.000000,,,,,,,,,,,,,,,,,,,,,,,,,
1577976181.490511,59.000000,0.000000,4340.512695,4223.077148,4236.922852,4122.563965,4380.512695,0.000000,0.000000,,,,0.000000,4.000000,4.000000,2.000000,4.000000,4.000000,,,,,,,,,,,,,,,,,,,,,,,,,
1577976181.498209,60.000000,0.000000,4321.538574,4296.922852,4211.794922,4059.487061,4395.384766,0.000000,0.000000,,,,0.000000,4.000000,4.000000,2.000000,4.000000,4.000000,,,,,,,,,,,,,,,,,,,,,,,,,
1577976181.506007,61.000000,0.000000,4327.179688,4309.743652,4198.461426,4202.051270,4389.743652,0.000000,0.000000,,,,0.000000,4.000000,4.000000,2.000000,4.000000,4.000000,,,,,,,,,,,,,,,,,,,,,,,,,
1577976181.513704,62.000000,0.000000,4306.666504,4351.794922,4138.974121,4319.487305,4349.743652,0.000000,0.000000,,,,0.000000,4.000000,4.000000,2.000000,4.000000,4.000000,,,,,,,,,,,,,,,,,,,,,,,,,
1577976181.521502,63.000000,0.000000,4236.922852,4329.743652,4072.307617,4281.538574,4309.743652,0.000000,0.000000,,,,0.000000,4.000000,4.000000,2.000000,4.000000,4.000000,90.474358,8.945197,24.950598,2.253780,4.782791,35.673321,4.522041,4.319582,2.704879,2.814397,1.575544,1.023473,4.866657,1.326710,2.199021,5.778766,6.094524,17.716070,2.793645,4.308208,42.095066,9.298743,19.101896,2.396998,4.378086
1577976181.529199,64.000000,0.000000,4410.256348,4069.230713,4226.666504,4092.820557,4585.128418,450.000000,0.000000,,,,0.000000,4.000000,4.000000,2.000000,4.000000,4.000000,,,,,,,,,,,,,,,,,,,,,,,,,
1577976181.536996,65.000000,0.000000,4760.000000,3771.281982,4430.769043,3840.000000,4996.922852,450.000000,0.000000,,,,0.000000,4.000000,4.000000,2.000000,4.000000,4.000000,,,,,,,,,,,,,,,,,,,,,,,,,
1577976181.544694,66.000000,0.000000,4722.051270,3879.487061,4311.794922,3800.512939,4884.102539,16211.000000,0.000000,,,,0.000000,4.000000,4.000000,2.000000,4.000000,4.000000,,,,,,,,,,,,,,,,,,,,,,,,,
1577976181.552591,67.000000,0.000000,4222.563965,4443.589844,3982.564209,4125.641113,4270.769043,450.000000,0.000000,,,,0.000000,4.000000,4.000000,2.000000,4.000000,4.000000,,,,,,,,,,,,,,,,,,,,,,,,,
1577976181.560389,68.000000,0.000000,3911.281982,4783.589844,3845.641113,4509.743652,3929.743652,16220.000000,0.000000,,,,0.000000,4.000000,4.000000,2.000000,4.000000,4.000000,,,,,,,,,,,,,,,,,,,,,,,,,
1577976181.568286,69.000000,0.000000,4294.358887,4199.487305,4133.846191,4343.077148,4387.179688,450.000000,0.000000,,,,0.000000,4.000000,4.000000,2.000000,4.000000,4.000000,,,,,,,,,,,,,,,,,,,,,,,,,
1577976181.576084,70.000000,0.000000,4822.563965,3598.974365,4447.179688,3817.435791,5015.384766,311.000000,0.000000,,,,0.000000,4.000000,4.000000,2.000000,4.000000,4.000000,,,,,,,,,,,,,,,,,,,,,,,,,
1577976181.583982,71.000000,0.000000,4729.743652,3901.538574,4296.410156,3910.769287,4891.282227,450.000000,0.000000,,,,0.000000,4.000000,4.000000,2.000000,4.000000,4.000000,,,,,,,,,,,,,,,,,,,,,,,,,
1577976181.591780,72.000000,0.000000,4317.948730,4312.307617,4000.000000,4493.333496,4368.205078,450.000000,0.000000,,,,0.000000,4.000000,4.000000,2.000000,4.000000,4.000000,,,,,,,,,,,,,,,,,,,,,,,,,
1577976181.599477,73.000000,0.000000,4246.666504,4283.077148,4015.384521,4554.358887,4315.384766,16168.000000,0.000000,,,,0.000000,4.000000,4.000000,2.000000,4.000000,4.000000,,,,,,,,,,,,,,,,,,,,,,,,,
1577976181.607275,74.000000,0.000000,4411.282227,4200.512695,4134.871582,4243.589844,4544.615234,450.000000,0.000000,,,,0.000000,4.000000,4.000000,2.000000,4.000000,4.000000,,,,,,,,,,,,,,,,,,,,,,,,,
1577976181.614972,75.000000,0.000000,4469.230957,4086.666748,4160.512695,4172.307617,4548.717773,16187.000000,0.000000,,,,0.000000,4.000000,4.000000,2.000000,4.000000,4.000000,,,,,,,,,,,,,,,,,,,,,,,,,
1577976181.622770,76.000000,0.000000,4481.025879,3870.256348,4212.307617,4152.820313,4530.769043,450.000000,0.000000,,,,0.000000,4.000000,4.000000,2.000000,4.000000,4.000000,,,,,,,,,,,,,,,,,,,,,,,,,
1577976181.630467,77.000000,0.000000,4467.692383,3929.230713,4181.538574,4110.256348,4572.307617,450.000000,0.000000,,,,0.000000,4.000000,4.000000,2.000000,4.000000,4.000000,,,,,,,,,,,,,,,,,,,,,,,,,
1577976181.638265,78.000000,0.000000,4418.974121,4156.922852,4080.512939,4206.153809,4530.769043,450.000000,0.000000,,,,0.000000,4.000000,4.000000,2.000000,4.000000,4.000000,,,,,,,,,,,,,,,,,,,,,,,,,
1577976181.645962,79.000000,0.000000,4397.436035,4120.512695,4101.025879,4261.538574,4482.563965,16187.000000,0.000000,,,,0.000000,4.000000,4.000000,2.000000,4.000000,4.000000,118.725807,10.103904,23.382559,2.590286,5.253486,37.164944,7.065320,4.711043,3.200641,2.903215,1.386188,0.907195,5.274117,1.151453,2.455474,5.364122,5.219182,18.126259,2.566408,4.390389,52.238083,8.632063,18.475878,2.861314,4.775571
1577976181.653760,80.000000,0.000000,4386.666504,3994.871826,4153.846191,4199.487305,4462.051270,450.000000,0.000000,,,,0.000000,4.000000,4.000000,2.000000,4.000000,4.000000,,,,,,,,,,,,,,,,,,,,,,,,,
1577976181.661457,81.000000,0.000000,4359.487305,3974.358887,4145.128418,4145.641113,4434.871582,450.000000,0.000000,,,,0.000000,4.000000,4.000000,2.000000,4.000000,4.000000,,,,,,,,,,,,,,,,,,,,,,,,,
1577976181.669255,82.000000,0.000000,4307.692383,4031.794922,4112.820313,4174.871582,4388.717773,450.000000,0.000000,,,,0.000000,4.000000,4.000000,2.000000,4.000000,4.000000,,,,,,,,,,,,,,,,,,,,,,,,,
1577976181.676952,83.000000,0.000000,4308.717773,4024.102539,4121.025879,4197.948730,4382.051270,16187.000000,0.000000,,,,0.000000,4.000000,4.000000,2.000000,4.000000,4.000000,,,,,,,,,,,,,,,,,,,,,,,,,
1577976181.684750,84.000000,0.000000,4329.230957,3948.205078,4132.820313,4129.743652,4388.717773,450.000000,0.000000,,,,0.000000,4.000000,4.000000,2.000000,4.000000,4.000000,,,,,,,,,,,,,,,,,,,,,,,,,
1577976181.692447,85.000000,0.000000,4307.179688,3893.846191,4116.922852,4072.820557,4368.205078,450.000000,0.000000,,,,0.000000,4.000000,4.000000,2.000000,4.000000,4.000000,,,,,,,,,,,,,,,,,,,,,,,,,
1577976181.700345,86.000000,0.000000,4329.743652,3929.743652,4124.102539,4120.512695,4408.205078,450.000000,0.000000,,,,0.000000,4.000000,4.000000,2.000000,4.000000,4.000000,,,,,,,,,,,,,,,,,,,,,,,,,
1577976181.708143,87.000000,0.000000,4404.102539,4022.564209,4160.000000,4182.563965,4481.025879,16187.000000,0.000000,,,,0.000000,4.000000,4.000000,2.000000,4.000000,4.000000,,,,,,,,,,,,,,,,,,,,,,,,,
1577976181.716040,88.000000,0.000000,4441.538574,4035.897461,4177.948730,4192.307617,4514.871582,450.000000,0.000000,,,,0.000000,4.000000,4.000000,2.000000,4.000000,4.000000,,,,,,,,,,,,,,,,,,,,,,,,,
1577976181.723838,89.000000,0.000000,4447.179688,4028.718018,4175.384766,4183.589844,4520.000000,450.000000,0.000000,,,,0.000000,4.000000,4.000000,2.000000,4.000000,4.000000,,,,,,,,,,,,,,,,,,,,,,,,,
1577976181.731736,90.000000,0.000000,4455.384766,4058.974365,4177.948730,4187.179688,4524.615234,450.000000,0.000000,,,,0.000000,4.000000,4.000000,2.000000,4.000000,4.000000,,,,,,,,,,,,,,,,,,,,,,,,,
1577976181.739533,91.000000,0.000000,4440.512695,4093.333252,4175.384766,4196.410156,4517.436035,16187.000000,0.000000,,,,0.000000,4.000000,4.000000,2.000000,4.000000,4.000000,,,,,,,,,,,,,,,,,,,,,,,,,
1577976181.747431,92.000000,0.000000,4413.333496,4112.307617,4172.820313,4186.153809,4491.794922,450.000000,0.000000,,,,0.000000,4.000000,4.000000,2.000000,4.000000,4.000000,,,,,,,,,,,,,,,,,,,,,,,,,
1577976181.755229,93.000000,0.000000,4376.922852,4096.410156,4164.615234,4147.692383,4452.820313,450.000000,0.000000,,,,0.000000,4.000000,4.000000,2.000000,4.000000,4.000000,,,,,,,,,,,,,,,,,,,,,,,,,
1577976181.763126,94.000000,0.000000,4358.974121,4074.358887,4164.102539,4146.153809,4443.589844,450.000000,0.000000,,,,0.000000,4.000000,4.000000,2.000000,4.000000,4.000000,,,,,,,,,,,,,,,,,,,,,,,,,
1577976181.770924,95.000000,0.000000,4352.820313,4078.974365,4163.077148,4167.692383,4447.692383,16187.000000,0.000000,,,,0.000000,4.000000,4.000000,2.000000,4.000000,4.000000,134.769455,10.646231,21.585512,5.667534,6.739450,34.874084,10.312757,5.850043,7.142883,4.441536,1.279762,1.030903,5.486773,2.265653,3.174454,5.167362,4.763177,18.531528,4.399468,5.640698,59.747623,8.124319,17.615177,7.445783,6.603659
1577976181.778822,96.000000,0.000000,4302.563965,4072.307617,4137.436035,4135.384766,4402.563965,450.000000,0.000000,,,,0.000000,4.000000,4.000000,2.000000,4.000000,4.000000,,,,,,,,,,,,,,,,,,,,,,,,,
1577976181.786619,97.000000,0.000000,4267.692383,4058.974365,4137.948730,4116.922852,4372.820313,450.000000,0.000000,,,,0.000000,4.000000,4.000000,2.000000,4.000000,4.000000,,,,,,,,,,,,,,,,,,,,,,,,,
1577976181.794417,98.000000,0.000000,4279.487305,4078.974365,4164.102539,4149.743652,4382.051270,450.000000,0.000000,,,,0.000000,4.000000,4.000000,2.000000,4.000000,4.000000,,,,,,,,,,,,,,,,,,,,,,,,,
1577976181.802115,99.000000,0.000000,4297.948730,4127.692383,4176.922852,4178.461426,4393.846191,16187.000000,0.000000,,,,0.000000,4.000000,4.000000,2.000000,4.000000,4.000000,,,,,,,,,,,,,,,,,,,,,,,,,
1577976181.809812,100.000000,0.000000,4316.922852,4174.358887,4186.153809,4187.692383,4416.410156,450.000000,0.000000,,,,0.000000,4.000000,4.000000,2.000000,4.000000,4.000000,,,,,,,,,,,,,,,,,,,,,,,,,
1577976181.817610,101.000000,0.000000,4326.153809,4203.077148,4188.717773,4192.307617,4428.717773,450.000000,0.000000,,,,0.000000,4.000000,4.000000,2.000000,4.000000,4.000000,,,,,,,,,,,,,,,,,,,,,,,,,
1577976181.825307,102.000000,0.000000,4318.974121,4243.589844,4177.436035,4181.538574,4413.333496,450.000000,0.000000,,,,0.000000,4.000000,4.000000,2.000000,4.000000,4.000000,,,,,,,,,,,,,,,,,,,,,,,,,
1577976181.833105,103.000000,0.000000,4318.974121,4288.205078,4181.538574,4171.282227,4411.794922,16187.000000,0.000000,,,,0.000000,4.000000,4.000000,2.000000,4.000000,4.000000,,,,,,,,,,,,,,,,,,,,,,,,,
1577976181.840802,104.000000,0.000000,4313.333496,4278.974121,4183.589844,4173.333496,4415.384766,450.000000,0.000000,,,,0.000000,4.000000,4.000000,2.000000,4.000000,4.000000,,,,,,,,,,,,,,,,,,,,,,,,,
1577976181.848700,105.000000,0.000000,4270.256348,4222.563965,4153.846191,4150.769043,4371.282227,450.000000,0.000000,,,,0.000000,4.000000,4.000000,2.000000,4.000000,4.000000,,,,,,,,,,,,,,,,,,,,,,,,,
1577976181.856498,106.000000,0.000000,4225.128418,4186.666504,4132.307617,4115.897461,4323.589844,450.000000,0.000000,,,,0.000000,4.000000,4.000000,2.000000,4.000000,4.000000,,,,,,,,,,,,,,,,,,,,,,,,,
1577976181.864396,107.000000,0.000000,4198.974121,4185.641113,4128.717773,4105.641113,4308.205078,16187.000000,0.000000,,,,0.000000,4.000000,4.000000,2.000000,4.000000,4.000000,,,,,,,,,,,,,,,,,,,,,,,,,
1577976181.872193,108.000000,0.000000,4158.461426,4182.563965,4114.358887,4106.666504,4289.743652,450.000000,0.000000,,,,0.000000,4.000000,4.000000,2.000000,4.000000,4.000000,,,,,,,,,,,,,,,,,,,,,,,,,
1577976181.880091,109.000000,0.000000,4109.230957,4170.256348,4098.461426,4088.205078,4255.384766,450.000000,0.000000,,,,0.000000,4.000000,4.000000,2.000000,4.000000,4.000000,,,,,,,,,,,,,,,,,,,,,,,,,
1577976181.887889,110.000000,0.000000,4109.743652,4217.436035,4120.512695,4091.281982,4253.333496,450.000000,0.000000,,,,0.000000,4.000000,4.000000,2.000000,4.000000,4.000000,,,,,,,,,,,,,,,,,,,,,,,,,
1577976181.895786,111.000000,0.000000,4164.102539,4323.589844,4162.563965,4150.256348,4298.461426,16187.000000,0.000000,,,,0.000000,4.000000,4.000000,2.000000,4.000000,4.000000,133.921631,10.618275,19.860111,17.604994,11.516806,29.311779,13.793887,8.579307,24.547611,10.625668,1.258299,1.444661,5.402319,7.661138,5.384264,6.563400,6.075753,19.800194,13.417641,10.771972,64.896042,8.694145,17.036787,25.599257,13.263724
1577976181.903584,112.000000,0.000000,4171.282227,4372.307617,4160.000000,4155.384766,4301.538574,450.000000,0.000000,,,,0.000000,4.000000,4.000000,2.000000,4.000000,4.000000,,,,,,,,,,,,,,,,,,,,,,,,,
1577976181.911382,113.000000,0.000000,4130.769043,4371.794922,4133.846191,4095.897461,4257.948730,450.000000,0.000000,,,,0.000000,4.000000,4.000000,2.000000,4.000000,4.000000,,,,,,,,,,,,,,,,,,,,,,,,,
1577976181.919079,114.000000,0.000000,4160.512695,4434.358887,4159.487305,4120.512695,4277.948730,450.000000,0.000000,,,,0.000000,4.000000,4.000000,2.000000,4.000000,4.000000,,,,,,,,,,,,,,,,,,,,,,,,,
1577976181.926977,115.000000,0.000000,4205.641113,4503.589844,4187.692383,4175.897461,4317.436035,16187.000000,0.000000,,,,0.000000,4.000000,4.000000,2.000000,4.000000,4.000000,,,,,,,,,,,,,,,,,,,,,,,,,
1577976181.934774,116.000000,0.000000,4163.077148,4495.897461,4161.538574,4134.871582,4278.461426,450.000000,0.000000,,,,0.000000,4.000000,4.000000,2.000000,4.000000,4.000000,,,,,,,,,,,,,,,,,,,,,,,,,
1577976181.942572,117.000000,0.000000,4147.179688,4506.666504,4158.461426,4106.153809,4259.487305,450.000000,0.000000,,,,0.000000,4.000000,4.000000,2.000000,4.000000,4.000000,,,,,,,,,,,,,,,,,,,,,,,,,
1577976181.950270,118.000000,0.000000,4211.282227,4580.512695,4194.871582,4157.948730,4313.333496,450.000000,0.000000,,,,0.000000,4.000000,4.000000,2.000000,4.000000,4.000000,,,,,,,,,,,,,,,,,,,,,,,,,
1577976181.958167,119.000000,0.000000,4235.897461,4621.025879,4194.871582,4180.512695,4334.358887,16187.000000,0.000000,,,,0.000000,4.000000,4.000000,2.000000,4.000000,4.000000,,,,,,,,,,,,,,,,,,,,,,,,,
1577976181.965965,120.000000,0.000000,4201.025879,4608.717773,4168.205078,4156.410156,4299.487305,450.000000,0.000000,,,,0.000000,4.000000,4.000000,2.000000,4.000000,4.000000,,,,,,,,,,,,,,,,,,,,,,,,,
1577976181.973662,121.000000,0.000000,4165.641113,4594.871582,4156.922852,4130.256348,4259.487305,450.000000,0.000000,,,,0.000000,4.000000,4.000000,2.000000,4.000000,4.000000,,,,,,,,,,,,,,,,,,,,,,,,,
1577976181.981460,122.000000,0.000000,4164.615234,4598.461426,4160.000000,4127.692383,4249.743652,450.000000,0.000000,,,,0.000000,4.000000,4.000000,2.000000,4.000000,4.000000,,,,,,,,,,,,,,,,,,,,,,,,,
1577976181.989157,123.000000,0.000000,4191.794922,4614.358887,4172.820313,4157.436035,4270.256348,16187.000000,0.000000,,,,0.000000,4.000000,4.000000,2.000000,4.000000,4.000000,,,,,,,,,,,,,,,,,,,,,,,,,
1577976181.996955,124.000000,0.000000,4210.769043,4617.948730,4180.512695,4168.717773,4277.436035,450.000000,0.000000,,,,0.000000,4.000000,4.000000,2.000000,4.000000,4.000000,,,,,,,,,,,,,,,,,,,,,,,,,
1577976182.004653,125.000000,0.000000,4226.666504,4600.512695,4184.615234,4170.769043,4268.717773,450.000000,0.000000,,,,0.000000,4.000000,4.000000,2.000000,4.000000,4.000000,,,,,,,,,,,,,,,,,,,,,,,,,
1577976182.012450,126.000000,0.000000,4235.897461,4583.077148,4180.000000,4189.743652,4254.358887,450.000000,0.000000,,,,0.000000,4.000000,4.000000,2.000000,4.000000,4.000000,,,,,,,,,,,,,,,,,,,,,,,,,
1577976182.020148,127.000000,0.000000,4213.333496,4586.666504,4161.025879,4174.358887,4224.102539,224.000000,0.000000,,,,0.000000,4.000000,4.000000,2.000000,4.000000,4.000000,118.770912,11.689180,18.513044,44.297161,21.893145,22.851343,17.309690,13.541024,65.653618,24.718956,1.409011,2.252196,5.031185,20.210876,10.136912,10.862796,10.415169,22.830435,34.843815,22.487068,71.208351,12.231785,17.467791,66.323318,28.212496
1577976182.027945,0.000000,0.000000,4216.410156,4609.230957,4170.769043,4156.410156,4225.128418,450.000000,0.000000,,,,0.000000,4.000000,4.000000,2.000000,4.000000,4.000000,,,,,,,,,,,,,,,,,,,,,,,,,
1577976182.035643,1.000000,0.000000,4269.743652,4630.256348,4208.205078,4201.025879,4273.846191,450.000000,0.000000,,,,0.000000,4.000000,4.000000,2.000000,4.000000,4.000000,,,,,,,,,,,,,,,,,,,,,,,,,
1577976182.043440,2.000000,0.000000,4258.461426,4615.384766,4194.358887,4204.102539,4260.512695,16201.000000,0.000000,,,,0.000000,4.000000,4.000000,2.000000,4.000000,4.000000,,,,,,,,,,,,,,,,,,,,,,,,,
1577976182.051138,3.000000,0.000000,4194.871582,4582.051270,4151.794922,4132.307617,4187.692383,450.000000,0.000000,,,,0.000000,4.000000,4.000000,2.000000,4.000000,4.000000,,,,,,,,,,,,,,,,,,,,,,,,,
1577976182.058935,4.000000,0.000000,4212.307617,4589.743652,4167.692383,4126.666504,4193.846191,16240.000000,0.000000,,,,0.000000,4.000000,4.000000,2.000000,4.000000,4.000000,,,,,,,,,,,,,,,,,,,,,,,,,
1577976182.066633,5.000000,0.000000,4273.846191,4612.307617,4198.461426,4184.102539,4250.769043,450.000000,0.000000,,,,0.000000,4.000000,4.000000,2.000000,4.000000,4.000000,,,,,,,,,,,,,,,,,,,,,,,,,
1577976182.074431,6.000000,0.000000,4254.871582,4590.256348,4168.205078,4169.743652,4222.051270,304.000000,0.000000,,,,0.000000,4.000000,4.000000,2.000000,4.000000,4.000000,,,,,,,,,,,,,,,,,,,,,,,,,
1577976182.082328,7.000000,0.000000,4204.102539,4570.769043,4137.436035,4111.282227,4157.948730,450.000000,0.000000,,,,0.000000,4.000000,4.000000,2.000000,4.000000,4.000000,,,,,,,,,,,,,,,,,,,,,,,,,
1577976182.090226,8.000000,0.000000,4240.000000,4604.615234,4171.794922,4146.666504,4188.205078,450.000000,0.000000,,,,0.000000,4.000000,4.000000,2.000000,4.000000,4.000000,,,,,,,,,,,,,,,,,,,,,,,,,
1577976182.098023,9.000000,0.000000,4293.333496,4625.128418,4202.563965,4218.974121,4240.512695,16159.000000,0.000000,,,,0.000000,4.000000,4.000000,2.000000,4.000000,4.000000,,,,,,,,,,,,,,,,,,,,,,,,,
1577976182.105821,10.000000,0.000000,4256.410156,4589.230957,4178.974121,4182.563965,4195.384766,450.000000,0.000000,,,,0.000000,4.000000,4.000000,2.000000,4.000000,4.000000,,,,,,,,,,,,,,,,,,,,,,,,,
1577976182.113519,11.000000,0.000000,4220.512695,4561.538574,4165.128418,4116.410156,4149.743652,16190.000000,0.000000,,,,0.000000,4.000000,4.000000,2.000000,4.000000,4.000000,,,,,,,,,,,,,,,,,,,,,,,,,
1577976182.121316,12.000000,0.000000,4255.897461,4573.333496,4196.922852,4145.641113,4182.051270,450.000000,0.000000,,,,0.000000,4.000000,4.000000,2.000000,4.000000,4.000000,,,,,,,,,,,,,,,,,,,,,,,,,
1577976182.129014,13.000000,0.000000,4262.563965,4572.307617,4206.153809,4182.563965,4188.717773,450.000000,0.000000,,,,0.000000,4.000000,4.000000,2.000000,4.000000,4.000000,,,,,,,,,,,,,,,,,,,,,,,,,
1577976182.136911,14.000000,0.000000,4226.153809,4547.692383,4173.846191,4147.692383,4147.692383,450.000000,0.000000,,,,0.000000,4.000000,4.000000,2.000000,4.000000,4.000000,,,,,,,,,,,,,,,,,,,,,,,,,
1577976182.144709,15.000000,0.000000,4244.102539,4550.769043,4170.256348,4132.307617,4157.948730,16190.000000,0.000000,,,,0.000000,4.000000,4.000000,2.000000,4.000000,4.000000,96.850983,15.957304,17.682348,86.042847,38.069889,17.652416,21.615910,20.520485,131.928467,47.159027,1.941005,3.545441,4.496870,40.095406,17.529451,18.491205,18.058207,27.729929,69.326965,41.078022,80.709618,20.165956,19.301746,129.967163,51.809772
1577976182.152607,16.000000,0.000000,4296.410156,4579.487305,4189.743652,4176.922852,4209.743652,0.000000,0.000000,,,,0.000000,4.000000,4.000000,2.000000,4.000000,4.000000,,,,,,,,,,,,,,,,,,,,,,,,,
1577976182.160404,17.000000,0.000000,4298.461426,4570.256348,4184.102539,4194.358887,4216.922852,0.000000,0.000000,,,,0.000000,4.000000,4.000000,2.000000,4.000000,4.000000,,,,,,,,,,,,,,,,,,,,,,,,,
1577976182.168302,18.000000,0.000000,4271.282227,4538.461426,4175.897461,4168.205078,4187.692383,0.000000,0.000000,,,,0.000000,4.000000,4.000000,2.000000,4.000000,4.000000,,,,,,,,,,,,,,,,,,,,,,,,,
1577976182.176100,19.000000,0.000000,4285.641113,4557.436035,4194.358887,4171.794922,4191.794922,0.000000,0.000000,,,,0.000000,4.000000,4.000000,2.000000,4.000000,4.000000,,,,,,,,,,,,,,,,,,,,,,,,,
