title:h1, start timestamp:2019-12-31T19:00:10.424098+03:00, stop timestamp:2019-12-31T19:00:53.115957+03:00, headset type:INSIGHT, headset serial:A2D200FB, headset firmware:930, subject name:Usman, channels:44, sampling rate:eeg_128;pow_8, samples:5480      , version:2.0
Timestamp,EEG.Counter,EEG.Interpolated,EEG.AF3,EEG.T7,EEG.Pz,EEG.T8,EEG.AF4,EEG.RawCq,EEG.Battery,MarkerIndex,MarkerType,MarkerValueInt,EEG.MarkerHardware,CQ.AF3,CQ.T7,CQ.Pz,CQ.T8,CQ.AF4,POW.AF3.Theta,POW.AF3.Alpha,POW.AF3.BetaL,POW.AF3.BetaH,POW.AF3.Gamma,POW.T7.Theta,POW.T7.Alpha,POW.T7.BetaL,POW.T7.BetaH,POW.T7.Gamma,POW.Pz.Theta,POW.Pz.Alpha,POW.Pz.BetaL,POW.Pz.BetaH,POW.Pz.Gamma,POW.T8.Theta,POW.T8.Alpha,POW.T8.BetaL,POW.T8.BetaH,POW.T8.Gamma,POW.AF4.Theta,POW.AF4.Alpha,POW.AF4.BetaL,POW.AF4.BetaH,POW.AF4.Gamma
1577808010.424098,66.000000,0.000000,4336.922852,4342.563965,4133.333496,4056.410156,4162.051270,16187.000000,2.000000,,,,0.000000,4.000000,4.000000,4.000000,4.000000,4.000000,,,,,,,,,,,,,,,,,,,,,,,,,
1577808010.431795,67.000000,0.000000,4341.025879,4361.538574,4127.692383,4044.102539,4167.179688,450.000000,2.000000,,,,0.000000,4.000000,4.000000,4.000000,4.000000,4.000000,5.781350,3.290485,0.975330,0.772152,0.555475,1.416485,0.810759,0.574610,0.419870,0.866016,2.291167,1.536234,2.707279,0.858089,0.377226,5.197855,1.273100,0.839761,0.764967,0.327167,4.133654,2.365451,1.688479,0.812246,0.400727
1577808010.439593,68.000000,0.000000,4338.974121,4383.589844,4151.794922,4072.307617,4173.846191,16109.000000,2.000000,,,,0.000000,4.000000,4.000000,4.000000,4.000000,4.000000,,,,,,,,,,,,,,,,,,,,,,,,,
1577808010.447290,69.000000,0.000000,4331.282227,4368.205078,4153.333496,4068.205078,4171.282227,450.000000,2.000000,,,,0.000000,4.000000,4.000000,4.000000,4.000000,4.000000,,,,,,,,,,,,,,,,,,,,,,,,,
1577808010.455087,70.000000,0.000000,4317.948730,4351.794922,4124.102539,4025.641113,4155.384766,16109.000000,2.000000,,,,0.000000,4.000000,4.000000,4.000000,4.000000,4.000000,,,,,,,,,,,,,,,,,,,,,,,,,
1577808010.462785,71.000000,0.000000,4308.717773,4356.922852,4136.410156,4048.205078,4148.205078,450.000000,2.000000,,,,0.000000,4.000000,4.000000,4.000000,4.000000,4.000000,,,,,,,,,,,,,,,,,,,,,,,,,
1577808010.470582,72.000000,0.000000,4300.000000,4357.948730,4153.333496,4093.846191,4154.871582,450.000000,2.000000,,,,0.000000,4.000000,4.000000,4.000000,4.000000,4.000000,,,,,,,,,,,,,,,,,,,,,,,,,
1577808010.478279,73.000000,0.000000,4294.358887,4369.743652,4145.128418,4095.384521,4155.897461,16071.000000,2.000000,,,,0.000000,4.000000,4.000000,4.000000,4.000000,4.000000,,,,,,,,,,,,,,,,,,,,,,,,,
1577808010.486077,74.000000,0.000000,4292.307617,4381.025879,4136.922852,4081.538574,4146.666504,450.000000,2.000000,,,,0.000000,4.000000,4.000000,4.000000,4.000000,4.000000,,,,,,,,,,,,,,,,,,,,,,,,,
1577808010.493774,75.000000,0.000000,4290.769043,4380.512695,4139.487305,4094.358887,4145.128418,16182.000000,2.000000,,,,0.000000,4.000000,4.000000,4.000000,4.000000,4.000000,,,,,,,,,,,,,,,,,,,,,,,,,
1577808010.501472,76.000000,0.000000,4288.205078,4380.000000,4137.436035,4105.641113,4153.333496,450.000000,2.000000,,,,0.000000,4.000000,4.000000,4.000000,4.000000,4.000000,,,,,,,,,,,,,,,,,,,,,,,,,
1577808010.509270,77.000000,0.000000,4281.025879,4370.769043,4133.333496,4110.769043,4151.282227,450.000000,2.000000,,,,0.000000,4.000000,4.000000,4.000000,4.000000,4.000000,,,,,,,,,,,,,,,,,,,,,,,,,
1577808010.516967,78.000000,0.000000,4266.666504,4361.538574,4148.205078,4132.820313,4135.897461,450.000000,2.000000,,,,0.000000,4.000000,4.000000,4.000000,4.000000,4.000000,,,,,,,,,,,,,,,,,,,,,,,,,
1577808010.524765,79.000000,0.000000,4258.974121,4375.384766,4143.077148,4118.974121,4135.384766,16182.000000,2.000000,,,,0.000000,4.000000,4.000000,4.000000,4.000000,4.000000,,,,,,,,,,,,,,,,,,,,,,,,,
1577808010.532463,80.000000,0.000000,4264.102539,4384.102539,4143.077148,4123.589844,4148.717773,450.000000,2.000000,,,,0.000000,4.000000,4.000000,4.000000,4.000000,4.000000,,,,,,,,,,,,,,,,,,,,,,,,,
1577808010.540261,81.000000,0.000000,4268.205078,4373.846191,4160.512695,4156.922852,4154.871582,450.000000,2.000000,,,,0.000000,4.000000,4.000000,4.000000,4.000000,4.000000,,,,,,,,,,,,,,,,,,,,,,,,,
1577808010.547958,82.000000,0.000000,4269.743652,4377.436035,4163.077148,4149.230957,4155.384766,450.000000,2.000000,,,,0.000000,4.000000,4.000000,4.000000,4.000000,4.000000,,,,,,,,,,,,,,,,,,,,,,,,,
1577808010.555756,83.000000,0.000000,4267.179688,4382.563965,4186.666504,4161.025879,4156.922852,16182.000000,2.000000,,,,0.000000,4.000000,4.000000,4.000000,4.000000,4.000000,9.450638,2.929479,1.144776,0.724287,0.541253,1.475610,0.713936,0.648036,0.391382,0.856751,1.640599,1.182682,2.472396,0.779801,0.419953,4.601272,1.444557,0.958790,0.671557,0.359191,4.424434,1.696987,1.608087,0.713666,0.407611
1577808010.563454,84.000000,0.000000,4263.077148,4380.512695,4185.128418,4157.948730,4163.077148,450.000000,2.000000,,,,0.000000,4.000000,4.000000,4.000000,4.000000,4.000000,,,,,,,,,,,,,,,,,,,,,,,,,
1577808010.571251,85.000000,0.000000,4254.358887,4377.948730,4170.769043,4149.230957,4158.461426,450.000000,2.000000,,,,0.000000,4.000000,4.000000,4.000000,4.000000,4.000000,,,,,,,,,,,,,,,,,,,,,,,,,
1577808010.578949,86.000000,0.000000,4235.384766,4362.563965,4174.358887,4156.922852,4132.307617,450.000000,2.000000,,,,0.000000,4.000000,4.000000,4.000000,4.000000,4.000000,,,,,,,,,,,,,,,,,,,,,,,,,
1577808010.586746,87.000000,0.000000,4225.128418,4363.589844,4160.000000,4134.871582,4122.563965,16182.000000,2.000000,,,,0.000000,4.000000,4.000000,4.000000,4.000000,4.000000,,,,,,,,,,,,,,,,,,,,,,,,,
1577808010.594444,88.000000,0.000000,4234.358887,4386.153809,4185.641113,4160.000000,4140.512695,450.000000,2.000000,,,,0.000000,4.000000,4.000000,4.000000,4.000000,4.000000,,,,,,,,,,,,,,,,,,,,,,,,,
1577808010.602241,89.000000,0.000000,4241.538574,4381.538574,4196.922852,4164.102539,4144.102539,450.000000,2.000000,,,,0.000000,4.000000,4.000000,4.000000,4.000000,4.000000,,,,,,,,,,,,,,,,,,,,,,,,,
1577808010.610039,90.000000,0.000000,4230.256348,4356.922852,4164.615234,4127.179688,4124.102539,450.000000,2.000000,,,,0.000000,4.000000,4.000000,4.000000,4.000000,4.000000,,,,,,,,,,,,,,,,,,,,,,,,,
1577808010.617736,91.000000,0.000000,4228.205078,4361.025879,4168.717773,4146.666504,4123.077148,16182.000000,2.000000,,,,0.000000,4.000000,4.000000,4.000000,4.000000,4.000000,,,,,,,,,,,,,,,,,,,,,,,,,
1577808010.625433,92.000000,0.000000,4238.461426,4380.512695,4168.205078,4149.230957,4132.820313,450.000000,2.000000,,,,0.000000,4.000000,4.000000,4.000000,4.000000,4.000000,,,,,,,,,,,,,,,,,,,,,,,,,
1577808010.633132,93.000000,0.000000,4235.897461,4383.077148,4160.512695,4151.282227,4120.512695,450.000000,2.000000,,,,0.000000,4.000000,4.000000,4.000000,4.000000,4.000000,,,,,,,,,,,,,,,,,,,,,,,,,
1577808010.640930,94.000000,0.000000,4237.436035,4380.512695,4154.871582,4157.436035,4114.871582,450.000000,2.000000,,,,0.000000,4.000000,4.000000,4.000000,4.000000,4.000000,,,,,,,,,,,,,,,,,,,,,,,,,
1577808010.648727,95.000000,0.000000,4242.051270,4378.974121,4165.128418,4161.538574,4123.589844,16182.000000,2.000000,,,,0.000000,4.000000,4.000000,4.000000,4.000000,4.000000,,,,,,,,,,,,,,,,,,,,,,,,,
1577808010.656425,96.000000,0.000000,4237.948730,4374.358887,4185.128418,4186.153809,4120.512695,450.000000,2.000000,,,,0.000000,4.000000,4.000000,4.000000,4.000000,4.000000,,,,,,,,,,,,,,,,,,,,,,,,,
1577808010.664222,97.000000,0.000000,4231.282227,4373.846191,4143.589844,4153.846191,4111.794922,450.000000,2.000000,,,,0.000000,4.000000,4.000000,4.000000,4.000000,4.000000,,,,,,,,,,,,,,,,,,,,,,,,,
1577808010.671919,98.000000,0.000000,4222.563965,4378.974121,4153.846191,4183.077148,4109.743652,450.000000,2.000000,,,,0.000000,4.000000,4.000000,4.000000,4.000000,4.000000,,,,,,,,,,,,,,,,,,,,,,,,,
1577808010.679617,99.000000,0.000000,4228.717773,4386.666504,4196.922852,4237.436035,4124.102539,16182.000000,2.000000,,,,0.000000,4.000000,4.000000,4.000000,4.000000,4.000000,15.196692,2.945960,1.502666,0.684246,0.525851,1.543596,0.710104,0.676045,0.373212,0.844042,1.310967,0.963413,2.052272,0.718721,0.462059,3.796861,1.612499,1.002775,0.591690,0.395435,5.235179,1.506928,1.594106,0.633334,0.407304
1577808010.687415,100.000000,0.000000,4240.512695,4381.538574,4168.205078,4200.000000,4138.974121,450.000000,2.000000,,,,0.000000,4.000000,4.000000,4.000000,4.000000,4.000000,,,,,,,,,,,,,,,,,,,,,,,,,
1577808010.695113,101.000000,0.000000,4234.358887,4358.461426,4182.563965,4209.743652,4137.436035,450.000000,2.000000,,,,0.000000,4.000000,4.000000,4.000000,4.000000,4.000000,,,,,,,,,,,,,,,,,,,,,,,,,
1577808010.702910,102.000000,0.000000,4230.769043,4345.128418,4200.000000,4204.615234,4141.025879,450.000000,2.000000,,,,0.000000,4.000000,4.000000,4.000000,4.000000,4.000000,,,,,,,,,,,,,,,,,,,,,,,,,
1577808010.710708,103.000000,0.000000,4240.512695,4350.769043,4180.512695,4188.717773,4150.256348,16182.000000,2.000000,,,,0.000000,4.000000,4.000000,4.000000,4.000000,4.000000,,,,,,,,,,,,,,,,,,,,,,,,,
1577808010.718406,104.000000,0.000000,4227.692383,4347.179688,4173.846191,4208.205078,4138.974121,450.000000,2.000000,,,,0.000000,4.000000,4.000000,4.000000,4.000000,4.000000,,,,,,,,,,,,,,,,,,,,,,,,,
1577808010.726103,105.000000,0.000000,4200.512695,4329.230957,4157.948730,4179.487305,4118.974121,450.000000,2.000000,,,,0.000000,4.000000,4.000000,4.000000,4.000000,4.000000,,,,,,,,,,,,,,,,,,,,,,,,,
1577808010.733901,106.000000,0.000000,4205.641113,4336.922852,4172.307617,4193.846191,4122.051270,450.000000,2.000000,,,,0.000000,4.000000,4.000000,4.000000,4.000000,4.000000,,,,,,,,,,,,,,,,,,,,,,,,,
1577808010.741599,107.000000,0.000000,4221.025879,4358.974121,4177.948730,4215.384766,4139.487305,16182.000000,2.000000,,,,0.000000,4.000000,4.000000,4.000000,4.000000,4.000000,,,,,,,,,,,,,,,,,,,,,,,,,
1577808010.749397,108.000000,0.000000,4209.743652,4344.615234,4171.282227,4209.230957,4140.000000,450.000000,2.000000,,,,0.000000,4.000000,4.000000,4.000000,4.000000,4.000000,,,,,,,,,,,,,,,,,,,,,,,,,
1577808010.757194,109.000000,0.000000,4205.128418,4325.128418,4192.820313,4228.205078,4129.743652,450.000000,2.000000,,,,0.000000,4.000000,4.000000,4.000000,4.000000,4.000000,,,,,,,,,,,,,,,,,,,,,,,,,
1577808010.764891,110.000000,0.000000,4218.974121,4345.641113,4190.769043,4211.282227,4126.153809,450.000000,2.000000,,,,0.000000,4.000000,4.000000,4.000000,4.000000,4.000000,,,,,,,,,,,,,,,,,,,,,,,,,
1577808010.772589,111.000000,0.000000,4211.282227,4360.000000,4185.641113,4220.512695,4124.615234,16182.000000,2.000000,,,,0.000000,4.000000,4.000000,4.000000,4.000000,4.000000,,,,,,,,,,,,,,,,,,,,,,,,,
1577808010.780386,112.000000,0.000000,4191.282227,4333.846191,4173.333496,4223.077148,4118.974121,450.000000,2.000000,,,,0.000000,4.000000,4.000000,4.000000,4.000000,4.000000,,,,,,,,,,,,,,,,,,,,,,,,,
1577808010.788084,113.000000,0.000000,4194.871582,4323.589844,4161.538574,4188.717773,4115.897461,450.000000,2.000000,,,,0.000000,4.000000,4.000000,4.000000,4.000000,4.000000,,,,,,,,,,,,,,,,,,,,,,,,,
1577808010.795882,114.000000,0.000000,4199.487305,4341.025879,4184.102539,4206.153809,4116.922852,450.000000,2.000000,,,,0.000000,4.000000,4.000000,4.000000,4.000000,4.000000,,,,,,,,,,,,,,,,,,,,,,,,,
1577808010.803579,115.000000,0.000000,4185.128418,4336.410156,4183.589844,4202.563965,4115.384766,16182.000000,2.000000,,,,0.000000,4.000000,4.000000,4.000000,4.000000,4.000000,21.405512,3.452205,2.035868,0.668418,0.511328,1.619504,0.755556,0.642857,0.373814,0.826543,1.291909,0.889644,1.577631,0.674023,0.495906,3.047939,1.765200,0.998792,0.555360,0.439700,6.263758,1.879461,1.753027,0.608018,0.396098
1577808010.811377,116.000000,0.000000,4187.179688,4330.256348,4196.922852,4205.641113,4117.948730,450.000000,2.000000,,,,0.000000,4.000000,4.000000,4.000000,4.000000,4.000000,,,,,,,,,,,,,,,,,,,,,,,,,
1577808010.819074,117.000000,0.000000,4211.282227,4348.717773,4227.692383,4227.179688,4136.410156,450.000000,2.000000,,,,0.000000,4.000000,4.000000,4.000000,4.000000,4.000000,,,,,,,,,,,,,,,,,,,,,,,,,
1577808010.826872,118.000000,0.000000,4220.512695,4348.717773,4216.922852,4204.102539,4146.153809,450.000000,2.000000,,,,0.000000,4.000000,4.000000,4.000000,4.000000,4.000000,,,,,,,,,,,,,,,,,,,,,,,,,
1577808010.834569,119.000000,0.000000,4213.846191,4337.436035,4213.846191,4207.692383,4137.436035,16182.000000,2.000000,,,,0.000000,4.000000,4.000000,4.000000,4.000000,4.000000,,,,,,,,,,,,,,,,,,,,,,,,,
1577808010.842366,120.000000,0.000000,4217.948730,4350.769043,4217.436035,4215.384766,4143.077148,450.000000,2.000000,,,,0.000000,4.000000,4.000000,4.000000,4.000000,4.000000,,,,,,,,,,,,,,,,,,,,,,,,,
1577808010.850064,121.000000,0.000000,4221.025879,4357.436035,4221.538574,4224.102539,4153.333496,450.000000,2.000000,,,,0.000000,4.000000,4.000000,4.000000,4.000000,4.000000,,,,,,,,,,,,,,,,,,,,,,,,,
1577808010.857861,122.000000,0.000000,4215.897461,4337.436035,4218.461426,4235.897461,4146.666504,450.000000,2.000000,,,,0.000000,4.000000,4.000000,4.000000,4.000000,4.000000,,,,,,,,,,,,,,,,,,,,,,,,,
1577808010.865558,123.000000,0.000000,4213.333496,4326.666504,4201.538574,4212.307617,4138.461426,16182.000000,2.000000,,,,0.000000,4.000000,4.000000,4.000000,4.000000,4.000000,,,,,,,,,,,,,,,,,,,,,,,,,
1577808010.873355,124.000000,0.000000,4209.230957,4341.538574,4220.000000,4229.230957,4136.410156,450.000000,2.000000,,,,0.000000,4.000000,4.000000,4.000000,4.000000,4.000000,,,,,,,,,,,,,,,,,,,,,,,,,
1577808010.881053,125.000000,0.000000,4205.641113,4356.410156,4228.205078,4237.948730,4135.897461,450.000000,2.000000,,,,0.000000,4.000000,4.000000,4.000000,4.000000,4.000000,,,,,,,,,,,,,,,,,,,,,,,,,
1577808010.888850,126.000000,0.000000,4200.512695,4348.205078,4221.025879,4213.846191,4134.358887,450.000000,2.000000,,,,0.000000,4.000000,4.000000,4.000000,4.000000,4.000000,,,,,,,,,,,,,,,,,,,,,,,,,
1577808010.896547,127.000000,0.000000,4202.051270,4343.589844,4227.179688,4214.358887,4135.897461,229.000000,2.000000,,,,0.000000,4.000000,4.000000,4.000000,4.000000,4.000000,,,,,,,,,,,,,,,,,,,,,,,,,
1577808010.904345,0.000000,0.000000,4210.256348,4358.461426,4214.871582,4205.641113,4143.077148,450.000000,2.000000,,,,0.000000,4.000000,4.000000,4.000000,4.000000,4.000000,,,,,,,,,,,,,,,,,,,,,,,,,
1577808010.912042,1.000000,0.000000,4211.282227,4354.358887,4226.666504,4222.051270,4150.256348,450.000000,2.000000,,,,0.000000,4.000000,4.000000,4.000000,4.000000,4.000000,,,,,,,,,,,,,,,,,,,,,,,,,
1577808010.919740,2.000000,0.000000,4224.615234,4338.461426,4241.538574,4229.743652,4165.128418,16186.000000,2.000000,,,,0.000000,4.000000,4.000000,4.000000,4.000000,4.000000,,,,,,,,,,,,,,,,,,,,,,,,,
1577808010.927537,3.000000,0.000000,4231.794922,4341.025879,4232.307617,4215.897461,4170.256348,450.000000,2.000000,,,,0.000000,4.000000,4.000000,4.000000,4.000000,4.000000,26.290842,4.332206,2.647587,0.676737,0.497743,1.678802,0.794396,0.562122,0.397565,0.808966,1.570595,0.966170,1.165605,0.645991,0.520569,2.851278,1.920857,1.004425,0.577423,0.502255,7.057974,2.707582,2.089083,0.641962,0.378886
1577808010.935235,4.000000,0.000000,4214.871582,4348.717773,4227.179688,4237.948730,4154.358887,16110.000000,2.000000,,,,0.000000,4.000000,4.000000,4.000000,4.000000,4.000000,,,,,,,,,,,,,,,,,,,,,,,,,
1577808010.943033,5.000000,0.000000,4213.846191,4345.641113,4222.563965,4237.436035,4152.307617,450.000000,2.000000,,,,0.000000,4.000000,4.000000,4.000000,4.000000,4.000000,,,,,,,,,,,,,,,,,,,,,,,,,
1577808010.950730,6.000000,0.000000,4229.230957,4342.051270,4243.077148,4243.077148,4163.077148,16113.000000,2.000000,,,,0.000000,4.000000,4.000000,4.000000,4.000000,4.000000,,,,,,,,,,,,,,,,,,,,,,,,,
1577808010.958528,7.000000,0.000000,4223.077148,4355.897461,4237.948730,4238.974121,4160.000000,450.000000,2.000000,,,,0.000000,4.000000,4.000000,4.000000,4.000000,4.000000,,,,,,,,,,,,,,,,,,,,,,,,,
1577808010.966225,8.000000,0.000000,4213.846191,4364.615234,4210.769043,4209.743652,4154.358887,450.000000,2.000000,,,,0.000000,4.000000,4.000000,4.000000,4.000000,4.000000,,,,,,,,,,,,,,,,,,,,,,,,,
1577808010.974023,9.000000,0.000000,4226.666504,4354.358887,4231.282227,4236.410156,4161.538574,16064.000000,2.000000,,,,0.000000,4.000000,4.000000,4.000000,4.000000,4.000000,,,,,,,,,,,,,,,,,,,,,,,,,
1577808010.981720,10.000000,0.000000,4231.794922,4353.846191,4220.512695,4227.692383,4160.000000,450.000000,2.000000,,,,0.000000,4.000000,4.000000,4.000000,4.000000,4.000000,,,,,,,,,,,,,,,,,,,,,,,,,
1577808010.989518,11.000000,0.000000,4213.333496,4365.641113,4204.102539,4204.615234,4151.794922,16188.000000,2.000000,,,,0.000000,4.000000,4.000000,4.000000,4.000000,4.000000,,,,,,,,,,,,,,,,,,,,,,,,,
1577808010.997215,12.000000,0.000000,4205.128418,4360.000000,4220.512695,4219.487305,4157.948730,450.000000,2.000000,,,,0.000000,4.000000,4.000000,4.000000,4.000000,4.000000,,,,,,,,,,,,,,,,,,,,,,,,,
1577808011.005013,13.000000,0.000000,4217.948730,4346.666504,4217.436035,4211.282227,4166.153809,450.000000,2.000000,,,,0.000000,4.000000,4.000000,4.000000,4.000000,4.000000,,,,,,,,,,,,,,,,,,,,,,,,,
1577808011.012710,14.000000,0.000000,4222.563965,4355.897461,4225.641113,4223.589844,4162.563965,450.000000,2.000000,,,,0.000000,4.000000,4.000000,4.000000,4.000000,4.000000,,,,,,,,,,,,,,,,,,,,,,,,,
1577808011.020508,15.000000,0.000000,4212.307617,4365.128418,4222.563965,4209.230957,4163.589844,16188.000000,2.000000,,,,0.000000,4.000000,4.000000,4.000000,4.000000,4.000000,,,,,,,,,,,,,,,,,,,,,,,,,
1577808011.028205,16.000000,0.000000,4210.769043,4355.897461,4217.948730,4195.897461,4176.410156,0.000000,2.000000,,,,0.000000,4.000000,4.000000,4.000000,4.000000,4.000000,,,,,,,,,,,,,,,,,,,,,,,,,
1577808011.036002,17.000000,0.000000,4216.922852,4352.820313,4223.077148,4217.436035,4178.461426,0.000000,2.000000,,,,0.000000,4.000000,4.000000,4.000000,4.000000,4.000000,,,,,,,,,,,,,,,,,,,,,,,,,
1577808011.043700,18.000000,0.000000,4220.000000,4363.589844,4201.025879,4199.487305,4178.461426,0.000000,2.000000,,,,0.000000,4.000000,4.000000,4.000000,4.000000,4.000000,,,,,,,,,,,,,,,,,,,,,,,,,
1577808011.051497,19.000000,0.000000,4222.563965,4363.077148,4207.692383,4212.307617,4191.794922,0.000000,2.000000,,,,0.000000,4.000000,4.000000,4.000000,4.000000,4.000000,27.576366,5.283187,3.178207,0.694625,0.483974,1.698726,0.800169,0.477050,0.445385,0.799228,2.053186,1.173102,0.901274,0.645832,0.542562,3.343515,2.092370,1.066530,0.652026,0.590980,7.265676,3.726739,2.493192,0.707877,0.365878
1577808011.059194,20.000000,0.000000,4222.563965,4357.436035,4208.717773,4212.307617,4193.333496,0.000000,2.000000,,,,0.000000,4.000000,4.000000,4.000000,4.000000,4.000000,,,,,,,,,,,,,,,,,,,,,,,,,
1577808011.066892,21.000000,0.000000,4216.922852,4358.974121,4197.436035,4182.563965,4180.000000,0.000000,2.000000,,,,0.000000,4.000000,4.000000,4.000000,4.000000,4.000000,,,,,,,,,,,,,,,,,,,,,,,,,
1577808011.074690,22.000000,0.000000,4222.051270,4365.641113,4220.000000,4205.128418,4184.615234,0.000000,2.000000,,,,0.000000,4.000000,4.000000,4.000000,4.000000,4.000000,,,,,,,,,,,,,,,,,,,,,,,,,
1577808011.082388,23.000000,0.000000,4234.358887,4367.692383,4214.358887,4192.307617,4196.922852,0.000000,2.000000,,,,0.000000,4.000000,4.000000,4.000000,4.000000,4.000000,,,,,,,,,,,,,,,,,,,,,,,,,
1577808011.090185,24.000000,0.000000,4233.333496,4368.717773,4218.461426,4182.051270,4194.358887,0.000000,2.000000,,,,0.000000,4.000000,4.000000,4.000000,4.000000,4.000000,,,,,,,,,,,,,,,,,,,,,,,,,
1577808011.097883,25.000000,0.000000,4235.384766,4376.410156,4238.974121,4191.282227,4192.820313,0.000000,2.000000,,,,0.000000,4.000000,4.000000,4.000000,4.000000,4.000000,,,,,,,,,,,,,,,,,,,,,,,,,
1577808011.105681,26.000000,0.000000,4241.025879,4369.743652,4234.871582,4171.794922,4193.333496,0.000000,2.000000,,,,0.000000,4.000000,4.000000,4.000000,4.000000,4.000000,,,,,,,,,,,,,,,,,,,,,,,,,
1577808011.113379,27.000000,0.000000,4233.333496,4361.025879,4247.179688,4187.692383,4190.769043,0.000000,2.000000,,,,0.000000,4.000000,4.000000,4.000000,4.000000,4.000000,,,,,,,,,,,,,,,,,,,,,,,,,
1577808011.121177,28.000000,0.000000,4218.974121,4371.794922,4234.871582,4183.077148,4190.256348,0.000000,2.000000,,,,0.000000,4.000000,4.000000,4.000000,4.000000,4.000000,,,,,,,,,,,,,,,,,,,,,,,,,
1577808011.128874,29.000000,0.000000,4202.051270,4374.358887,4213.333496,4171.282227,4179.487305,0.000000,2.000000,,,,0.000000,4.000000,4.000000,4.000000,4.000000,4.000000,,,,,,,,,,,,,,,,,,,,,,,,,
1577808011.136672,30.000000,0.000000,4190.769043,4365.641113,4211.794922,4172.820313,4162.051270,0.000000,2.000000,,,,0.000000,4.000000,4.000000,4.000000,4.000000,4.000000,,,,,,,,,,,,,,,,,,,,,,,,,
1577808011.144469,31.000000,0.000000,4197.948730,4367.692383,4205.641113,4151.794922,4161.025879,0.000000,2.000000,,,,0.000000,4.000000,4.000000,4.000000,4.000000,4.000000,,,,,,,,,,,,,,,,,,,,,,,,,
1577808011.152166,32.000000,0.000000,4217.436035,4368.717773,4229.230957,4181.538574,4180.000000,0.000000,2.000000,,,,0.000000,4.000000,4.000000,4.000000,4.000000,4.000000,,,,,,,,,,,,,,,,,,,,,,,,,
1577808011.159864,33.000000,0.000000,4224.102539,4357.948730,4231.794922,4191.794922,4194.871582,0.000000,2.000000,,,,0.000000,4.000000,4.000000,4.000000,4.000000,4.000000,,,,,,,,,,,,,,,,,,,,,,,,,
1577808011.167661,34.000000,0.000000,4216.922852,4364.102539,4217.436035,4177.436035,4188.205078,0.000000,2.000000,,,,0.000000,4.000000,4.000000,4.000000,4.000000,4.000000,,,,,,,,,,,,,,,,,,,,,,,,,
1577808011.175359,35.000000,0.000000,4221.538574,4379.487305,4226.153809,4191.794922,4188.205078,0.000000,2.000000,,,,0.000000,4.000000,4.000000,4.000000,4.000000,4.000000,25.599030,5.942060,3.487085,0.701529,0.470022,1.674826,0.777545,0.436156,0.510432,0.806421,2.514473,1.469039,0.830813,0.685093,0.571504,4.489052,2.291593,1.192277,0.751494,0.701589,6.920254,4.622466,2.811701,0.762929,0.366361
1577808011.183156,36.000000,0.000000,4234.871582,4369.230957,4214.358887,4174.358887,4207.692383,0.000000,2.000000,,,,0.000000,4.000000,4.000000,4.000000,4.000000,4.000000,,,,,,,,,,,,,,,,,,,,,,,,,
1577808011.190854,37.000000,0.000000,4235.384766,4354.871582,4210.769043,4181.538574,4206.153809,0.000000,2.000000,,,,0.000000,4.000000,4.000000,4.000000,4.000000,4.000000,,,,,,,,,,,,,,,,,,,,,,,,,
1577808011.198651,38.000000,0.000000,4226.153809,4368.205078,4203.589844,4184.102539,4187.179688,0.000000,2.000000,,,,0.000000,4.000000,4.000000,4.000000,4.000000,4.000000,,,,,,,,,,,,,,,,,,,,,,,,,
1577808011.206349,39.000000,0.000000,4216.410156,4382.563965,4189.743652,4170.769043,4184.102539,0.000000,2.000000,,,,0.000000,4.000000,4.000000,4.000000,4.000000,4.000000,,,,,,,,,,,,,,,,,,,,,,,,,
1577808011.214146,40.000000,0.000000,4214.358887,4374.871582,4201.025879,4187.179688,4187.692383,0.000000,2.000000,,,,0.000000,4.000000,4.000000,4.000000,4.000000,4.000000,,,,,,,,,,,,,,,,,,,,,,,,,
1577808011.221844,41.000000,0.000000,4225.641113,4369.230957,4189.743652,4172.307617,4189.230957,0.000000,2.000000,,,,0.000000,4.000000,4.000000,4.000000,4.000000,4.000000,,,,,,,,,,,,,,,,,,,,,,,,,
1577808011.229641,42.000000,0.000000,4229.743652,4373.846191,4188.205078,4181.025879,4192.307617,0.000000,2.000000,,,,0.000000,4.000000,4.000000,4.000000,4.000000,4.000000,,,,,,,,,,,,,,,,,,,,,,,,,
1577808011.237339,43.000000,0.000000,4216.922852,4371.794922,4187.179688,4186.666504,4189.230957,0.000000,2.000000,,,,0.000000,4.000000,4.000000,4.000000,4.000000,4.000000,,,,,,,,,,,,,,,,,,,,,,,,,
1577808011.245037,44.000000,0.000000,4209.743652,4371.794922,4171.282227,4165.641113,4178.974121,0.000000,2.000000,,,,0.000000,4.000000,4.000000,4.000000,4.000000,4.000000,,,,,,,,,,,,,,,,,,,,,,,,,
1577808011.252834,45.000000,0.000000,4226.153809,4383.077148,4187.692383,4200.512695,4191.794922,0.000000,2.000000,,,,0.000000,4.000000,4.000000,4.000000,4.000000,4.000000,,,,,,,,,,,,,,,,,,,,,,,,,
1577808011.260632,46.000000,0.000000,4240.512695,4392.307617,4178.974121,4206.666504,4214.871582,0.000000,2.000000,,,,0.000000,4.000000,4.000000,4.000000,4.000000,4.000000,,,,,,,,,,,,,,,,,,,,,,,,,
1577808011.268329,47.000000,0.000000,4226.666504,4379.487305,4161.025879,4197.948730,4201.538574,0.000000,2.000000,,,,0.000000,4.000000,4.000000,4.000000,4.000000,4.000000,,,,,,,,,,,,,,,,,,,,,,,,,
1577808011.276127,48.000000,0.000000,4206.666504,4364.615234,4157.436035,4202.563965,4180.000000,0.000000,2.000000,,,,0.000000,4.000000,4.000000,4.000000,4.000000,4.000000,,,,,,,,,,,,,,,,,,,,,,,,,
1577808011.283824,49.000000,0.000000,4198.461426,4370.769043,4146.666504,4189.230957,4179.487305,0.000000,2.000000,,,,0.000000,4.000000,4.000000,4.000000,4.000000,4.000000,,,,,,,,,,,,,,,,,,,,,,,,,
1577808011.291621,50.000000,0.000000,4197.436035,4381.025879,4161.538574,4203.589844,4177.436035,0.000000,2.000000,,,,0.000000,4.000000,4.000000,4.000000,4.000000,4.000000,,,,,,,,,,,,,,,,,,,,,,,,,
1577808011.299319,51.000000,0.000000,4193.846191,4374.358887,4158.461426,4189.743652,4167.692383,0.000000,2.000000,,,,0.000000,4.000000,4.000000,4.000000,4.000000,4.000000,20.498198,6.064925,3.517728,0.682151,0.458521,1.607349,0.736059,0.465438,0.573405,0.833614,2.915065,1.766215,0.944244,0.754891,0.612640,5.864963,2.514859,1.350514,0.836642,0.813857,6.166096,5.139361,2.933595,0.773768,0.382671
1577808011.307116,52.000000,0.000000,4186.153809,4365.641113,4161.025879,4191.794922,4168.205078,0.000000,2.000000,,,,0.000000,4.000000,4.000000,4.000000,4.000000,4.000000,,,,,,,,,,,,,,,,,,,,,,,,,
1577808011.314813,53.000000,0.000000,4182.051270,4362.563965,4181.025879,4216.922852,4172.820313,0.000000,2.000000,,,,0.000000,4.000000,4.000000,4.000000,4.000000,4.000000,,,,,,,,,,,,,,,,,,,,,,,,,
1577808011.322610,54.000000,0.000000,4180.000000,4361.538574,4164.615234,4190.256348,4163.077148,0.000000,2.000000,,,,0.000000,4.000000,4.000000,4.000000,4.000000,4.000000,,,,,,,,,,,,,,,,,,,,,,,,,
1577808011.330307,55.000000,0.000000,4180.512695,4367.179688,4175.897461,4200.512695,4160.512695,0.000000,2.000000,,,,0.000000,4.000000,4.000000,4.000000,4.000000,4.000000,,,,,,,,,,,,,,,,,,,,,,,,,
1577808011.338005,56.000000,0.000000,4194.358887,4370.256348,4192.307617,4214.358887,4178.461426,0.000000,2.000000,,,,0.000000,4.000000,4.000000,4.000000,4.000000,4.000000,,,,,,,,,,,,,,,,,,,,,,,,,
1577808011.345802,57.000000,0.000000,4204.615234,4369.743652,4182.051270,4207.692383,4178.974121,0.000000,2.000000,,,,0.000000,4.000000,4.000000,4.000000,4.000000,4.000000,,,,,,,,,,,,,,,,,,,,,,,,,
1577808011.353500,58.000000,0.000000,4194.871582,4373.333496,4177.436035,4209.230957,4156.922852,0.000000,2.000000,,,,0.000000,4.000000,4.000000,4.000000,4.000000,4.000000,,,,,,,,,,,,,,,,,,,,,,,,,
1577808011.361297,59.000000,0.000000,4177.948730,4363.589844,4162.563965,4180.000000,4155.384766,0.000000,2.000000,,,,0.000000,4.000000,4.000000,4.000000,4.000000,4.000000,,,,,,,,,,,,,,,,,,,,,,,,,
1577808011.368995,60.000000,0.000000,4170.769043,4349.743652,4170.256348,4191.794922,4158.974121,0.000000,2.000000,,,,0.000000,4.000000,4.000000,4.000000,4.000000,4.000000,,,,,,,,,,,,,,,,,,,,,,,,,
1577808011.376792,61.000000,0.000000,4177.948730,4354.358887,4170.769043,4201.025879,4147.692383,0.000000,2.000000,,,,0.000000,4.000000,4.000000,4.000000,4.000000,4.000000,,,,,,,,,,,,,,,,,,,,,,,,,
1577808011.384490,62.000000,0.000000,4177.948730,4349.230957,4165.641113,4182.563965,4145.128418,0.000000,2.000000,,,,0.000000,4.000000,4.000000,4.000000,4.000000,4.000000,,,,,,,,,,,,,,,,,,,,,,,,,
1577808011.392287,63.000000,0.000000,4172.820313,4338.974121,4187.692383,4205.128418,4150.256348,0.000000,2.000000,,,,0.000000,4.000000,4.000000,4.000000,4.000000,4.000000,,,,,,,,,,,,,,,,,,,,,,,,,
1577808011.399985,64.000000,0.000000,4181.025879,4345.128418,4175.384766,4187.179688,4146.666504,450.000000,2.000000,,,,0.000000,4.000000,4.000000,4.000000,4.000000,4.000000,,,,,,,,,,,,,,,,,,,,,,,,,
1577808011.407782,65.000000,0.000000,4187.692383,4345.641113,4180.000000,4178.974121,4143.589844,450.000000,2.000000,,,,0.000000,4.000000,4.000000,4.000000,4.000000,4.000000,,,,,,,,,,,,,,,,,,,,,,,,,
1577808011.415480,66.000000,0.000000,4191.282227,4350.769043,4194.871582,4198.974121,4157.948730,16188.000000,2.000000,,,,0.000000,4.000000,4.000000,4.000000,4.000000,4.000000,,,,,,,,,,,,,,,,,,,,,,,,,
1577808011.423277,67.000000,0.000000,4198.974121,4366.153809,4178.974121,4184.102539,4169.743652,450.000000,2.000000,,,,0.000000,4.000000,4.000000,4.000000,4.000000,4.000000,14.609814,5.625603,3.298343,0.636791,0.453640,1.515874,0.696191,0.552990,0.609445,0.871557,3.065217,1.982756,1.192178,0.828605,0.659253,6.929866,2.730987,1.489068,0.874457,0.898499,5.241803,5.170652,2.836410,0.731816,0.409544
1577808011.430974,68.000000,0.000000,4203.077148,4362.563965,4186.153809,4191.794922,4164.615234,16097.000000,2.000000,,,,0.000000,4.000000,4.000000,4.000000,4.000000,4.000000,,,,,,,,,,,,,,,,,,,,,,,,,
1577808011.438772,69.000000,0.000000,4198.461426,4355.384766,4178.461426,4176.410156,4161.538574,450.000000,2.000000,,,,0.000000,4.000000,4.000000,4.000000,4.000000,4.000000,,,,,,,,,,,,,,,,,,,,,,,,,
1577808011.446469,70.000000,0.000000,4190.769043,4362.563965,4174.871582,4174.871582,4168.205078,16099.000000,2.000000,,,,0.000000,4.000000,4.000000,4.000000,4.000000,4.000000,,,,,,,,,,,,,,,,,,,,,,,,,
1577808011.454266,71.000000,0.000000,4183.589844,4356.922852,4181.025879,4198.974121,4165.128418,450.000000,2.000000,,,,0.000000,4.000000,4.000000,4.000000,4.000000,4.000000,,,,,,,,,,,,,,,,,,,,,,,,,
1577808011.461963,72.000000,0.000000,4184.615234,4347.692383,4168.717773,4169.743652,4155.384766,450.000000,2.000000,,,,0.000000,4.000000,4.000000,4.000000,4.000000,4.000000,,,,,,,,,,,,,,,,,,,,,,,,,
1577808011.469761,73.000000,0.000000,4197.436035,4364.615234,4193.333496,4177.436035,4165.128418,16079.000000,2.000000,,,,0.000000,4.000000,4.000000,4.000000,4.000000,4.000000,,,,,,,,,,,,,,,,,,,,,,,,,
1577808011.477458,74.000000,0.000000,4210.256348,4379.487305,4206.666504,4193.846191,4184.102539,450.000000,2.000000,,,,0.000000,4.000000,4.000000,4.000000,4.000000,4.000000,,,,,,,,,,,,,,,,,,,,,,,,,
1577808011.485156,75.000000,0.000000,4209.230957,4361.025879,4198.461426,4191.282227,4184.615234,16189.000000,2.000000,,,,0.000000,4.000000,4.000000,4.000000,4.000000,4.000000,,,,,,,,,,,,,,,,,,,,,,,,,
1577808011.492954,76.000000,0.000000,4201.025879,4351.282227,4205.641113,4207.692383,4174.871582,450.000000,2.000000,,,,0.000000,4.000000,4.000000,4.000000,4.000000,4.000000,,,,,,,,,,,,,,,,,,,,,,,,,
1577808011.500651,77.000000,0.000000,4197.436035,4368.717773,4186.153809,4185.128418,4172.307617,450.000000,2.000000,,,,0.000000,4.000000,4.000000,4.000000,4.000000,4.000000,,,,,,,,,,,,,,,,,,,,,,,,,
1577808011.508449,78.000000,0.000000,4192.307617,4363.589844,4183.589844,4181.538574,4167.179688,450.000000,2.000000,,,,0.000000,4.000000,4.000000,4.000000,4.000000,4.000000,,,,,,,,,,,,,,,,,,,,,,,,,
1577808011.516147,79.000000,0.000000,4194.871582,4350.769043,4190.769043,4188.205078,4166.153809,16189.000000,2.000000,,,,0.000000,4.000000,4.000000,4.000000,4.000000,4.000000,,,,,,,,,,,,,,,,,,,,,,,,,
1577808011.523944,80.000000,0.000000,4209.230957,4367.692383,4181.538574,4184.102539,4172.307617,450.000000,2.000000,,,,0.000000,4.000000,4.000000,4.000000,4.000000,4.000000,,,,,,,,,,,,,,,,,,,,,,,,,
1577808011.531642,81.000000,0.000000,4210.769043,4368.205078,4193.333496,4201.538574,4178.974121,450.000000,2.000000,,,,0.000000,4.000000,4.000000,4.000000,4.000000,4.000000,,,,,,,,,,,,,,,,,,,,,,,,,
1577808011.539439,82.000000,0.000000,4201.025879,4335.384766,4183.589844,4165.641113,4175.384766,450.000000,2.000000,,,,0.000000,4.000000,4.000000,4.000000,4.000000,4.000000,,,,,,,,,,,,,,,,,,,,,,,,,
1577808011.547137,83.000000,0.000000,4198.461426,4338.461426,4170.256348,4155.897461,4157.436035,16189.000000,2.000000,,,,0.000000,4.000000,4.000000,4.000000,4.000000,4.000000,8.997377,4.815649,2.946327,0.574313,0.460115,1.416995,0.664607,0.658252,0.604464,0.899846,3.130171,2.083265,1.517712,0.871981,0.694847,7.295881,2.879800,1.553551,0.851927,0.929916,4.417193,4.784675,2.597013,0.648391,0.439849
1577808011.554934,84.000000,0.000000,4197.948730,4377.948730,4169.230957,4181.025879,4148.717773,450.000000,2.000000,,,,0.000000,4.000000,4.000000,4.000000,4.000000,4.000000,,,,,,,,,,,,,,,,,,,,,,,,,
1577808011.562632,85.000000,0.000000,4178.974121,4370.769043,4160.000000,4161.025879,4139.487305,450.000000,2.000000,,,,0.000000,4.000000,4.000000,4.000000,4.000000,4.000000,,,,,,,,,,,,,,,,,,,,,,,,,
1577808011.570429,86.000000,0.000000,4158.461426,4337.948730,4162.563965,4164.615234,4123.589844,450.000000,2.000000,,,,0.000000,4.000000,4.000000,4.000000,4.000000,4.000000,,,,,,,,,,,,,,,,,,,,,,,,,
1577808011.578127,87.000000,0.000000,4157.436035,4356.922852,4149.230957,4165.641113,4126.666504,16189.000000,2.000000,,,,0.000000,4.000000,4.000000,4.000000,4.000000,4.000000,,,,,,,,,,,,,,,,,,,,,,,,,
1577808011.585924,88.000000,0.000000,4158.461426,4389.743652,4156.922852,4171.794922,4141.025879,450.000000,2.000000,,,,0.000000,4.000000,4.000000,4.000000,4.000000,4.000000,,,,,,,,,,,,,,,,,,,,,,,,,
1577808011.593622,89.000000,0.000000,4156.922852,4373.333496,4173.846191,4177.948730,4138.461426,450.000000,2.000000,,,,0.000000,4.000000,4.000000,4.000000,4.000000,4.000000,,,,,,,,,,,,,,,,,,,,,,,,,
1577808011.601419,90.000000,0.000000,4154.871582,4351.282227,4146.666504,4153.333496,4127.179688,450.000000,2.000000,,,,0.000000,4.000000,4.000000,4.000000,4.000000,4.000000,,,,,,,,,,,,,,,,,,,,,,,,,
1577808011.609117,91.000000,0.000000,4145.641113,4363.589844,4142.563965,4169.743652,4124.102539,16189.000000,2.000000,,,,0.000000,4.000000,4.000000,4.000000,4.000000,4.000000,,,,,,,,,,,,,,,,,,,,,,,,,
1577808011.616915,92.000000,0.000000,4145.128418,4375.384766,4148.205078,4172.307617,4124.615234,450.000000,2.000000,,,,0.000000,4.000000,4.000000,4.000000,4.000000,4.000000,,,,,,,,,,,,,,,,,,,,,,,,,
1577808011.624612,93.000000,0.000000,4149.743652,4370.769043,4151.282227,4168.205078,4123.589844,450.000000,2.000000,,,,0.000000,4.000000,4.000000,4.000000,4.000000,4.000000,,,,,,,,,,,,,,,,,,,,,,,,,
1577808011.632310,94.000000,0.000000,4153.846191,4370.769043,4163.077148,4187.692383,4130.256348,450.000000,2.000000,,,,0.000000,4.000000,4.000000,4.000000,4.000000,4.000000,,,,,,,,,,,,,,,,,,,,,,,,,
1577808011.640107,95.000000,0.000000,4162.563965,4369.230957,4157.436035,4170.769043,4142.563965,16189.000000,2.000000,,,,0.000000,4.000000,4.000000,4.000000,4.000000,4.000000,,,,,,,,,,,,,,,,,,,,,,,,,
1577808011.647805,96.000000,0.000000,4171.282227,4369.230957,4173.333496,4185.128418,4155.897461,450.000000,2.000000,,,,0.000000,4.000000,4.000000,4.000000,4.000000,4.000000,,,,,,,,,,,,,,,,,,,,,,,,,
1577808011.655603,97.000000,0.000000,4177.436035,4374.871582,4173.846191,4188.205078,4165.128418,450.000000,2.000000,,,,0.000000,4.000000,4.000000,4.000000,4.000000,4.000000,,,,,,,,,,,,,,,,,,,,,,,,,
1577808011.663301,98.000000,0.000000,4173.846191,4368.205078,4158.974121,4165.641113,4154.871582,450.000000,2.000000,,,,0.000000,4.000000,4.000000,4.000000,4.000000,4.000000,,,,,,,,,,,,,,,,,,,,,,,,,
1577808011.671099,99.000000,0.000000,4174.871582,4363.589844,4175.384766,4182.051270,4147.692383,16189.000000,2.000000,,,,0.000000,4.000000,4.000000,4.000000,4.000000,4.000000,5.442378,3.927057,2.611013,0.515425,0.478577,1.316016,0.638159,0.739725,0.562329,0.897225,3.119179,2.049969,1.873484,0.859450,0.700528,6.717018,2.883582,1.527565,0.776490,0.897723,3.870970,4.161451,2.323551,0.549223,0.469214
1577808011.678796,100.000000,0.000000,4184.615234,4367.692383,4173.333496,4166.153809,4165.128418,450.000000,2.000000,,,,0.000000,4.000000,4.000000,4.000000,4.000000,4.000000,,,,,,,,,,,,,,,,,,,,,,,,,
1577808011.686594,101.000000,0.000000,4174.871582,4357.948730,4169.230957,4169.230957,4163.077148,450.000000,2.000000,,,,0.000000,4.000000,4.000000,4.000000,4.000000,4.000000,,,,,,,,,,,,,,,,,,,,,,,,,
1577808011.694392,102.000000,0.000000,4155.384766,4347.179688,4161.025879,4183.589844,4142.051270,450.000000,2.000000,,,,0.000000,4.000000,4.000000,4.000000,4.000000,4.000000,,,,,,,,,,,,,,,,,,,,,,,,,
1577808011.702089,103.000000,0.000000,4165.641113,4360.512695,4154.358887,4167.692383,4154.358887,16189.000000,2.000000,,,,0.000000,4.000000,4.000000,4.000000,4.000000,4.000000,,,,,,,,,,,,,,,,,,,,,,,,,
1577808011.709886,104.000000,0.000000,4188.205078,4384.102539,4183.077148,4190.256348,4178.461426,450.000000,2.000000,,,,0.000000,4.000000,4.000000,4.000000,4.000000,4.000000,,,,,,,,,,,,,,,,,,,,,,,,,
1577808011.717583,105.000000,0.000000,4188.717773,4381.025879,4170.769043,4181.025879,4166.666504,450.000000,2.000000,,,,0.000000,4.000000,4.000000,4.000000,4.000000,4.000000,,,,,,,,,,,,,,,,,,,,,,,,,
1577808011.725281,106.000000,0.000000,4176.410156,4368.717773,4151.282227,4165.641113,4151.794922,450.000000,2.000000,,,,0.000000,4.000000,4.000000,4.000000,4.000000,4.000000,,,,,,,,,,,,,,,,,,,,,,,,,
1577808011.733079,107.000000,0.000000,4169.743652,4374.871582,4158.974121,4174.358887,4153.333496,16189.000000,2.000000,,,,0.000000,4.000000,4.000000,4.000000,4.000000,4.000000,,,,,,,,,,,,,,,,,,,,,,,,,
1577808011.740776,108.000000,0.000000,4167.179688,4382.563965,4145.128418,4155.384766,4146.153809,450.000000,2.000000,,,,0.000000,4.000000,4.000000,4.000000,4.000000,4.000000,,,,,,,,,,,,,,,,,,,,,,,,,
1577808011.748574,109.000000,0.000000,4167.692383,4383.589844,4148.717773,4172.307617,4140.000000,450.000000,2.000000,,,,0.000000,4.000000,4.000000,4.000000,4.000000,4.000000,,,,,,,,,,,,,,,,,,,,,,,,,
1577808011.756271,110.000000,0.000000,4169.743652,4382.051270,4148.717773,4169.743652,4145.641113,450.000000,2.000000,,,,0.000000,4.000000,4.000000,4.000000,4.000000,4.000000,,,,,,,,,,,,,,,,,,,,,,,,,
1577808011.764069,111.000000,0.000000,4167.179688,4373.846191,4137.948730,4150.769043,4146.666504,16189.000000,2.000000,,,,0.000000,4.000000,4.000000,4.000000,4.000000,4.000000,,,,,,,,,,,,,,,,,,,,,,,,,
1577808011.771866,112.000000,0.000000,4164.102539,4367.692383,4138.974121,4157.948730,4145.641113,450.000000,2.000000,,,,0.000000,4.000000,4.000000,4.000000,4.000000,4.000000,,,,,,,,,,,,,,,,,,,,,,,,,
1577808011.779563,113.000000,0.000000,4163.077148,4372.820313,4128.205078,4135.897461,4149.743652,450.000000,2.000000,,,,0.000000,4.000000,4.000000,4.000000,4.000000,4.000000,,,,,,,,,,,,,,,,,,,,,,,,,
1577808011.787261,114.000000,0.000000,4163.077148,4375.897461,4138.461426,4146.666504,4150.769043,450.000000,2.000000,,,,0.000000,4.000000,4.000000,4.000000,4.000000,4.000000,,,,,,,,,,,,,,,,,,,,,,,,,
1577808011.794959,115.000000,0.000000,4170.256348,4377.436035,4145.641113,4146.666504,4156.922852,16189.000000,2.000000,,,,0.000000,4.000000,4.000000,4.000000,4.000000,4.000000,3.648753,3.210383,2.405972,0.488157,0.501056,1.218767,0.613956,0.776853,0.501773,0.862476,3.114466,1.901750,2.203586,0.793012,0.664458,5.412971,2.690772,1.418407,0.671516,0.813655,3.606552,3.500479,2.091009,0.467775,0.495848
1577808011.802757,116.000000,0.000000,4174.871582,4380.512695,4142.051270,4129.230957,4166.666504,450.000000,2.000000,,,,0.000000,4.000000,4.000000,4.000000,4.000000,4.000000,,,,,,,,,,,,,,,,,,,,,,,,,
1577808011.810555,117.000000,0.000000,4171.282227,4380.000000,4142.051270,4148.717773,4164.615234,450.000000,2.000000,,,,0.000000,4.000000,4.000000,4.000000,4.000000,4.000000,,,,,,,,,,,,,,,,,,,,,,,,,
1577808011.818252,118.000000,0.000000,4167.179688,4372.307617,4117.436035,4132.307617,4153.846191,450.000000,2.000000,,,,0.000000,4.000000,4.000000,4.000000,4.000000,4.000000,,,,,,,,,,,,,,,,,,,,,,,,,
1577808011.826049,119.000000,0.000000,4164.615234,4369.230957,4128.205078,4131.282227,4147.179688,16189.000000,2.000000,,,,0.000000,4.000000,4.000000,4.000000,4.000000,4.000000,,,,,,,,,,,,,,,,,,,,,,,,,
1577808011.833747,120.000000,0.000000,4172.307617,4377.948730,4146.666504,4142.051270,4156.922852,450.000000,2.000000,,,,0.000000,4.000000,4.000000,4.000000,4.000000,4.000000,,,,,,,,,,,,,,,,,,,,,,,,,
1577808011.841544,121.000000,0.000000,4181.538574,4388.205078,4133.333496,4140.000000,4171.282227,450.000000,2.000000,,,,0.000000,4.000000,4.000000,4.000000,4.000000,4.000000,,,,,,,,,,,,,,,,,,,,,,,,,
1577808011.849241,122.000000,0.000000,4183.589844,4391.794922,4141.025879,4162.051270,4173.846191,450.000000,2.000000,,,,0.000000,4.000000,4.000000,4.000000,4.000000,4.000000,,,,,,,,,,,,,,,,,,,,,,,,,
1577808011.857039,123.000000,0.000000,4187.179688,4386.153809,4142.051270,4142.563965,4172.307617,16189.000000,2.000000,,,,0.000000,4.000000,4.000000,4.000000,4.000000,4.000000,,,,,,,,,,,,,,,,,,,,,,,,,
1577808011.864736,124.000000,0.000000,4186.666504,4377.948730,4144.102539,4143.077148,4169.743652,450.000000,2.000000,,,,0.000000,4.000000,4.000000,4.000000,4.000000,4.000000,,,,,,,,,,,,,,,,,,,,,,,,,
1577808011.872533,125.000000,0.000000,4174.871582,4375.897461,4140.000000,4161.538574,4163.589844,450.000000,2.000000,,,,0.000000,4.000000,4.000000,4.000000,4.000000,4.000000,,,,,,,,,,,,,,,,,,,,,,,,,
1577808011.880230,126.000000,0.000000,4171.282227,4375.897461,4122.563965,4143.589844,4157.436035,450.000000,2.000000,,,,0.000000,4.000000,4.000000,4.000000,4.000000,4.000000,,,,,,,,,,,,,,,,,,,,,,,,,
1577808011.888028,127.000000,0.000000,4187.179688,4380.000000,4139.487305,4162.051270,4163.077148,229.000000,2.000000,,,,0.000000,4.000000,4.000000,4.000000,4.000000,4.000000,,,,,,,,,,,,,,,,,,,,,,,,,
1577808011.895725,0.000000,0.000000,4197.436035,4392.820313,4130.769043,4157.436035,4173.333496,450.000000,2.000000,,,,0.000000,4.000000,4.000000,4.000000,4.000000,4.000000,,,,,,,,,,,,,,,,,,,,,,,,,
1577808011.903423,1.000000,0.000000,4194.358887,4389.743652,4115.384766,4142.051270,4170.256348,450.000000,2.000000,,,,0.000000,4.000000,4.000000,4.000000,4.000000,4.000000,,,,,,,,,,,,,,,,,,,,,,,,,
1577808011.911221,2.000000,0.000000,4188.205078,4379.487305,4125.641113,4148.205078,4161.538574,16173.000000,2.000000,,,,0.000000,4.000000,4.000000,4.000000,4.000000,4.000000,,,,,,,,,,,,,,,,,,,,,,,,,
1577808011.918918,3.000000,0.000000,4175.384766,4386.666504,4110.769043,4124.102539,4159.487305,450.000000,2.000000,,,,0.000000,4.000000,4.000000,4.000000,4.000000,4.000000,3.296364,2.773247,2.341831,0.513170,0.514498,1.139337,0.591137,0.773926,0.447578,0.820998,3.148005,1.693793,2.448155,0.700403,0.589492,3.806570,2.325242,1.260298,0.565148,0.705745,3.695143,2.938002,1.917356,0.435574,0.519451
1577808011.926716,4.000000,0.000000,4164.102539,4383.077148,4110.256348,4133.846191,4161.025879,16116.000000,2.000000,,,,0.000000,4.000000,4.000000,4.000000,4.000000,4.000000,,,,,,,,,,,,,,,,,,,,,,,,,
1577808011.934413,5.000000,0.000000,4158.974121,4371.282227,4112.307617,4135.384766,4155.897461,450.000000,2.000000,,,,0.000000,4.000000,4.000000,4.000000,4.000000,4.000000,,,,,,,,,,,,,,,,,,,,,,,,,
1577808011.942211,6.000000,0.000000,4150.256348,4374.871582,4104.102539,4125.128418,4147.179688,16122.000000,2.000000,,,,0.000000,4.000000,4.000000,4.000000,4.000000,4.000000,,,,,,,,,,,,,,,,,,,,,,,,,
1577808011.949908,7.000000,0.000000,4152.820313,4383.589844,4106.666504,4147.179688,4150.769043,450.000000,2.000000,,,,0.000000,4.000000,4.000000,4.000000,4.000000,4.000000,,,,,,,,,,,,,,,,,,,,,,,,,
1577808011.957706,8.000000,0.000000,4163.077148,4396.922852,4101.025879,4137.436035,4157.948730,450.000000,2.000000,,,,0.000000,4.000000,4.000000,4.000000,4.000000,4.000000,,,,,,,,,,,,,,,,,,,,,,,,,
1577808011.965403,9.000000,0.000000,4162.051270,4393.846191,4112.307617,4147.692383,4152.820313,16088.000000,2.000000,,,,0.000000,4.000000,4.000000,4.000000,4.000000,4.000000,,,,,,,,,,,,,,,,,,,,,,,,,
1577808011.973201,10.000000,0.000000,4166.153809,4372.820313,4108.205078,4157.436035,4154.871582,450.000000,2.000000,,,,0.000000,4.000000,4.000000,4.000000,4.000000,4.000000,,,,,,,,,,,,,,,,,,,,,,,,,
1577808011.980898,11.000000,0.000000,4170.769043,4383.077148,4094.358887,4151.282227,4165.641113,16213.000000,2.000000,,,,0.000000,4.000000,4.000000,4.000000,4.000000,4.000000,,,,,,,,,,,,,,,,,,,,,,,,,
1577808011.988696,12.000000,0.000000,4169.230957,4411.794922,4113.846191,4175.897461,4168.717773,450.000000,2.000000,,,,0.000000,4.000000,4.000000,4.000000,4.000000,4.000000,,,,,,,,,,,,,,,,,,,,,,,,,
1577808011.996393,13.000000,0.000000,4178.461426,4396.410156,4112.820313,4166.666504,4173.333496,450.000000,2.000000,,,,0.000000,4.000000,4.000000,4.000000,4.000000,4.000000,,,,,,,,,,,,,,,,,,,,,,,,,
1577808012.004191,14.000000,0.000000,4174.871582,4365.128418,4114.871582,4161.538574,4164.615234,450.000000,2.000000,,,,0.000000,4.000000,4.000000,4.000000,4.000000,4.000000,,,,,,,,,,,,,,,,,,,,,,,,,
1577808012.011888,15.000000,0.000000,4159.487305,4365.128418,4118.461426,4157.948730,4143.589844,16213.000000,2.000000,,,,0.000000,4.000000,4.000000,4.000000,4.000000,4.000000,,,,,,,,,,,,,,,,,,,,,,,,,
1577808012.019686,16.000000,0.000000,4165.641113,4370.256348,4114.871582,4135.384766,4145.128418,0.000000,2.000000,,,,0.000000,4.000000,4.000000,4.000000,4.000000,4.000000,,,,,,,,,,,,,,,,,,,,,,,,,
1577808012.027383,17.000000,0.000000,4173.333496,4368.205078,4143.077148,4153.846191,4156.410156,0.000000,2.000000,,,,0.000000,4.000000,4.000000,4.000000,4.000000,4.000000,,,,,,,,,,,,,,,,,,,,,,,,,
1577808012.035180,18.000000,0.000000,4160.512695,4358.974121,4134.358887,4135.384766,4151.282227,0.000000,2.000000,,,,0.000000,4.000000,4.000000,4.000000,4.000000,4.000000,,,,,,,,,,,,,,,,,,,,,,,,,
1577808012.042877,19.000000,0.000000,4154.871582,4352.307617,4125.128418,4126.666504,4148.205078,0.000000,2.000000,,,,0.000000,4.000000,4.000000,4.000000,4.000000,4.000000,3.692976,2.557171,2.361500,0.594737,0.507228,1.101893,0.570467,0.749082,0.419767,0.803830,3.286862,1.451514,2.547339,0.618779,0.494381,2.485674,1.862494,1.078815,0.479389,0.604210,4.159781,2.494309,1.789662,0.468422,0.538564
1577808012.050575,20.000000,0.000000,4162.051270,4366.153809,4141.538574,4149.230957,4157.948730,0.000000,2.000000,,,,0.000000,4.000000,4.000000,4.000000,4.000000,4.000000,,,,,,,,,,,,,,,,,,,,,,,,,
1577808012.058373,21.000000,0.000000,4157.436035,4367.179688,4124.102539,4118.974121,4157.948730,0.000000,2.000000,,,,0.000000,4.000000,4.000000,4.000000,4.000000,4.000000,,,,,,,,,,,,,,,,,,,,,,,,,
1577808012.066171,22.000000,0.000000,4151.282227,4351.282227,4122.563965,4122.051270,4146.153809,0.000000,2.000000,,,,0.000000,4.000000,4.000000,4.000000,4.000000,4.000000,,,,,,,,,,,,,,,,,,,,,,,,,
1577808012.073868,23.000000,0.000000,4157.436035,4354.358887,4124.615234,4129.230957,4145.128418,0.000000,2.000000,,,,0.000000,4.000000,4.000000,4.000000,4.000000,4.000000,,,,,,,,,,,,,,,,,,,,,,,,,
1577808012.081566,24.000000,0.000000,4165.641113,4367.692383,4128.205078,4121.538574,4150.769043,0.000000,2.000000,,,,0.000000,4.000000,4.000000,4.000000,4.000000,4.000000,,,,,,,,,,,,,,,,,,,,,,,,,
1577808012.089364,25.000000,0.000000,4174.871582,4365.128418,4148.205078,4143.077148,4162.051270,0.000000,2.000000,,,,0.000000,4.000000,4.000000,4.000000,4.000000,4.000000,,,,,,,,,,,,,,,,,,,,,,,,,
1577808012.097061,26.000000,0.000000,4184.615234,4355.384766,4147.692383,4143.077148,4179.487305,0.000000,2.000000,,,,0.000000,4.000000,4.000000,4.000000,4.000000,4.000000,,,,,,,,,,,,,,,,,,,,,,,,,
1577808012.104859,27.000000,0.000000,4184.102539,4352.820313,4151.282227,4151.794922,4182.563965,0.000000,2.000000,,,,0.000000,4.000000,4.000000,4.000000,4.000000,4.000000,,,,,,,,,,,,,,,,,,,,,,,,,
1577808012.112557,28.000000,0.000000,4179.487305,4363.589844,4142.051270,4143.589844,4177.948730,0.000000,2.000000,,,,0.000000,4.000000,4.000000,4.000000,4.000000,4.000000,,,,,,,,,,,,,,,,,,,,,,,,,
1577808012.120354,29.000000,0.000000,4187.179688,4375.897461,4133.846191,4130.769043,4188.717773,0.000000,2.000000,,,,0.000000,4.000000,4.000000,4.000000,4.000000,4.000000,,,,,,,,,,,,,,,,,,,,,,,,,
1577808012.128052,30.000000,0.000000,4202.563965,4374.358887,4155.384766,4163.077148,4201.538574,0.000000,2.000000,,,,0.000000,4.000000,4.000000,4.000000,4.000000,4.000000,,,,,,,,,,,,,,,,,,,,,,,,,
1577808012.135849,31.000000,0.000000,4205.128418,4370.769043,4144.615234,4155.384766,4195.384766,0.000000,2.000000,,,,0.000000,4.000000,4.000000,4.000000,4.000000,4.000000,,,,,,,,,,,,,,,,,,,,,,,,,
1577808012.143547,32.000000,0.000000,4190.256348,4368.717773,4138.461426,4146.153809,4188.205078,0.000000,2.000000,,,,0.000000,4.000000,4.000000,4.000000,4.000000,4.000000,,,,,,,,,,,,,,,,,,,,,,,,,
1577808012.151344,33.000000,0.000000,4182.563965,4362.563965,4152.820313,4156.410156,4187.179688,0.000000,2.000000,,,,0.000000,4.000000,4.000000,4.000000,4.000000,4.000000,,,,,,,,,,,,,,,,,,,,,,,,,
1577808012.159142,34.000000,0.000000,4186.153809,4362.051270,4143.077148,4132.307617,4182.051270,0.000000,2.000000,,,,0.000000,4.000000,4.000000,4.000000,4.000000,4.000000,,,,,,,,,,,,,,,,,,,,,,,,,
1577808012.166839,35.000000,0.000000,4189.743652,4372.820313,4161.538574,4149.743652,4186.153809,0.000000,2.000000,,,,0.000000,4.000000,4.000000,4.000000,4.000000,4.000000,4.135975,2.429203,2.372565,0.720844,0.474952,1.131543,0.560043,0.726124,0.427988,0.826894,3.564791,1.191182,2.474357,0.574631,0.405841,1.787433,1.419009,0.908167,0.425668,0.526973,4.893886,2.113286,1.685652,0.560216,0.548957
1577808012.174537,36.000000,0.000000,4194.358887,4377.436035,4200.512695,4188.717773,4198.461426,0.000000,2.000000,,,,0.000000,4.000000,4.000000,4.000000,4.000000,4.000000,,,,,,,,,,,,,,,,,,,,,,,,,
1577808012.182235,37.000000,0.000000,4195.897461,4371.794922,4195.384766,4170.769043,4196.410156,0.000000,2.000000,,,,0.000000,4.000000,4.000000,4.000000,4.000000,4.000000,,,,,,,,,,,,,,,,,,,,,,,,,
1577808012.190033,38.000000,0.000000,4195.384766,4369.743652,4172.820313,4144.615234,4190.256348,0.000000,2.000000,,,,0.000000,4.000000,4.000000,4.000000,4.000000,4.000000,,,,,,,,,,,,,,,,,,,,,,,,,
1577808012.197730,39.000000,0.000000,4186.666504,4363.077148,4173.846191,4147.692383,4196.922852,0.000000,2.000000,,,,0.000000,4.000000,4.000000,4.000000,4.000000,4.000000,,,,,,,,,,,,,,,,,,,,,,,,,
1577808012.205528,40.000000,0.000000,4181.025879,4359.487305,4184.615234,4161.025879,4204.102539,0.000000,2.000000,,,,0.000000,4.000000,4.000000,4.000000,4.000000,4.000000,,,,,,,,,,,,,,,,,,,,,,,,,
1577808012.213226,41.000000,0.000000,4189.743652,4373.333496,4161.025879,4140.000000,4202.051270,0.000000,2.000000,,,,0.000000,4.000000,4.000000,4.000000,4.000000,4.000000,,,,,,,,,,,,,,,,,,,,,,,,,
1577808012.221124,42.000000,0.000000,4174.358887,4368.717773,4139.487305,4121.538574,4183.589844,0.000000,2.000000,,,,0.000000,4.000000,4.000000,4.000000,4.000000,4.000000,,,,,,,,,,,,,,,,,,,,,,,,,
1577808012.228922,43.000000,0.000000,4152.820313,4352.307617,4147.179688,4132.307617,4173.846191,0.000000,2.000000,,,,0.000000,4.000000,4.000000,4.000000,4.000000,4.000000,,,,,,,,,,,,,,,,,,,,,,,,,
1577808012.236720,44.000000,0.000000,4174.871582,4372.820313,4133.846191,4127.179688,4192.307617,0.000000,2.000000,,,,0.000000,4.000000,4.000000,4.000000,4.000000,4.000000,,,,,,,,,,,,,,,,,,,,,,,,,
1577808012.244418,45.000000,0.000000,4212.307617,4390.256348,4137.948730,4143.589844,4216.922852,0.000000,2.000000,,,,0.000000,4.000000,4.000000,4.000000,4.000000,4.000000,,,,,,,,,,,,,,,,,,,,,,,,,
1577808012.252216,46.000000,0.000000,4223.589844,4362.051270,4147.692383,4150.256348,4231.282227,0.000000,2.000000,,,,0.000000,4.000000,4.000000,4.000000,4.000000,4.000000,,,,,,,,,,,,,,,,,,,,,,,,,
1577808012.259914,47.000000,0.000000,4226.666504,4345.128418,4140.512695,4138.974121,4241.538574,0.000000,2.000000,,,,0.000000,4.000000,4.000000,4.000000,4.000000,4.000000,,,,,,,,,,,,,,,,,,,,,,,,,
1577808012.267711,48.000000,0.000000,4250.769043,4373.333496,4155.897461,4152.307617,4257.436035,0.000000,2.000000,,,,0.000000,4.000000,4.000000,4.000000,4.000000,4.000000,,,,,,,,,,,,,,,,,,,,,,,,,
1577808012.275409,49.000000,0.000000,4270.769043,4389.230957,4152.820313,4134.358887,4262.051270,0.000000,2.000000,,,,0.000000,4.000000,4.000000,4.000000,4.000000,4.000000,,,,,,,,,,,,,,,,,,,,,,,,,
1577808012.283207,50.000000,0.000000,4273.846191,4374.871582,4153.333496,4140.512695,4259.487305,0.000000,2.000000,,,,0.000000,4.000000,4.000000,4.000000,4.000000,4.000000,,,,,,,,,,,,,,,,,,,,,,,,,
1577808012.290905,51.000000,0.000000,4284.102539,4370.769043,4160.512695,4157.436035,4274.871582,0.000000,2.000000,,,,0.000000,4.000000,4.000000,4.000000,4.000000,4.000000,5.250443,2.286430,2.306679,0.859782,0.424359,1.232436,0.571464,0.722706,0.467244,0.885460,3.968110,0.932469,2.247757,0.569462,0.344834,1.790588,1.132876,0.764736,0.403082,0.472533,5.911025,1.719098,1.593848,0.680519,0.545814
1577808012.298703,52.000000,0.000000,4294.358887,4377.436035,4148.205078,4149.230957,4286.666504,0.000000,2.000000,,,,0.000000,4.000000,4.000000,4.000000,4.000000,4.000000,,,,,,,,,,,,,,,,,,,,,,,,,
1577808012.306400,53.000000,0.000000,4280.000000,4368.717773,4139.487305,4161.538574,4271.282227,0.000000,2.000000,,,,0.000000,4.000000,4.000000,4.000000,4.000000,4.000000,,,,,,,,,,,,,,,,,,,,,,,,,
1577808012.314198,54.000000,0.000000,4257.948730,4359.487305,4122.051270,4146.666504,4257.948730,0.000000,2.000000,,,,0.000000,4.000000,4.000000,4.000000,4.000000,4.000000,,,,,,,,,,,,,,,,,,,,,,,,,
1577808012.321895,55.000000,0.000000,4256.922852,4364.615234,4126.153809,4146.666504,4261.025879,0.000000,2.000000,,,,0.000000,4.000000,4.000000,4.000000,4.000000,4.000000,,,,,,,,,,,,,,,,,,,,,,,,,
1577808012.329593,56.000000,0.000000,4263.077148,4375.897461,4140.512695,4150.256348,4263.077148,0.000000,2.000000,,,,0.000000,4.000000,4.000000,4.000000,4.000000,4.000000,,,,,,,,,,,,,,,,,,,,,,,,,
1577808012.337391,57.000000,0.000000,4257.948730,4373.333496,4140.512695,4130.769043,4269.743652,0.000000,2.000000,,,,0.000000,4.000000,4.000000,4.000000,4.000000,4.000000,,,,,,,,,,,,,,,,,,,,,,,,,
1577808012.345089,58.000000,0.000000,4248.717773,4359.487305,4151.282227,4149.743652,4274.871582,0.000000,2.000000,,,,0.000000,4.000000,4.000000,4.000000,4.000000,4.000000,,,,,,,,,,,,,,,,,,,,,,,,,
1577808012.352988,59.000000,0.000000,4245.128418,4363.077148,4146.153809,4123.077148,4264.102539,0.000000,2.000000,,,,0.000000,4.000000,4.000000,4.000000,4.000000,4.000000,,,,,,,,,,,,,,,,,,,,,,,,,
1577808012.360786,60.000000,0.000000,4243.077148,4382.563965,4156.922852,4091.794922,4260.000000,0.000000,2.000000,,,,0.000000,4.000000,4.000000,4.000000,4.000000,4.000000,,,,,,,,,,,,,,,,,,,,,,,,,
1577808012.368684,61.000000,0.000000,4233.846191,4378.974121,4168.205078,4092.820557,4269.230957,0.000000,2.000000,,,,0.000000,4.000000,4.000000,4.000000,4.000000,4.000000,,,,,,,,,,,,,,,,,,,,,,,,,
1577808012.376483,62.000000,0.000000,4226.153809,4360.512695,4155.897461,4076.923096,4266.666504,0.000000,2.000000,,,,0.000000,4.000000,4.000000,4.000000,4.000000,4.000000,,,,,,,,,,,,,,,,,,,,,,,,,
1577808012.384381,63.000000,0.000000,4223.589844,4371.282227,4180.512695,4103.589844,4257.948730,0.000000,2.000000,,,,0.000000,4.000000,4.000000,4.000000,4.000000,4.000000,,,,,,,,,,,,,,,,,,,,,,,,,
1577808012.392180,64.000000,0.000000,4225.641113,4388.205078,4163.589844,4073.846191,4262.563965,450.000000,2.000000,,,,0.000000,4.000000,4.000000,4.000000,4.000000,4.000000,,,,,,,,,,,,,,,,,,,,,,,,,
1577808012.400078,65.000000,0.000000,4226.666504,4384.102539,4171.282227,4083.589844,4268.717773,450.000000,2.000000,,,,0.000000,4.000000,4.000000,4.000000,4.000000,4.000000,,,,,,,,,,,,,,,,,,,,,,,,,
1577808012.407876,66.000000,0.000000,4232.820313,4383.589844,4270.256348,4219.487305,4273.846191,16174.000000,2.000000,,,,0.000000,4.000000,4.000000,4.000000,4.000000,4.000000,,,,,,,,,,,,,,,,,,,,,,,,,
1577808012.415774,67.000000,0.000000,4235.897461,4375.384766,4133.333496,4011.794922,4280.000000,450.000000,2.000000,,,,0.000000,4.000000,4.000000,4.000000,4.000000,4.000000,6.056527,2.108879,2.114479,0.976342,0.370437,1.371661,0.601806,0.737544,0.522537,0.956733,4.412995,0.691327,1.925649,0.583517,0.319797,2.355003,1.083467,0.648844,0.403822,0.431476,6.846334,1.313883,1.514492,0.792072,0.526658
1577808012.423573,68.000000,0.000000,4218.461426,4362.563965,4188.717773,4086.153809,4261.025879,16107.000000,2.000000,,,,0.000000,4.000000,4.000000,4.000000,4.000000,4.000000,,,,,,,,,,,,,,,,,,,,,,,,,
1577808012.431471,69.000000,0.000000,4196.410156,4371.794922,4516.922852,4575.384766,4231.282227,450.000000,2.000000,,,,0.000000,4.000000,4.000000,4.000000,4.000000,4.000000,,,,,,,,,,,,,,,,,,,,,,,,,
1577808012.439269,70.000000,0.000000,4198.461426,4375.897461,4166.153809,4037.948730,4235.384766,16105.000000,2.000000,,,,0.000000,4.000000,4.000000,4.000000,4.000000,4.000000,,,,,,,,,,,,,,,,,,,,,,,,,
1577808012.447167,71.000000,0.000000,4196.922852,4364.102539,3982.564209,3740.512939,4240.512695,450.000000,2.000000,,,,0.000000,4.000000,4.000000,4.000000,4.000000,4.000000,,,,,,,,,,,,,,,,,,,,,,,,,
1577808012.455066,72.000000,0.000000,4178.461426,4376.922852,4277.948730,4222.563965,4231.282227,450.000000,2.000000,,,,0.000000,4.000000,4.000000,4.000000,4.000000,4.000000,,,,,,,,,,,,,,,,,,,,,,,,,
1577808012.462864,73.000000,0.000000,4178.974121,4389.743652,4128.717773,4029.230713,4241.538574,16075.000000,2.000000,,,,0.000000,4.000000,4.000000,4.000000,4.000000,4.000000,,,,,,,,,,,,,,,,,,,,,,,,,
1577808012.470763,74.000000,0.000000,4177.948730,4365.641113,4127.179688,4022.564209,4236.922852,450.000000,2.000000,,,,0.000000,4.000000,4.000000,4.000000,4.000000,4.000000,,,,,,,,,,,,,,,,,,,,,,,,,
1577808012.478561,75.000000,0.000000,4168.205078,4362.051270,4209.230957,4137.948730,4226.153809,16201.000000,2.000000,,,,0.000000,4.000000,4.000000,4.000000,4.000000,4.000000,,,,,,,,,,,,,,,,,,,,,,,,,
1577808012.486460,76.000000,0.000000,4170.256348,4390.256348,4097.948730,3973.333252,4239.487305,450.000000,2.000000,,,,0.000000,4.000000,4.000000,4.000000,4.000000,4.000000,,,,,,,,,,,,,,,,,,,,,,,,,
1577808012.494259,77.000000,0.000000,4174.871582,4385.641113,4187.692383,4136.922852,4246.666504,450.000000,2.000000,,,,0.000000,4.000000,4.000000,4.000000,4.000000,4.000000,,,,,,,,,,,,,,,,,,,,,,,,,
1577808012.502157,78.000000,0.000000,4186.153809,4363.589844,4226.666504,4123.589844,4243.589844,450.000000,2.000000,,,,0.000000,4.000000,4.000000,4.000000,4.000000,4.000000,,,,,,,,,,,,,,,,,,,,,,,,,
1577808012.509955,79.000000,0.000000,4192.307617,4370.769043,4234.871582,4045.128174,4245.128418,16201.000000,2.000000,,,,0.000000,4.000000,4.000000,4.000000,4.000000,4.000000,,,,,,,,,,,,,,,,,,,,,,,,,
1577808012.517854,80.000000,0.000000,4191.794922,4390.256348,4282.563965,4127.179688,4251.282227,450.000000,2.000000,,,,0.000000,4.000000,4.000000,4.000000,4.000000,4.000000,,,,,,,,,,,,,,,,,,,,,,,,,
1577808012.525652,81.000000,0.000000,4193.846191,4385.128418,4253.846191,4098.461426,4248.205078,450.000000,2.000000,,,,0.000000,4.000000,4.000000,4.000000,4.000000,4.000000,,,,,,,,,,,,,,,,,,,,,,,,,
1577808012.533551,82.000000,0.000000,4187.692383,4369.230957,4244.615234,4091.281982,4237.436035,450.000000,2.000000,,,,0.000000,4.000000,4.000000,4.000000,4.000000,4.000000,,,,,,,,,,,,,,,,,,,,,,,,,
1577808012.541349,83.000000,0.000000,4170.769043,4370.769043,4237.948730,4105.128418,4236.410156,16201.000000,2.000000,,,,0.000000,4.000000,4.000000,4.000000,4.000000,4.000000,6.830809,1.989868,1.833512,1.041430,0.328957,1.500032,0.628901,0.754955,0.580027,1.011725,4.836622,0.556628,1.636610,0.595028,0.350136,3.174995,1.243592,0.577555,0.434665,0.450025,7.362062,0.983847,1.469073,0.863923,0.493804
1577808012.549247,84.000000,0.000000,4157.436035,4376.922852,4222.563965,4107.179688,4233.333496,450.000000,2.000000,,,,0.000000,4.000000,4.000000,4.000000,4.000000,4.000000,,,,,,,,,,,,,,,,,,,,,,,,,
1577808012.557046,85.000000,0.000000,4157.436035,4374.871582,4208.717773,4104.615234,4223.589844,450.000000,2.000000,,,,0.000000,4.000000,4.000000,4.000000,4.000000,4.000000,,,,,,,,,,,,,,,,,,,,,,,,,
1577808012.564944,86.000000,0.000000,4160.000000,4373.333496,4198.974121,4098.461426,4226.666504,450.000000,2.000000,,,,0.000000,4.000000,4.000000,4.000000,4.000000,4.000000,,,,,,,,,,,,,,,,,,,,,,,,,
1577808012.572743,87.000000,0.000000,4157.436035,4377.436035,4200.000000,4117.948730,4238.974121,16201.000000,2.000000,,,,0.000000,4.000000,4.000000,4.000000,4.000000,4.000000,,,,,,,,,,,,,,,,,,,,,,,,,
1577808012.580641,88.000000,0.000000,4153.846191,4383.589844,4174.358887,4109.230957,4241.538574,450.000000,2.000000,,,,0.000000,4.000000,4.000000,4.000000,4.000000,4.000000,,,,,,,,,,,,,,,,,,,,,,,,,
1577808012.588439,89.000000,0.000000,4158.461426,4384.102539,4157.948730,4111.794922,4245.641113,450.000000,2.000000,,,,0.000000,4.000000,4.000000,4.000000,4.000000,4.000000,,,,,,,,,,,,,,,,,,,,,,,,,
1577808012.596337,90.000000,0.000000,4168.205078,4375.897461,4150.769043,4120.512695,4257.436035,450.000000,2.000000,,,,0.000000,4.000000,4.000000,4.000000,4.000000,4.000000,,,,,,,,,,,,,,,,,,,,,,,,,
1577808012.604136,91.000000,0.000000,4167.179688,4372.820313,4151.282227,4126.153809,4261.025879,16201.000000,2.000000,,,,0.000000,4.000000,4.000000,4.000000,4.000000,4.000000,,,,,,,,,,,,,,,,,,,,,,,,,
1577808012.612034,92.000000,0.000000,4165.128418,4370.256348,4156.922852,4123.077148,4254.871582,450.000000,2.000000,,,,0.000000,4.000000,4.000000,4.000000,4.000000,4.000000,,,,,,,,,,,,,,,,,,,,,,,,,
1577808012.619932,93.000000,0.000000,4165.641113,4354.358887,4146.153809,4104.615234,4248.205078,450.000000,2.000000,,,,0.000000,4.000000,4.000000,4.000000,4.000000,4.000000,,,,,,,,,,,,,,,,,,,,,,,,,
1577808012.627731,94.000000,0.000000,4151.282227,4346.153809,4143.589844,4111.794922,4238.461426,450.000000,2.000000,,,,0.000000,4.000000,4.000000,4.000000,4.000000,4.000000,,,,,,,,,,,,,,,,,,,,,,,,,
1577808012.635629,95.000000,0.000000,4140.512695,4348.717773,4143.589844,4102.051270,4229.743652,16201.000000,2.000000,,,,0.000000,4.000000,4.000000,4.000000,4.000000,4.000000,,,,,,,,,,,,,,,,,,,,,,,,,
1577808012.643428,96.000000,0.000000,4156.922852,4357.436035,4158.461426,4096.922852,4237.436035,450.000000,2.000000,,,,0.000000,4.000000,4.000000,4.000000,4.000000,4.000000,,,,,,,,,,,,,,,,,,,,,,,,,
1577808012.651327,97.000000,0.000000,4174.358887,4372.307617,4179.487305,4123.077148,4249.743652,450.000000,2.000000,,,,0.000000,4.000000,4.000000,4.000000,4.000000,4.000000,,,,,,,,,,,,,,,,,,,,,,,,,
1577808012.659125,98.000000,0.000000,4163.077148,4366.666504,4167.692383,4112.820313,4236.922852,450.000000,2.000000,,,,0.000000,4.000000,4.000000,4.000000,4.000000,4.000000,,,,,,,,,,,,,,,,,,,,,,,,,
1577808012.666924,99.000000,0.000000,4159.487305,4352.307617,4162.563965,4102.051270,4227.179688,16201.000000,2.000000,,,,0.000000,4.000000,4.000000,4.000000,4.000000,4.000000,7.864629,2.072545,1.548677,1.043511,0.311345,1.582055,0.634224,0.752309,0.630990,1.032951,5.255047,0.822907,1.636589,0.663968,0.745411,4.073215,1.720187,0.741654,0.684833,1.289226,7.508874,0.836566,1.492230,0.885479,0.455902
1577808012.674622,100.000000,0.000000,4176.410156,4365.128418,4166.666504,4117.948730,4247.179688,450.000000,2.000000,,,,0.000000,4.000000,4.000000,4.000000,4.000000,4.000000,,,,,,,,,,,,,,,,,,,,,,,,,
1577808012.682521,101.000000,0.000000,4177.948730,4382.563965,4157.948730,4135.384766,4260.512695,450.000000,2.000000,,,,0.000000,4.000000,4.000000,4.000000,4.000000,4.000000,,,,,,,,,,,,,,,,,,,,,,,,,
1577808012.690319,102.000000,0.000000,4170.256348,4381.025879,4144.615234,4140.512695,4255.897461,450.000000,2.000000,,,,0.000000,4.000000,4.000000,4.000000,4.000000,4.000000,,,,,,,,,,,,,,,,,,,,,,,,,
1577808012.698118,103.000000,0.000000,4165.641113,4370.769043,4138.974121,4131.282227,4255.897461,16201.000000,2.000000,,,,0.000000,4.000000,4.000000,4.000000,4.000000,4.000000,,,,,,,,,,,,,,,,,,,,,,,,,
1577808012.705816,104.000000,0.000000,4163.077148,4368.717773,4149.230957,4136.922852,4255.384766,450.000000,2.000000,,,,0.000000,4.000000,4.000000,4.000000,4.000000,4.000000,,,,,,,,,,,,,,,,,,,,,,,,,
1577808012.713614,105.000000,0.000000,4161.025879,4372.307617,4146.666504,4136.922852,4246.153809,450.000000,2.000000,,,,0.000000,4.000000,4.000000,4.000000,4.000000,4.000000,,,,,,,,,,,,,,,,,,,,,,,,,
1577808012.721312,106.000000,0.000000,4151.282227,4365.641113,4146.153809,4137.948730,4239.487305,450.000000,2.000000,,,,0.000000,4.000000,4.000000,4.000000,4.000000,4.000000,,,,,,,,,,,,,,,,,,,,,,,,,
1577808012.729210,107.000000,0.000000,4138.974121,4356.410156,4154.871582,4158.974121,4241.538574,16201.000000,2.000000,,,,0.000000,4.000000,4.000000,4.000000,4.000000,4.000000,,,,,,,,,,,,,,,,,,,,,,,,,
1577808012.737008,108.000000,0.000000,4136.922852,4367.692383,4142.051270,4158.974121,4234.871582,450.000000,2.000000,,,,0.000000,4.000000,4.000000,4.000000,4.000000,4.000000,,,,,,,,,,,,,,,,,,,,,,,,,
1577808012.744907,109.000000,0.000000,4136.922852,4381.025879,4135.897461,4157.436035,4225.641113,450.000000,2.000000,,,,0.000000,4.000000,4.000000,4.000000,4.000000,4.000000,,,,,,,,,,,,,,,,,,,,,,,,,
1577808012.752705,110.000000,0.000000,4119.487305,4358.974121,4132.820313,4155.897461,4219.487305,450.000000,2.000000,,,,0.000000,4.000000,4.000000,4.000000,4.000000,4.000000,,,,,,,,,,,,,,,,,,,,,,,,,
1577808012.760603,111.000000,0.000000,4107.692383,4342.563965,4121.538574,4156.922852,4212.307617,16201.000000,2.000000,,,,0.000000,4.000000,4.000000,4.000000,4.000000,4.000000,,,,,,,,,,,,,,,,,,,,,,,,,
1577808012.768502,112.000000,0.000000,4122.563965,4370.256348,4125.641113,4176.410156,4217.948730,450.000000,2.000000,,,,0.000000,4.000000,4.000000,4.000000,4.000000,4.000000,,,,,,,,,,,,,,,,,,,,,,,,,
1577808012.776301,113.000000,0.000000,4128.205078,4380.000000,4121.025879,4176.410156,4222.563965,450.000000,2.000000,,,,0.000000,4.000000,4.000000,4.000000,4.000000,4.000000,,,,,,,,,,,,,,,,,,,,,,,,,
1577808012.784100,114.000000,0.000000,4116.922852,4354.871582,4112.820313,4173.846191,4218.461426,450.000000,2.000000,,,,0.000000,4.000000,4.000000,4.000000,4.000000,4.000000,,,,,,,,,,,,,,,,,,,,,,,,,
1577808012.791998,115.000000,0.000000,4123.077148,4355.384766,4110.769043,4172.307617,4230.256348,16201.000000,2.000000,,,,0.000000,4.000000,4.000000,4.000000,4.000000,4.000000,9.454851,2.436685,1.354160,0.995397,0.321306,1.606997,0.619744,0.710521,0.671212,1.024583,5.921498,2.161072,2.237395,0.977479,2.232879,5.077311,2.972615,1.582403,1.592634,4.737883,7.393909,0.927300,1.589097,0.870984,0.425068
1577808012.799797,116.000000,0.000000,4123.077148,4372.307617,4105.128418,4152.820313,4238.461426,450.000000,2.000000,,,,0.000000,4.000000,4.000000,4.000000,4.000000,4.000000,,,,,,,,,,,,,,,,,,,,,,,,,
1577808012.807695,117.000000,0.000000,4101.538574,4361.025879,4107.179688,4147.179688,4224.102539,450.000000,2.000000,,,,0.000000,4.000000,4.000000,4.000000,4.000000,4.000000,,,,,,,,,,,,,,,,,,,,,,,,,
1577808012.815493,118.000000,0.000000,4102.051270,4352.820313,4118.461426,4140.512695,4218.974121,450.000000,2.000000,,,,0.000000,4.000000,4.000000,4.000000,4.000000,4.000000,,,,,,,,,,,,,,,,,,,,,,,,,
1577808012.823391,119.000000,0.000000,4124.615234,4375.897461,4140.000000,4139.487305,4237.436035,16201.000000,2.000000,,,,0.000000,4.000000,4.000000,4.000000,4.000000,4.000000,,,,,,,,,,,,,,,,,,,,,,,,,
1577808012.831189,120.000000,0.000000,4125.128418,4388.205078,4142.563965,4138.461426,4250.256348,450.000000,2.000000,,,,0.000000,4.000000,4.000000,4.000000,4.000000,4.000000,,,,,,,,,,,,,,,,,,,,,,,,,
1577808012.838888,121.000000,0.000000,4109.743652,4367.179688,4121.538574,4121.025879,4246.153809,450.000000,2.000000,,,,0.000000,4.000000,4.000000,4.000000,4.000000,4.000000,,,,,,,,,,,,,,,,,,,,,,,,,
1577808012.846686,122.000000,0.000000,4112.307617,4358.461426,4122.563965,4126.153809,4246.666504,450.000000,2.000000,,,,0.000000,4.000000,4.000000,4.000000,4.000000,4.000000,,,,,,,,,,,,,,,,,,,,,,,,,
1577808012.854384,123.000000,0.000000,4117.436035,4375.384766,4125.641113,4124.615234,4254.358887,16201.000000,2.000000,,,,0.000000,4.000000,4.000000,4.000000,4.000000,4.000000,,,,,,,,,,,,,,,,,,,,,,,,,
1577808012.862283,124.000000,0.000000,4109.230957,4389.230957,4122.051270,4117.436035,4253.333496,450.000000,2.000000,,,,0.000000,4.000000,4.000000,4.000000,4.000000,4.000000,,,,,,,,,,,,,,,,,,,,,,,,,
1577808012.870081,125.000000,0.000000,4112.307617,4393.333496,4126.666504,4133.333496,4255.384766,450.000000,2.000000,,,,0.000000,4.000000,4.000000,4.000000,4.000000,4.000000,,,,,,,,,,,,,,,,,,,,,,,,,
1577808012.877880,126.000000,0.000000,4114.358887,4385.128418,4117.948730,4129.230957,4262.051270,450.000000,2.000000,,,,0.000000,4.000000,4.000000,4.000000,4.000000,4.000000,,,,,,,,,,,,,,,,,,,,,,,,,
1577808012.885578,127.000000,0.000000,4105.641113,4383.589844,4108.205078,4115.384766,4262.051270,229.000000,2.000000,,,,0.000000,4.000000,4.000000,4.000000,4.000000,4.000000,,,,,,,,,,,,,,,,,,,,,,,,,
1577808012.893376,0.000000,0.000000,4110.769043,4402.563965,4108.717773,4108.717773,4266.666504,450.000000,2.000000,,,,0.000000,4.000000,4.000000,4.000000,4.000000,4.000000,,,,,,,,,,,,,,,,,,,,,,,,,
1577808012.901074,1.000000,0.000000,4120.512695,4394.871582,4115.897461,4108.717773,4271.282227,450.000000,2.000000,,,,0.000000,4.000000,4.000000,4.000000,4.000000,4.000000,,,,,,,,,,,,,,,,,,,,,,,,,
1577808012.908973,2.000000,0.000000,4109.230957,4366.666504,4114.871582,4097.436035,4261.538574,16185.000000,2.000000,,,,0.000000,4.000000,4.000000,4.000000,4.000000,4.000000,,,,,,,,,,,,,,,,,,,,,,,,,
1577808012.916771,3.000000,0.000000,4097.948730,4373.333496,4094.871826,4064.102539,4251.282227,450.000000,2.000000,,,,0.000000,4.000000,4.000000,4.000000,4.000000,4.000000,11.544311,3.028959,1.307111,0.923324,0.354343,1.581205,0.600398,0.627077,0.698880,1.006943,7.432598,5.140226,3.625394,1.721045,5.434370,6.184783,5.451542,3.443736,3.522296,12.337924,7.187466,1.254757,1.724657,0.845572,0.409620
1577808012.924669,4.000000,0.000000,4104.615234,4394.871582,4091.794922,4057.948730,4260.512695,16099.000000,2.000000,,,,0.000000,4.000000,4.000000,4.000000,4.000000,4.000000,,,,,,,,,,,,,,,,,,,,,,,,,
1577808012.932468,5.000000,0.000000,4113.333496,4395.384766,4090.256348,4058.461426,4273.846191,450.000000,2.000000,,,,0.000000,4.000000,4.000000,4.000000,4.000000,4.000000,,,,,,,,,,,,,,,,,,,,,,,,,
1577808012.940366,6.000000,0.000000,4109.743652,4385.641113,4072.820557,4042.051270,4267.692383,16102.000000,2.000000,,,,0.000000,4.000000,4.000000,4.000000,4.000000,4.000000,,,,,,,,,,,,,,,,,,,,,,,,,
1577808012.948165,7.000000,0.000000,4107.692383,4371.282227,4064.615479,4032.307617,4259.487305,450.000000,2.000000,,,,0.000000,4.000000,4.000000,4.000000,4.000000,4.000000,,,,,,,,,,,,,,,,,,,,,,,,,
1577808012.956063,8.000000,0.000000,4111.794922,4367.692383,4056.923096,4013.846191,4265.641113,450.000000,2.000000,,,,0.000000,4.000000,4.000000,4.000000,4.000000,4.000000,,,,,,,,,,,,,,,,,,,,,,,,,
1577808012.963861,9.000000,0.000000,4108.205078,4378.461426,4056.923096,4009.230713,4268.717773,16076.000000,2.000000,,,,0.000000,4.000000,4.000000,4.000000,4.000000,4.000000,,,,,,,,,,,,,,,,,,,,,,,,,
1577808012.971760,10.000000,0.000000,4103.077148,4374.358887,4057.948730,4011.281982,4262.563965,450.000000,2.000000,,,,0.000000,4.000000,4.000000,4.000000,4.000000,4.000000,,,,,,,,,,,,,,,,,,,,,,,,,
1577808012.979558,11.000000,0.000000,4101.025879,4367.692383,4043.589844,3993.846191,4258.461426,16187.000000,2.000000,,,,0.000000,4.000000,4.000000,4.000000,4.000000,4.000000,,,,,,,,,,,,,,,,,,,,,,,,,
1577808012.987456,12.000000,0.000000,4096.410156,4384.615234,4043.589844,3986.666748,4260.512695,450.000000,2.000000,,,,0.000000,4.000000,4.000000,4.000000,4.000000,4.000000,,,,,,,,,,,,,,,,,,,,,,,,,
1577808012.995255,13.000000,0.000000,4092.820557,4385.128418,4038.974365,3968.718018,4257.948730,450.000000,2.000000,,,,0.000000,4.000000,4.000000,4.000000,4.000000,4.000000,,,,,,,,,,,,,,,,,,,,,,,,,
1577808013.003153,14.000000,0.000000,4091.794922,4361.025879,4030.256348,3955.897461,4247.692383,450.000000,2.000000,,,,0.000000,4.000000,4.000000,4.000000,4.000000,4.000000,,,,,,,,,,,,,,,,,,,,,,,,,
1577808013.010951,15.000000,0.000000,4092.820557,4366.153809,4036.923096,3966.666748,4253.846191,16187.000000,2.000000,,,,0.000000,4.000000,4.000000,4.000000,4.000000,4.000000,,,,,,,,,,,,,,,,,,,,,,,,,
1577808013.018849,16.000000,0.000000,4093.333252,4389.743652,4037.435791,3973.846191,4269.743652,0.000000,2.000000,,,,0.000000,4.000000,4.000000,4.000000,4.000000,4.000000,,,,,,,,,,,,,,,,,,,,,,,,,
1577808013.026647,17.000000,0.000000,4105.128418,4389.230957,4040.000000,3987.179443,4270.769043,0.000000,2.000000,,,,0.000000,4.000000,4.000000,4.000000,4.000000,4.000000,,,,,,,,,,,,,,,,,,,,,,,,,
1577808013.034346,18.000000,0.000000,4122.563965,4384.102539,4041.025635,3992.307617,4271.282227,0.000000,2.000000,,,,0.000000,4.000000,4.000000,4.000000,4.000000,4.000000,,,,,,,,,,,,,,,,,,,,,,,,,
1577808013.042244,19.000000,0.000000,4117.948730,4393.333496,4038.461426,3998.461426,4278.974121,0.000000,2.000000,,,,0.000000,4.000000,4.000000,4.000000,4.000000,4.000000,13.597220,3.717827,1.390331,0.848320,0.398625,1.507079,0.596117,0.519576,0.715418,1.001562,10.168015,9.722351,5.653881,2.903705,10.277084,7.414087,9.168792,6.223146,6.412394,23.952797,6.994322,1.787164,1.826006,0.825095,0.409910
1577808013.050043,20.000000,0.000000,4103.077148,4394.358887,4041.538574,4007.179443,4274.871582,0.000000,2.000000,,,,0.000000,4.000000,4.000000,4.000000,4.000000,4.000000,,,,,,,,,,,,,,,,,,,,,,,,,
1577808013.057941,21.000000,0.000000,4096.410156,4374.358887,4032.820557,3995.384521,4265.128418,0.000000,2.000000,,,,0.000000,4.000000,4.000000,4.000000,4.000000,4.000000,,,,,,,,,,,,,,,,,,,,,,,,,
1577808013.065740,22.000000,0.000000,4091.281982,4360.512695,4022.564209,3997.948730,4267.179688,0.000000,2.000000,,,,0.000000,4.000000,4.000000,4.000000,4.000000,4.000000,,,,,,,,,,,,,,,,,,,,,,,,,
1577808013.073639,23.000000,0.000000,4089.743652,4368.205078,4017.948730,4001.538574,4273.333496,0.000000,2.000000,,,,0.000000,4.000000,4.000000,4.000000,4.000000,4.000000,,,,,,,,,,,,,,,,,,,,,,,,,
1577808013.081437,24.000000,0.000000,4095.384521,4380.512695,4028.205078,3994.871826,4270.769043,0.000000,2.000000,,,,0.000000,4.000000,4.000000,4.000000,4.000000,4.000000,,,,,,,,,,,,,,,,,,,,,,,,,
1577808013.089336,25.000000,0.000000,4096.922852,4388.205078,4043.589844,4000.512939,4267.179688,0.000000,2.000000,,,,0.000000,4.000000,4.000000,4.000000,4.000000,4.000000,,,,,,,,,,,,,,,,,,,,,,,,,
1577808013.097134,26.000000,0.000000,4086.666748,4392.820313,4038.974365,3997.435791,4262.563965,0.000000,2.000000,,,,0.000000,4.000000,4.000000,4.000000,4.000000,4.000000,,,,,,,,,,,,,,,,,,,,,,,,,
1577808013.105032,27.000000,0.000000,4079.487061,4390.256348,4047.692383,4001.025635,4257.436035,0.000000,2.000000,,,,0.000000,4.000000,4.000000,4.000000,4.000000,4.000000,,,,,,,,,,,,,,,,,,,,,,,,,
1577808013.112831,28.000000,0.000000,4088.718018,4387.692383,4054.871826,4010.769287,4256.922852,0.000000,2.000000,,,,0.000000,4.000000,4.000000,4.000000,4.000000,4.000000,,,,,,,,,,,,,,,,,,,,,,,,,
1577808013.120629,29.000000,0.000000,4093.846191,4384.615234,4066.666748,4012.820557,4254.358887,0.000000,2.000000,,,,0.000000,4.000000,4.000000,4.000000,4.000000,4.000000,,,,,,,,,,,,,,,,,,,,,,,,,
1577808013.128327,30.000000,0.000000,4088.718018,4372.820313,4091.281982,4022.051270,4256.410156,0.000000,2.000000,,,,0.000000,4.000000,4.000000,4.000000,4.000000,4.000000,,,,,,,,,,,,,,,,,,,,,,,,,
1577808013.136226,31.000000,0.000000,4086.666748,4374.358887,4075.897461,4015.384521,4261.538574,0.000000,2.000000,,,,0.000000,4.000000,4.000000,4.000000,4.000000,4.000000,,,,,,,,,,,,,,,,,,,,,,,,,
1577808013.144024,32.000000,0.000000,4083.589844,4387.179688,4069.230713,4014.358887,4259.487305,0.000000,2.000000,,,,0.000000,4.000000,4.000000,4.000000,4.000000,4.000000,,,,,,,,,,,,,,,,,,,,,,,,,
1577808013.151923,33.000000,0.000000,4085.641113,4386.666504,4077.435791,4031.281982,4260.000000,0.000000,2.000000,,,,0.000000,4.000000,4.000000,4.000000,4.000000,4.000000,,,,,,,,,,,,,,,,,,,,,,,,,
1577808013.159721,34.000000,0.000000,4084.615479,4377.436035,4056.923096,4038.461426,4261.025879,0.000000,2.000000,,,,0.000000,4.000000,4.000000,4.000000,4.000000,4.000000,,,,,,,,,,,,,,,,,,,,,,,,,
1577808013.167619,35.000000,0.000000,4068.205078,4373.333496,4058.461426,4034.871826,4253.333496,0.000000,2.000000,,,,0.000000,4.000000,4.000000,4.000000,4.000000,4.000000,14.963743,4.316002,1.524822,0.783843,0.440922,1.423163,0.619293,0.411579,0.725784,1.020309,13.809163,15.036114,7.801608,4.291675,15.762692,8.584929,13.436106,9.269881,9.656104,37.198711,6.711208,2.422725,1.824193,0.811450,0.420283
1577808013.175418,36.000000,0.000000,4056.410156,4378.974121,4061.025635,4023.076904,4244.102539,0.000000,2.000000,,,,0.000000,4.000000,4.000000,4.000000,4.000000,4.000000,,,,,,,,,,,,,,,,,,,,,,,,,
1577808013.183316,37.000000,0.000000,4057.948730,4384.615234,4022.051270,4034.871826,4237.948730,0.000000,2.000000,,,,0.000000,4.000000,4.000000,4.000000,4.000000,4.000000,,,,,,,,,,,,,,,,,,,,,,,,,
1577808013.191114,38.000000,0.000000,4057.948730,4388.717773,4006.153809,4047.692383,4238.974121,0.000000,2.000000,,,,0.000000,4.000000,4.000000,4.000000,4.000000,4.000000,,,,,,,,,,,,,,,,,,,,,,,,,
1577808013.198813,39.000000,0.000000,4057.948730,4392.307617,4024.615479,4040.000000,4240.512695,0.000000,2.000000,,,,0.000000,4.000000,4.000000,4.000000,4.000000,4.000000,,,,,,,,,,,,,,,,,,,,,,,,,
1577808013.206711,40.000000,0.000000,4058.461426,4386.666504,4030.256348,4057.948730,4236.922852,0.000000,2.000000,,,,0.000000,4.000000,4.000000,4.000000,4.000000,4.000000,,,,,,,,,,,,,,,,,,,,,,,,,
1577808013.214510,41.000000,0.000000,4058.974365,4378.461426,4038.461426,4067.692383,4239.487305,0.000000,2.000000,,,,0.000000,4.000000,4.000000,4.000000,4.000000,4.000000,,,,,,,,,,,,,,,,,,,,,,,,,
1577808013.222309,42.000000,0.000000,4061.025635,4384.102539,4052.307617,4061.538574,4242.563965,0.000000,2.000000,,,,0.000000,4.000000,4.000000,4.000000,4.000000,4.000000,,,,,,,,,,,,,,,,,,,,,,,,,
1577808013.230007,43.000000,0.000000,4065.128174,4390.769043,4061.538574,4071.281982,4241.025879,0.000000,2.000000,,,,0.000000,4.000000,4.000000,4.000000,4.000000,4.000000,,,,,,,,,,,,,,,,,,,,,,,,,
1577808013.237805,44.000000,0.000000,4066.666748,4384.102539,4072.307617,4076.410156,4244.615234,0.000000,2.000000,,,,0.000000,4.000000,4.000000,4.000000,4.000000,4.000000,,,,,,,,,,,,,,,,,,,,,,,,,
1577808013.245503,45.000000,0.000000,4055.384521,4384.615234,4077.435791,4083.076904,4242.051270,0.000000,2.000000,,,,0.000000,4.000000,4.000000,4.000000,4.000000,4.000000,,,,,,,,,,,,,,,,,,,,,,,,,
1577808013.253302,46.000000,0.000000,4048.205078,4391.794922,4066.153809,4082.051270,4234.358887,0.000000,2.000000,,,,0.000000,4.000000,4.000000,4.000000,4.000000,4.000000,,,,,,,,,,,,,,,,,,,,,,,,,
1577808013.261000,47.000000,0.000000,4048.718018,4372.307617,4064.615479,4076.410156,4227.692383,0.000000,2.000000,,,,0.000000,4.000000,4.000000,4.000000,4.000000,4.000000,,,,,,,,,,,,,,,,,,,,,,,,,
1577808013.268798,48.000000,0.000000,4041.538574,4358.974121,4086.666748,4088.718018,4218.974121,0.000000,2.000000,,,,0.000000,4.000000,4.000000,4.000000,4.000000,4.000000,,,,,,,,,,,,,,,,,,,,,,,,,
1577808013.276496,49.000000,0.000000,4031.794922,4375.897461,4092.820557,4097.436035,4215.384766,0.000000,2.000000,,,,0.000000,4.000000,4.000000,4.000000,4.000000,4.000000,,,,,,,,,,,,,,,,,,,,,,,,,
1577808013.284395,50.000000,0.000000,4033.333252,4378.974121,4087.692383,4105.128418,4220.000000,0.000000,2.000000,,,,0.000000,4.000000,4.000000,4.000000,4.000000,4.000000,,,,,,,,,,,,,,,,,,,,,,,,,
1577808013.292194,51.000000,0.000000,4046.153809,4369.743652,4083.589844,4104.102539,4231.794922,0.000000,2.000000,,,,0.000000,4.000000,4.000000,4.000000,4.000000,4.000000,14.879744,4.660379,1.610512,0.730150,0.471566,1.372723,0.676947,0.326633,0.738911,1.059481,17.689371,19.622131,9.365404,5.469244,20.270582,9.598672,17.049435,11.629382,12.287895,48.166481,6.305085,3.008170,1.682644,0.792191,0.432602
1577808013.300092,52.000000,0.000000,4054.871826,4373.333496,4078.974365,4090.769287,4238.461426,0.000000,2.000000,,,,0.000000,4.000000,4.000000,4.000000,4.000000,4.000000,,,,,,,,,,,,,,,,,,,,,,,,,
1577808013.307890,53.000000,0.000000,4051.794922,4373.846191,4080.512939,4088.718018,4229.230957,0.000000,2.000000,,,,0.000000,4.000000,4.000000,4.000000,4.000000,4.000000,,,,,,,,,,,,,,,,,,,,,,,,,
1577808013.315689,54.000000,0.000000,4039.487061,4364.102539,4076.923096,4082.051270,4220.000000,0.000000,2.000000,,,,0.000000,4.000000,4.000000,4.000000,4.000000,4.000000,,,,,,,,,,,,,,,,,,,,,,,,,
1577808013.323387,55.000000,0.000000,4030.256348,4357.436035,4076.923096,4078.974365,4222.051270,0.000000,2.000000,,,,0.000000,4.000000,4.000000,4.000000,4.000000,4.000000,,,,,,,,,,,,,,,,,,,,,,,,,
1577808013.331285,56.000000,0.000000,4036.923096,4364.102539,4069.743652,4071.794922,4223.077148,0.000000,2.000000,,,,0.000000,4.000000,4.000000,4.000000,4.000000,4.000000,,,,,,,,,,,,,,,,,,,,,,,,,
1577808013.339084,57.000000,0.000000,4041.538574,4371.794922,4059.487061,4076.410156,4217.948730,0.000000,2.000000,,,,0.000000,4.000000,4.000000,4.000000,4.000000,4.000000,,,,,,,,,,,,,,,,,,,,,,,,,
1577808013.346982,58.000000,0.000000,4033.846191,4365.128418,4069.743652,4106.666504,4219.487305,0.000000,2.000000,,,,0.000000,4.000000,4.000000,4.000000,4.000000,4.000000,,,,,,,,,,,,,,,,,,,,,,,,,
1577808013.354780,59.000000,0.000000,4037.435791,4358.974121,4077.435791,4112.820313,4230.769043,0.000000,2.000000,,,,0.000000,4.000000,4.000000,4.000000,4.000000,4.000000,,,,,,,,,,,,,,,,,,,,,,,,,
1577808013.362679,60.000000,0.000000,4050.769287,4373.846191,4086.666748,4114.871582,4235.384766,0.000000,2.000000,,,,0.000000,4.000000,4.000000,4.000000,4.000000,4.000000,,,,,,,,,,,,,,,,,,,,,,,,,
1577808013.370477,61.000000,0.000000,4056.410156,4387.179688,4097.948730,4117.948730,4231.282227,0.000000,2.000000,,,,0.000000,4.000000,4.000000,4.000000,4.000000,4.000000,,,,,,,,,,,,,,,,,,,,,,,,,
1577808013.378375,62.000000,0.000000,4057.948730,4370.256348,4109.743652,4117.436035,4233.846191,0.000000,2.000000,,,,0.000000,4.000000,4.000000,4.000000,4.000000,4.000000,,,,,,,,,,,,,,,,,,,,,,,,,
1577808013.386174,63.000000,0.000000,4057.435791,4353.333496,4134.358887,4128.205078,4240.000000,0.000000,2.000000,,,,0.000000,4.000000,4.000000,4.000000,4.000000,4.000000,,,,,,,,,,,,,,,,,,,,,,,,,
1577808013.393872,64.000000,0.000000,4055.897461,4376.410156,4146.666504,4121.025879,4245.641113,450.000000,2.000000,,,,0.000000,4.000000,4.000000,4.000000,4.000000,4.000000,,,,,,,,,,,,,,,,,,,,,,,,,
1577808013.401670,65.000000,0.000000,4051.794922,4393.846191,4148.717773,4130.256348,4246.153809,450.000000,2.000000,,,,0.000000,4.000000,4.000000,4.000000,4.000000,4.000000,,,,,,,,,,,,,,,,,,,,,,,,,
1577808013.409368,66.000000,0.000000,4044.102539,4371.794922,4138.974121,4133.846191,4235.384766,16187.000000,2.000000,,,,0.000000,4.000000,4.000000,4.000000,4.000000,4.000000,,,,,,,,,,,,,,,,,,,,,,,,,
1577808013.417167,67.000000,0.000000,4049.743652,4369.230957,4137.436035,4126.153809,4237.436035,450.000000,2.000000,,,,0.000000,4.000000,4.000000,4.000000,4.000000,4.000000,13.349673,4.637528,1.570405,0.683546,0.484556,1.388370,0.758552,0.286167,0.764531,1.100316,20.547825,22.102552,9.798700,6.032092,22.265997,10.360196,18.796652,12.458526,13.414030,53.122784,5.648847,3.381121,1.417416,0.751894,0.437678
1577808013.424865,68.000000,0.000000,4061.538574,4391.282227,4157.948730,4161.025879,4255.384766,16101.000000,2.000000,,,,0.000000,4.000000,4.000000,4.000000,4.000000,4.000000,,,,,,,,,,,,,,,,,,,,,,,,,
1577808013.432663,69.000000,0.000000,4064.102539,4387.692383,4153.846191,4165.128418,4266.153809,450.000000,2.000000,,,,0.000000,4.000000,4.000000,4.000000,4.000000,4.000000,,,,,,,,,,,,,,,,,,,,,,,,,
1577808013.440361,70.000000,0.000000,4070.769287,4376.410156,4165.641113,4164.615234,4272.307617,16105.000000,2.000000,,,,0.000000,4.000000,4.000000,4.000000,4.000000,4.000000,,,,,,,,,,,,,,,,,,,,,,,,,
1577808013.448160,71.000000,0.000000,4073.846191,4385.641113,4186.153809,4180.512695,4268.205078,450.000000,2.000000,,,,0.000000,4.000000,4.000000,4.000000,4.000000,4.000000,,,,,,,,,,,,,,,,,,,,,,,,,
1577808013.455858,72.000000,0.000000,4054.358887,4392.820313,4172.307617,4168.717773,4248.205078,450.000000,2.000000,,,,0.000000,4.000000,4.000000,4.000000,4.000000,4.000000,,,,,,,,,,,,,,,,,,,,,,,,,
1577808013.463756,73.000000,0.000000,4033.333252,4381.025879,4186.666504,4181.538574,4232.820313,16067.000000,2.000000,,,,0.000000,4.000000,4.000000,4.000000,4.000000,4.000000,,,,,,,,,,,,,,,,,,,,,,,,,
1577808013.471555,74.000000,0.000000,4045.128174,4374.871582,4205.641113,4184.102539,4241.538574,450.000000,2.000000,,,,0.000000,4.000000,4.000000,4.000000,4.000000,4.000000,,,,,,,,,,,,,,,,,,,,,,,,,
1577808013.479453,75.000000,0.000000,4062.564209,4393.846191,4208.717773,4181.025879,4255.897461,16180.000000,2.000000,,,,0.000000,4.000000,4.000000,4.000000,4.000000,4.000000,,,,,,,,,,,,,,,,,,,,,,,,,
1577808013.487252,76.000000,0.000000,4047.179443,4404.102539,4205.641113,4190.769043,4245.641113,450.000000,2.000000,,,,0.000000,4.000000,4.000000,4.000000,4.000000,4.000000,,,,,,,,,,,,,,,,,,,,,,,,,
1577808013.495150,77.000000,0.000000,4026.666748,4385.641113,4183.589844,4177.948730,4227.692383,450.000000,2.000000,,,,0.000000,4.000000,4.000000,4.000000,4.000000,4.000000,,,,,,,,,,,,,,,,,,,,,,,,,
1577808013.502949,78.000000,0.000000,4028.718018,4372.307617,4187.692383,4204.615234,4229.230957,450.000000,2.000000,,,,0.000000,4.000000,4.000000,4.000000,4.000000,4.000000,,,,,,,,,,,,,,,,,,,,,,,,,
1577808013.510847,79.000000,0.000000,4036.410156,4385.641113,4180.000000,4204.102539,4237.948730,16180.000000,2.000000,,,,0.000000,4.000000,4.000000,4.000000,4.000000,4.000000,,,,,,,,,,,,,,,,,,,,,,,,,
1577808013.518645,80.000000,0.000000,4026.666748,4401.538574,4160.000000,4180.512695,4228.205078,450.000000,2.000000,,,,0.000000,4.000000,4.000000,4.000000,4.000000,4.000000,,,,,,,,,,,,,,,,,,,,,,,,,
1577808013.526544,81.000000,0.000000,4010.769287,4402.051270,4167.692383,4208.717773,4218.974121,450.000000,2.000000,,,,0.000000,4.000000,4.000000,4.000000,4.000000,4.000000,,,,,,,,,,,,,,,,,,,,,,,,,
1577808013.534342,82.000000,0.000000,4013.333252,4398.974121,4128.717773,4168.205078,4230.256348,450.000000,2.000000,,,,0.000000,4.000000,4.000000,4.000000,4.000000,4.000000,,,,,,,,,,,,,,,,,,,,,,,,,
1577808013.542240,83.000000,0.000000,4011.794922,4397.436035,4150.769043,4213.333496,4228.717773,16180.000000,2.000000,,,,0.000000,4.000000,4.000000,4.000000,4.000000,4.000000,10.586247,4.260939,1.404082,0.634493,0.477948,1.456173,0.839624,0.298598,0.806715,1.120625,21.716812,21.847229,8.952511,5.777547,21.031738,10.593518,18.074038,11.493562,12.640361,50.278690,4.867013,3.444201,1.095022,0.679549,0.426808
1577808013.550039,84.000000,0.000000,4003.589844,4398.461426,4191.282227,4267.692383,4215.897461,450.000000,2.000000,,,,0.000000,4.000000,4.000000,4.000000,4.000000,4.000000,,,,,,,,,,,,,,,,,,,,,,,,,
1577808013.557937,85.000000,0.000000,4009.743652,4399.487305,4128.205078,4152.820313,4223.077148,450.000000,2.000000,,,,0.000000,4.000000,4.000000,4.000000,4.000000,4.000000,,,,,,,,,,,,,,,,,,,,,,,,,
1577808013.565736,86.000000,0.000000,4018.974365,4402.051270,4170.256348,4214.871582,4229.743652,450.000000,2.000000,,,,0.000000,4.000000,4.000000,4.000000,4.000000,4.000000,,,,,,,,,,,,,,,,,,,,,,,,,
1577808013.573634,87.000000,0.000000,4023.076904,4409.743652,4178.461426,4227.692383,4231.282227,16180.000000,2.000000,,,,0.000000,4.000000,4.000000,4.000000,4.000000,4.000000,,,,,,,,,,,,,,,,,,,,,,,,,
1577808013.581432,88.000000,0.000000,4015.384521,4403.589844,4134.871582,4147.179688,4226.153809,450.000000,2.000000,,,,0.000000,4.000000,4.000000,4.000000,4.000000,4.000000,,,,,,,,,,,,,,,,,,,,,,,,,
1577808013.589131,89.000000,0.000000,4001.538574,4393.333496,4191.282227,4237.436035,4214.358887,450.000000,2.000000,,,,0.000000,4.000000,4.000000,4.000000,4.000000,4.000000,,,,,,,,,,,,,,,,,,,,,,,,,
1577808013.596929,90.000000,0.000000,4003.076904,4403.589844,4155.384766,4206.666504,4214.358887,450.000000,2.000000,,,,0.000000,4.000000,4.000000,4.000000,4.000000,4.000000,,,,,,,,,,,,,,,,,,,,,,,,,
1577808013.604627,91.000000,0.000000,4002.564209,4397.436035,4147.692383,4201.025879,4212.307617,16180.000000,2.000000,,,,0.000000,4.000000,4.000000,4.000000,4.000000,4.000000,,,,,,,,,,,,,,,,,,,,,,,,,
1577808013.612526,92.000000,0.000000,3996.410156,4380.512695,4127.692383,4175.897461,4206.666504,450.000000,2.000000,,,,0.000000,4.000000,4.000000,4.000000,4.000000,4.000000,,,,,,,,,,,,,,,,,,,,,,,,,
1577808013.620324,93.000000,0.000000,3993.333252,4384.102539,4186.666504,4263.589844,4204.615234,450.000000,2.000000,,,,0.000000,4.000000,4.000000,4.000000,4.000000,4.000000,,,,,,,,,,,,,,,,,,,,,,,,,
1577808013.628223,94.000000,0.000000,4003.589844,4389.230957,4155.897461,4218.461426,4216.410156,450.000000,2.000000,,,,0.000000,4.000000,4.000000,4.000000,4.000000,4.000000,,,,,,,,,,,,,,,,,,,,,,,,,
1577808013.636022,95.000000,0.000000,4028.718018,4394.358887,3916.923096,3869.743652,4242.563965,16180.000000,2.000000,,,,0.000000,4.000000,4.000000,4.000000,4.000000,4.000000,,,,,,,,,,,,,,,,,,,,,,,,,
1577808013.643920,96.000000,0.000000,4021.538574,4400.512695,4213.333496,4313.846191,4229.743652,450.000000,2.000000,,,,0.000000,4.000000,4.000000,4.000000,4.000000,4.000000,,,,,,,,,,,,,,,,,,,,,,,,,
1577808013.651719,97.000000,0.000000,4008.205078,4402.563965,4321.538574,4457.436035,4207.179688,450.000000,2.000000,,,,0.000000,4.000000,4.000000,4.000000,4.000000,4.000000,,,,,,,,,,,,,,,,,,,,,,,,,
1577808013.659617,98.000000,0.000000,4026.153809,4400.000000,4048.718018,4034.871826,4221.538574,450.000000,2.000000,,,,0.000000,4.000000,4.000000,4.000000,4.000000,4.000000,,,,,,,,,,,,,,,,,,,,,,,,,
1577808013.667416,99.000000,0.000000,4035.384521,4399.487305,4203.589844,4276.410156,4237.436035,16180.000000,2.000000,,,,0.000000,4.000000,4.000000,4.000000,4.000000,4.000000,7.517842,3.635905,1.179642,0.582304,0.455243,1.536824,0.881254,0.354784,0.859399,1.111954,20.944151,19.129879,7.138569,4.801135,17.021154,10.264066,15.146677,9.156552,10.253321,40.673843,4.049558,3.188176,0.808794,0.585908,0.397213
1577808013.675215,100.000000,0.000000,4037.948730,4407.179688,4223.077148,4306.666504,4247.692383,450.000000,2.000000,,,,0.000000,4.000000,4.000000,4.000000,4.000000,4.000000,,,,,,,,,,,,,,,,,,,,,,,,,
1577808013.682913,101.000000,0.000000,4025.128174,4403.589844,4138.974121,4174.871582,4237.436035,450.000000,2.000000,,,,0.000000,4.000000,4.000000,4.000000,4.000000,4.000000,,,,,,,,,,,,,,,,,,,,,,,,,
1577808013.690711,102.000000,0.000000,4001.025635,4385.128418,4179.487305,4254.871582,4214.871582,450.000000,2.000000,,,,0.000000,4.000000,4.000000,4.000000,4.000000,4.000000,,,,,,,,,,,,,,,,,,,,,,,,,
1577808013.698409,103.000000,0.000000,4006.153809,4384.615234,4144.615234,4223.077148,4217.436035,16180.000000,2.000000,,,,0.000000,4.000000,4.000000,4.000000,4.000000,4.000000,,,,,,,,,,,,,,,,,,,,,,,,,
1577808013.706207,104.000000,0.000000,4005.641113,4404.102539,4150.769043,4247.692383,4221.538574,450.000000,2.000000,,,,0.000000,4.000000,4.000000,4.000000,4.000000,4.000000,,,,,,,,,,,,,,,,,,,,,,,,,
1577808013.713905,105.000000,0.000000,3976.923096,4400.512695,4146.153809,4243.589844,4202.563965,450.000000,2.000000,,,,0.000000,4.000000,4.000000,4.000000,4.000000,4.000000,,,,,,,,,,,,,,,,,,,,,,,,,
1577808013.721803,106.000000,0.000000,3956.923096,4388.717773,4129.230957,4212.307617,4182.563965,450.000000,2.000000,,,,0.000000,4.000000,4.000000,4.000000,4.000000,4.000000,,,,,,,,,,,,,,,,,,,,,,,,,
1577808013.729602,107.000000,0.000000,3960.000000,4400.000000,4149.743652,4237.436035,4188.717773,16180.000000,2.000000,,,,0.000000,4.000000,4.000000,4.000000,4.000000,4.000000,,,,,,,,,,,,,,,,,,,,,,,,,
1577808013.737500,108.000000,0.000000,3961.538574,4406.153809,4142.563965,4229.230957,4197.436035,450.000000,2.000000,,,,0.000000,4.000000,4.000000,4.000000,4.000000,4.000000,,,,,,,,,,,,,,,,,,,,,,,,,
1577808013.745298,109.000000,0.000000,3952.307617,4387.692383,4131.794922,4221.538574,4184.102539,450.000000,2.000000,,,,0.000000,4.000000,4.000000,4.000000,4.000000,4.000000,,,,,,,,,,,,,,,,,,,,,,,,,
1577808013.753197,110.000000,0.000000,3951.281982,4394.871582,4143.589844,4235.897461,4183.077148,450.000000,2.000000,,,,0.000000,4.000000,4.000000,4.000000,4.000000,4.000000,,,,,,,,,,,,,,,,,,,,,,,,,
1577808013.760995,111.000000,0.000000,3957.435791,4416.922852,4137.948730,4215.897461,4196.410156,16180.000000,2.000000,,,,0.000000,4.000000,4.000000,4.000000,4.000000,4.000000,,,,,,,,,,,,,,,,,,,,,,,,,
1577808013.768694,112.000000,0.000000,3963.076904,4410.256348,4149.743652,4225.128418,4196.410156,450.000000,2.000000,,,,0.000000,4.000000,4.000000,4.000000,4.000000,4.000000,,,,,,,,,,,,,,,,,,,,,,,,,
1577808013.776492,113.000000,0.000000,3977.948730,4408.717773,4156.922852,4225.128418,4204.102539,450.000000,2.000000,,,,0.000000,4.000000,4.000000,4.000000,4.000000,4.000000,,,,,,,,,,,,,,,,,,,,,,,,,
1577808013.784190,114.000000,0.000000,3981.025635,4422.051270,4149.230957,4204.615234,4211.794922,450.000000,2.000000,,,,0.000000,4.000000,4.000000,4.000000,4.000000,4.000000,,,,,,,,,,,,,,,,,,,,,,,,,
1577808013.791989,115.000000,0.000000,3955.897461,4416.922852,4141.025879,4208.717773,4192.820313,16180.000000,2.000000,,,,0.000000,4.000000,4.000000,4.000000,4.000000,4.000000,4.867064,2.943626,0.994707,0.533580,0.426335,1.556499,0.857485,0.427452,0.906051,1.078839,18.832376,15.177052,5.006584,3.450022,11.675127,9.418610,11.080091,6.388798,7.082782,27.747206,3.442054,2.699868,0.638638,0.497864,0.356170
1577808013.799687,116.000000,0.000000,3930.769287,4398.974121,4112.820313,4186.153809,4170.256348,450.000000,2.000000,,,,0.000000,4.000000,4.000000,4.000000,4.000000,4.000000,,,,,,,,,,,,,,,,,,,,,,,,,
1577808013.807485,117.000000,0.000000,3928.718018,4395.897461,4118.461426,4187.692383,4165.128418,450.000000,2.000000,,,,0.000000,4.000000,4.000000,4.000000,4.000000,4.000000,,,,,,,,,,,,,,,,,,,,,,,,,
1577808013.815183,118.000000,0.000000,3935.384521,4404.102539,4127.692383,4183.589844,4166.666504,450.000000,2.000000,,,,0.000000,4.000000,4.000000,4.000000,4.000000,4.000000,,,,,,,,,,,,,,,,,,,,,,,,,
1577808013.822982,119.000000,0.000000,3928.718018,4404.102539,4124.615234,4160.512695,4166.666504,16180.000000,2.000000,,,,0.000000,4.000000,4.000000,4.000000,4.000000,4.000000,,,,,,,,,,,,,,,,,,,,,,,,,
1577808013.830680,120.000000,0.000000,3923.076904,4404.615234,4143.589844,4180.512695,4166.666504,450.000000,2.000000,,,,0.000000,4.000000,4.000000,4.000000,4.000000,4.000000,,,,,,,,,,,,,,,,,,,,,,,,,
1577808013.838478,121.000000,0.000000,3930.256348,4401.538574,4141.025879,4172.307617,4166.666504,450.000000,2.000000,,,,0.000000,4.000000,4.000000,4.000000,4.000000,4.000000,,,,,,,,,,,,,,,,,,,,,,,,,
1577808013.846176,122.000000,0.000000,3937.435791,4402.563965,4144.615234,4175.897461,4169.230957,450.000000,2.000000,,,,0.000000,4.000000,4.000000,4.000000,4.000000,4.000000,,,,,,,,,,,,,,,,,,,,,,,,,
1577808013.853975,123.000000,0.000000,3940.000000,4411.794922,4148.205078,4189.230957,4175.384766,16180.000000,2.000000,,,,0.000000,4.000000,4.000000,4.000000,4.000000,4.000000,,,,,,,,,,,,,,,,,,,,,,,,,
1577808013.861673,124.000000,0.000000,3937.435791,4414.358887,4137.948730,4163.077148,4172.820313,450.000000,2.000000,,,,0.000000,4.000000,4.000000,4.000000,4.000000,4.000000,,,,,,,,,,,,,,,,,,,,,,,,,
1577808013.869471,125.000000,0.000000,3927.692383,4414.871582,4146.666504,4168.205078,4161.538574,450.000000,2.000000,,,,0.000000,4.000000,4.000000,4.000000,4.000000,4.000000,,,,,,,,,,,,,,,,,,,,,,,,,
1577808013.877169,126.000000,0.000000,3927.179443,4421.025879,4146.153809,4168.717773,4160.512695,450.000000,2.000000,,,,0.000000,4.000000,4.000000,4.000000,4.000000,4.000000,,,,,,,,,,,,,,,,,,,,,,,,,
1577808013.885068,127.000000,0.000000,3928.205078,4425.128418,4155.897461,4172.820313,4162.563965,229.000000,2.000000,,,,0.000000,4.000000,4.000000,4.000000,4.000000,4.000000,,,,,,,,,,,,,,,,,,,,,,,,,
1577808013.892866,0.000000,0.000000,3928.718018,4430.769043,4160.512695,4181.538574,4172.307617,450.000000,2.000000,,,,0.000000,4.000000,4.000000,4.000000,4.000000,4.000000,,,,,,,,,,,,,,,,,,,,,,,,,
1577808013.900764,1.000000,0.000000,3946.666748,4432.820313,4162.051270,4169.230957,4193.333496,450.000000,2.000000,,,,0.000000,4.000000,4.000000,4.000000,4.000000,4.000000,,,,,,,,,,,,,,,,,,,,,,,,,
1577808013.908563,2.000000,0.000000,3974.358887,4435.897461,4196.410156,4206.153809,4207.692383,16198.000000,2.000000,,,,0.000000,4.000000,4.000000,4.000000,4.000000,4.000000,,,,,,,,,,,,,,,,,,,,,,,,,
1577808013.916461,3.000000,0.000000,3980.000000,4447.179688,4187.179688,4212.820313,4213.846191,450.000000,2.000000,,,,0.000000,4.000000,4.000000,4.000000,4.000000,4.000000,3.331466,2.383017,0.940676,0.495236,0.405626,1.476230,0.778524,0.486715,0.925876,1.029111,16.438053,11.507559,3.206431,2.205905,6.988374,8.286579,7.141098,4.121305,4.234633,16.283262,3.155169,2.146616,0.627292,0.444877,0.321712
1577808013.924259,4.000000,0.000000,3960.512939,4434.358887,4160.000000,4191.794922,4207.179688,16105.000000,2.000000,,,,0.000000,4.000000,4.000000,4.000000,4.000000,4.000000,,,,,,,,,,,,,,,,,,,,,,,,,
1577808013.932158,5.000000,0.000000,3942.564209,4396.922852,4150.256348,4195.384766,4191.282227,450.000000,2.000000,,,,0.000000,4.000000,4.000000,4.000000,4.000000,4.000000,,,,,,,,,,,,,,,,,,,,,,,,,
1577808013.939956,6.000000,0.000000,3932.307617,4387.692383,4115.897461,4163.077148,4180.512695,16112.000000,2.000000,,,,0.000000,4.000000,4.000000,4.000000,4.000000,4.000000,,,,,,,,,,,,,,,,,,,,,,,,,
1577808013.947855,7.000000,0.000000,3931.281982,4406.666504,4114.871582,4168.205078,4180.512695,450.000000,2.000000,,,,0.000000,4.000000,4.000000,4.000000,4.000000,4.000000,,,,,,,,,,,,,,,,,,,,,,,,,
1577808013.955653,8.000000,0.000000,3936.923096,4410.769043,4116.922852,4170.769043,4178.974121,450.000000,2.000000,,,,0.000000,4.000000,4.000000,4.000000,4.000000,4.000000,,,,,,,,,,,,,,,,,,,,,,,,,
1577808013.963551,9.000000,0.000000,3932.307617,4398.974121,4105.128418,4143.589844,4175.384766,16070.000000,2.000000,,,,0.000000,4.000000,4.000000,4.000000,4.000000,4.000000,,,,,,,,,,,,,,,,,,,,,,,,,
1577808013.971350,10.000000,0.000000,3928.718018,4398.974121,4116.410156,4159.487305,4185.641113,450.000000,2.000000,,,,0.000000,4.000000,4.000000,4.000000,4.000000,4.000000,,,,,,,,,,,,,,,,,,,,,,,,,
1577808013.979048,11.000000,0.000000,3936.410156,4407.692383,4101.025879,4151.794922,4198.974121,16176.000000,2.000000,,,,0.000000,4.000000,4.000000,4.000000,4.000000,4.000000,,,,,,,,,,,,,,,,,,,,,,,,,
1577808013.986846,12.000000,0.000000,3932.820557,4398.974121,4097.948730,4151.794922,4196.410156,450.000000,2.000000,,,,0.000000,4.000000,4.000000,4.000000,4.000000,4.000000,,,,,,,,,,,,,,,,,,,,,,,,,
1577808013.994545,13.000000,0.000000,3921.538574,4393.333496,4114.871582,4157.436035,4187.179688,450.000000,2.000000,,,,0.000000,4.000000,4.000000,4.000000,4.000000,4.000000,,,,,,,,,,,,,,,,,,,,,,,,,
1577808014.002343,14.000000,0.000000,3924.102539,4410.769043,4116.922852,4144.615234,4187.179688,450.000000,2.000000,,,,0.000000,4.000000,4.000000,4.000000,4.000000,4.000000,,,,,,,,,,,,,,,,,,,,,,,,,
1577808014.010042,15.000000,0.000000,3916.410156,4403.077148,4118.974121,4160.512695,4180.000000,16176.000000,2.000000,,,,0.000000,4.000000,4.000000,4.000000,4.000000,4.000000,,,,,,,,,,,,,,,,,,,,,,,,,
1577808014.017840,16.000000,0.000000,3903.076904,4381.025879,4097.948730,4143.589844,4169.230957,0.000000,2.000000,,,,0.000000,4.000000,4.000000,4.000000,4.000000,4.000000,,,,,,,,,,,,,,,,,,,,,,,,,
1577808014.025538,17.000000,0.000000,3912.820557,4398.461426,4106.666504,4141.538574,4176.410156,0.000000,2.000000,,,,0.000000,4.000000,4.000000,4.000000,4.000000,4.000000,,,,,,,,,,,,,,,,,,,,,,,,,
1577808014.033437,18.000000,0.000000,3928.205078,4415.384766,4124.615234,4158.974121,4185.128418,0.000000,2.000000,,,,0.000000,4.000000,4.000000,4.000000,4.000000,4.000000,,,,,,,,,,,,,,,,,,,,,,,,,
1577808014.041235,19.000000,0.000000,3918.461426,4401.538574,4106.666504,4135.384766,4178.974121,0.000000,2.000000,,,,0.000000,4.000000,4.000000,4.000000,4.000000,4.000000,2.964614,2.098396,1.034144,0.472067,0.406154,1.293478,0.687062,0.509650,0.903055,0.971870,14.719818,9.278766,2.108616,1.475893,4.659465,7.325573,4.334081,2.899557,2.606717,10.371809,3.116983,1.715433,0.747034,0.443713,0.313861
1577808014.049034,20.000000,0.000000,3903.589844,4405.641113,4122.563965,4150.769043,4181.538574,0.000000,2.000000,,,,0.000000,4.000000,4.000000,4.000000,4.000000,4.000000,,,,,,,,,,,,,,,,,,,,,,,,,
1577808014.056732,21.000000,0.000000,3916.410156,4421.025879,4120.512695,4164.615234,4203.077148,0.000000,2.000000,,,,0.000000,4.000000,4.000000,4.000000,4.000000,4.000000,,,,,,,,,,,,,,,,,,,,,,,,,
1577808014.064631,22.000000,0.000000,3935.384521,4404.102539,4098.974121,4170.256348,4216.922852,0.000000,2.000000,,,,0.000000,4.000000,4.000000,4.000000,4.000000,4.000000,,,,,,,,,,,,,,,,,,,,,,,,,
1577808014.072429,23.000000,0.000000,3936.923096,4392.307617,4109.230957,4186.153809,4218.974121,0.000000,2.000000,,,,0.000000,4.000000,4.000000,4.000000,4.000000,4.000000,,,,,,,,,,,,,,,,,,,,,,,,,
1577808014.080328,24.000000,0.000000,3930.769287,4405.128418,4105.128418,4171.282227,4221.025879,0.000000,2.000000,,,,0.000000,4.000000,4.000000,4.000000,4.000000,4.000000,,,,,,,,,,,,,,,,,,,,,,,,,
1577808014.088126,25.000000,0.000000,3931.794922,4404.615234,4110.769043,4191.794922,4222.563965,0.000000,2.000000,,,,0.000000,4.000000,4.000000,4.000000,4.000000,4.000000,,,,,,,,,,,,,,,,,,,,,,,,,
1577808014.096025,26.000000,0.000000,3931.281982,4385.128418,4112.820313,4194.358887,4222.051270,0.000000,2.000000,,,,0.000000,4.000000,4.000000,4.000000,4.000000,4.000000,,,,,,,,,,,,,,,,,,,,,,,,,
1577808014.103823,27.000000,0.000000,3921.025635,4380.512695,4110.769043,4180.512695,4216.922852,0.000000,2.000000,,,,0.000000,4.000000,4.000000,4.000000,4.000000,4.000000,,,,,,,,,,,,,,,,,,,,,,,,,
1577808014.111721,28.000000,0.000000,3915.897461,4395.897461,4130.769043,4203.589844,4216.922852,0.000000,2.000000,,,,0.000000,4.000000,4.000000,4.000000,4.000000,4.000000,,,,,,,,,,,,,,,,,,,,,,,,,
1577808014.119520,29.000000,0.000000,3907.179443,4401.025879,4117.436035,4187.179688,4215.384766,0.000000,2.000000,,,,0.000000,4.000000,4.000000,4.000000,4.000000,4.000000,,,,,,,,,,,,,,,,,,,,,,,,,
1577808014.127418,30.000000,0.000000,3886.666748,4389.743652,4108.717773,4186.666504,4204.102539,0.000000,2.000000,,,,0.000000,4.000000,4.000000,4.000000,4.000000,4.000000,,,,,,,,,,,,,,,,,,,,,,,,,
1577808014.135217,31.000000,0.000000,3876.923096,4372.820313,4106.666504,4193.846191,4194.358887,0.000000,2.000000,,,,0.000000,4.000000,4.000000,4.000000,4.000000,4.000000,,,,,,,,,,,,,,,,,,,,,,,,,
1577808014.143115,32.000000,0.000000,3876.923096,4368.717773,4092.820557,4178.974121,4186.666504,0.000000,2.000000,,,,0.000000,4.000000,4.000000,4.000000,4.000000,4.000000,,,,,,,,,,,,,,,,,,,,,,,,,
1577808014.150913,33.000000,0.000000,3876.410156,4389.743652,4105.641113,4199.487305,4185.128418,0.000000,2.000000,,,,0.000000,4.000000,4.000000,4.000000,4.000000,4.000000,,,,,,,,,,,,,,,,,,,,,,,,,
1577808014.158612,34.000000,0.000000,3880.512939,4400.512695,4105.128418,4200.000000,4192.307617,0.000000,2.000000,,,,0.000000,4.000000,4.000000,4.000000,4.000000,4.000000,,,,,,,,,,,,,,,,,,,,,,,,,
1577808014.166410,35.000000,0.000000,3876.410156,4385.641113,4106.666504,4204.615234,4191.794922,0.000000,2.000000,,,,0.000000,4.000000,4.000000,4.000000,4.000000,4.000000,3.514873,2.142850,1.251571,0.467235,0.434915,1.092025,0.654752,0.504457,0.838715,0.917501,14.139628,8.788592,1.762880,1.400010,5.257721,6.992314,3.003062,2.714385,2.469127,11.417283,3.290156,1.543974,0.962312,0.489170,0.343828
1577808014.174109,36.000000,0.000000,3876.410156,4391.282227,4115.897461,4213.846191,4192.307617,0.000000,2.000000,,,,0.000000,4.000000,4.000000,4.000000,4.000000,4.000000,,,,,,,,,,,,,,,,,,,,,,,,,
1577808014.181907,37.000000,0.000000,3880.512939,4405.128418,4115.897461,4201.025879,4198.461426,0.000000,2.000000,,,,0.000000,4.000000,4.000000,4.000000,4.000000,4.000000,,,,,,,,,,,,,,,,,,,,,,,,,
1577808014.189606,38.000000,0.000000,3870.256348,4390.256348,4137.948730,4220.000000,4201.538574,0.000000,2.000000,,,,0.000000,4.000000,4.000000,4.000000,4.000000,4.000000,,,,,,,,,,,,,,,,,,,,,,,,,
1577808014.197504,39.000000,0.000000,3870.256348,4380.512695,4138.461426,4211.794922,4208.717773,0.000000,2.000000,,,,0.000000,4.000000,4.000000,4.000000,4.000000,4.000000,,,,,,,,,,,,,,,,,,,,,,,,,
1577808014.205303,40.000000,0.000000,3885.128174,4398.461426,4133.846191,4213.333496,4213.846191,0.000000,2.000000,,,,0.000000,4.000000,4.000000,4.000000,4.000000,4.000000,,,,,,,,,,,,,,,,,,,,,,,,,
1577808014.213201,41.000000,0.000000,3880.512939,4405.128418,4132.307617,4232.820313,4206.153809,0.000000,2.000000,,,,0.000000,4.000000,4.000000,4.000000,4.000000,4.000000,,,,,,,,,,,,,,,,,,,,,,,,,
1577808014.221000,42.000000,0.000000,3861.025635,4384.615234,4105.641113,4201.025879,4192.307617,0.000000,2.000000,,,,0.000000,4.000000,4.000000,4.000000,4.000000,4.000000,,,,,,,,,,,,,,,,,,,,,,,,,
1577808014.228799,43.000000,0.000000,3853.846191,4377.948730,4107.692383,4201.025879,4183.077148,0.000000,2.000000,,,,0.000000,4.000000,4.000000,4.000000,4.000000,4.000000,,,,,,,,,,,,,,,,,,,,,,,,,
1577808014.236497,44.000000,0.000000,3856.410156,4400.512695,4098.461426,4195.897461,4178.974121,0.000000,2.000000,,,,0.000000,4.000000,4.000000,4.000000,4.000000,4.000000,,,,,,,,,,,,,,,,,,,,,,,,,
1577808014.244295,45.000000,0.000000,3858.461426,4406.153809,4080.512939,4178.461426,4179.487305,0.000000,2.000000,,,,0.000000,4.000000,4.000000,4.000000,4.000000,4.000000,,,,,,,,,,,,,,,,,,,,,,,,,
1577808014.251993,46.000000,0.000000,3858.974365,4384.615234,4088.718018,4194.358887,4182.051270,0.000000,2.000000,,,,0.000000,4.000000,4.000000,4.000000,4.000000,4.000000,,,,,,,,,,,,,,,,,,,,,,,,,
1577808014.259792,47.000000,0.000000,3856.923096,4378.461426,4081.538574,4181.538574,4182.563965,0.000000,2.000000,,,,0.000000,4.000000,4.000000,4.000000,4.000000,4.000000,,,,,,,,,,,,,,,,,,,,,,,,,
1577808014.267490,48.000000,0.000000,3860.000000,4389.230957,4096.922852,4185.128418,4184.615234,0.000000,2.000000,,,,0.000000,4.000000,4.000000,4.000000,4.000000,4.000000,,,,,,,,,,,,,,,,,,,,,,,,,
1577808014.275388,49.000000,0.000000,3866.666748,4396.922852,4112.307617,4184.615234,4189.743652,0.000000,2.000000,,,,0.000000,4.000000,4.000000,4.000000,4.000000,4.000000,,,,,,,,,,,,,,,,,,,,,,,,,
1577808014.283186,50.000000,0.000000,3867.179443,4388.205078,4112.307617,4170.256348,4191.282227,0.000000,2.000000,,,,0.000000,4.000000,4.000000,4.000000,4.000000,4.000000,,,,,,,,,,,,,,,,,,,,,,,,,
1577808014.291085,51.000000,0.000000,3867.179443,4382.051270,4124.102539,4188.205078,4190.769043,0.000000,2.000000,,,,0.000000,4.000000,4.000000,4.000000,4.000000,4.000000,4.727485,2.454350,1.560650,0.487722,0.489070,0.982082,0.732204,0.506797,0.751978,0.874478,14.456639,9.480003,1.957812,1.811431,8.012063,7.512386,2.801544,3.140249,3.403481,17.635075,3.604266,1.657647,1.271130,0.558613,0.406572
1577808014.298883,52.000000,0.000000,3865.128174,4394.871582,4104.615234,4161.025879,4191.794922,0.000000,2.000000,,,,0.000000,4.000000,4.000000,4.000000,4.000000,4.000000,,,,,,,,,,,,,,,,,,,,,,,,,
1577808014.306782,53.000000,0.000000,3858.461426,4404.102539,4097.948730,4155.897461,4191.794922,0.000000,2.000000,,,,0.000000,4.000000,4.000000,4.000000,4.000000,4.000000,,,,,,,,,,,,,,,,,,,,,,,,,
1577808014.314580,54.000000,0.000000,3861.538574,4401.025879,4098.461426,4176.922852,4197.436035,0.000000,2.000000,,,,0.000000,4.000000,4.000000,4.000000,4.000000,4.000000,,,,,,,,,,,,,,,,,,,,,,,,,
1577808014.322478,55.000000,0.000000,3873.846191,4394.358887,4078.974365,4154.871582,4207.179688,0.000000,2.000000,,,,0.000000,4.000000,4.000000,4.000000,4.000000,4.000000,,,,,,,,,,,,,,,,,,,,,,,,,
1577808014.330277,56.000000,0.000000,3876.923096,4394.871582,4083.076904,4156.410156,4205.128418,0.000000,2.000000,,,,0.000000,4.000000,4.000000,4.000000,4.000000,4.000000,,,,,,,,,,,,,,,,,,,,,,,,,
1577808014.338175,57.000000,0.000000,3873.846191,4391.794922,4064.102539,4152.307617,4204.102539,0.000000,2.000000,,,,0.000000,4.000000,4.000000,4.000000,4.000000,4.000000,,,,,,,,,,,,,,,,,,,,,,,,,
1577808014.345974,58.000000,0.000000,3876.410156,4389.230957,4049.230713,4158.974121,4218.461426,0.000000,2.000000,,,,0.000000,4.000000,4.000000,4.000000,4.000000,4.000000,,,,,,,,,,,,,,,,,,,,,,,,,
1577808014.353672,59.000000,0.000000,3887.179443,4403.589844,4064.102539,4176.922852,4235.384766,0.000000,2.000000,,,,0.000000,4.000000,4.000000,4.000000,4.000000,4.000000,,,,,,,,,,,,,,,,,,,,,,,,,
1577808014.361471,60.000000,0.000000,3887.179443,4404.615234,4051.794922,4153.846191,4229.743652,0.000000,2.000000,,,,0.000000,4.000000,4.000000,4.000000,4.000000,4.000000,,,,,,,,,,,,,,,,,,,,,,,,,
1577808014.369169,61.000000,0.000000,3871.794922,4390.769043,4052.820557,4158.461426,4214.358887,0.000000,2.000000,,,,0.000000,4.000000,4.000000,4.000000,4.000000,4.000000,,,,,,,,,,,,,,,,,,,,,,,,,
1577808014.376967,62.000000,0.000000,3867.692383,4385.641113,4055.384521,4151.794922,4216.922852,0.000000,2.000000,,,,0.000000,4.000000,4.000000,4.000000,4.000000,4.000000,,,,,,,,,,,,,,,,,,,,,,,,,
1577808014.384665,63.000000,0.000000,3868.718018,4384.615234,4052.820557,4141.538574,4215.897461,0.000000,2.000000,,,,0.000000,4.000000,4.000000,4.000000,4.000000,4.000000,,,,,,,,,,,,,,,,,,,,,,,,,
1577808014.392463,64.000000,0.000000,3865.641113,4385.641113,4057.435791,4161.538574,4209.743652,450.000000,2.000000,,,,0.000000,4.000000,4.000000,4.000000,4.000000,4.000000,,,,,,,,,,,,,,,,,,,,,,,,,
1577808014.400162,65.000000,0.000000,3864.615479,4400.512695,4042.051270,4146.153809,4216.922852,450.000000,2.000000,,,,0.000000,4.000000,4.000000,4.000000,4.000000,4.000000,,,,,,,,,,,,,,,,,,,,,,,,,
1577808014.407960,66.000000,0.000000,3863.076904,4410.256348,4046.153809,4158.974121,4222.563965,16199.000000,2.000000,,,,0.000000,4.000000,4.000000,4.000000,4.000000,4.000000,,,,,,,,,,,,,,,,,,,,,,,,,
1577808014.415658,67.000000,0.000000,3861.538574,4404.102539,4036.410156,4165.641113,4218.461426,450.000000,2.000000,,,,0.000000,4.000000,4.000000,4.000000,4.000000,4.000000,6.062480,2.905260,1.932338,0.540491,0.554276,1.082912,0.913249,0.552663,0.672578,0.850884,15.003261,10.457049,2.395675,2.370198,11.317332,8.853507,3.122396,3.687127,4.628641,25.256250,4.181689,1.988550,1.677056,0.625937,0.480178
1577808014.423456,68.000000,0.000000,3862.564209,4402.051270,4025.128174,4147.179688,4217.436035,16112.000000,2.000000,,,,0.000000,4.000000,4.000000,4.000000,4.000000,4.000000,,,,,,,,,,,,,,,,,,,,,,,,,
1577808014.431155,69.000000,0.000000,3864.615479,4403.077148,4037.435791,4157.948730,4223.589844,450.000000,2.000000,,,,0.000000,4.000000,4.000000,4.000000,4.000000,4.000000,,,,,,,,,,,,,,,,,,,,,,,,,
1577808014.438953,70.000000,0.000000,3858.974365,4396.410156,4013.846191,4134.358887,4225.128418,16113.000000,2.000000,,,,0.000000,4.000000,4.000000,4.000000,4.000000,4.000000,,,,,,,,,,,,,,,,,,,,,,,,,
1577808014.446651,71.000000,0.000000,3852.307617,4388.717773,4025.128174,4135.384766,4221.538574,450.000000,2.000000,,,,0.000000,4.000000,4.000000,4.000000,4.000000,4.000000,,,,,,,,,,,,,,,,,,,,,,,,,
1577808014.454550,72.000000,0.000000,3860.512939,4397.948730,4048.718018,4147.692383,4223.589844,450.000000,2.000000,,,,0.000000,4.000000,4.000000,4.000000,4.000000,4.000000,,,,,,,,,,,,,,,,,,,,,,,,,
1577808014.462349,73.000000,0.000000,3875.384521,4419.487305,4040.000000,4131.794922,4228.717773,16067.000000,2.000000,,,,0.000000,4.000000,4.000000,4.000000,4.000000,4.000000,,,,,,,,,,,,,,,,,,,,,,,,,
1577808014.470247,74.000000,0.000000,3875.384521,4423.077148,4056.923096,4146.666504,4221.025879,450.000000,2.000000,,,,0.000000,4.000000,4.000000,4.000000,4.000000,4.000000,,,,,,,,,,,,,,,,,,,,,,,,,
1577808014.478045,75.000000,0.000000,3861.538574,4407.692383,4054.358887,4141.538574,4205.641113,16183.000000,2.000000,,,,0.000000,4.000000,4.000000,4.000000,4.000000,4.000000,,,,,,,,,,,,,,,,,,,,,,,,,
1577808014.485944,76.000000,0.000000,3849.743652,4398.974121,4056.410156,4154.871582,4198.461426,450.000000,2.000000,,,,0.000000,4.000000,4.000000,4.000000,4.000000,4.000000,,,,,,,,,,,,,,,,,,,,,,,,,
1577808014.493742,77.000000,0.000000,3844.102539,4411.282227,4075.384521,4172.307617,4200.512695,450.000000,2.000000,,,,0.000000,4.000000,4.000000,4.000000,4.000000,4.000000,,,,,,,,,,,,,,,,,,,,,,,,,
1577808014.501640,78.000000,0.000000,3840.000000,4421.538574,4068.718018,4147.179688,4203.077148,450.000000,2.000000,,,,0.000000,4.000000,4.000000,4.000000,4.000000,4.000000,,,,,,,,,,,,,,,,,,,,,,,,,
1577808014.509439,79.000000,0.000000,3839.487061,4417.436035,4082.051270,4167.692383,4202.563965,16183.000000,2.000000,,,,0.000000,4.000000,4.000000,4.000000,4.000000,4.000000,,,,,,,,,,,,,,,,,,,,,,,,,
1577808014.517337,80.000000,0.000000,3841.025635,4412.307617,4080.512939,4173.846191,4203.077148,450.000000,2.000000,,,,0.000000,4.000000,4.000000,4.000000,4.000000,4.000000,,,,,,,,,,,,,,,,,,,,,,,,,
1577808014.525136,81.000000,0.000000,3835.897461,4404.615234,4068.205078,4164.102539,4203.589844,450.000000,2.000000,,,,0.000000,4.000000,4.000000,4.000000,4.000000,4.000000,,,,,,,,,,,,,,,,,,,,,,,,,
1577808014.533034,82.000000,0.000000,3835.897461,4395.384766,4074.358887,4182.563965,4211.282227,450.000000,2.000000,,,,0.000000,4.000000,4.000000,4.000000,4.000000,4.000000,,,,,,,,,,,,,,,,,,,,,,,,,
1577808014.540832,83.000000,0.000000,3842.564209,4392.307617,4068.205078,4180.000000,4222.563965,16183.000000,2.000000,,,,0.000000,4.000000,4.000000,4.000000,4.000000,4.000000,7.730245,3.358456,2.306933,0.624172,0.607612,1.408044,1.131615,0.657443,0.625718,0.851448,15.132251,11.030302,2.858154,2.772010,13.657810,10.517962,3.543270,4.058702,5.473722,30.716434,5.077458,2.419820,2.142122,0.669296,0.534250
1577808014.548531,84.000000,0.000000,3840.000000,4388.717773,4070.769287,4192.307617,4215.897461,450.000000,2.000000,,,,0.000000,4.000000,4.000000,4.000000,4.000000,4.000000,,,,,,,,,,,,,,,,,,,,,,,,,
1577808014.556329,85.000000,0.000000,3835.384521,4376.922852,4053.333252,4168.205078,4198.974121,450.000000,2.000000,,,,0.000000,4.000000,4.000000,4.000000,4.000000,4.000000,,,,,,,,,,,,,,,,,,,,,,,,,
1577808014.564028,86.000000,0.000000,3833.333252,4375.384766,4045.641113,4139.487305,4194.358887,450.000000,2.000000,,,,0.000000,4.000000,4.000000,4.000000,4.000000,4.000000,,,,,,,,,,,,,,,,,,,,,,,,,
1577808014.571826,87.000000,0.000000,3822.564209,4389.230957,4081.025635,4166.666504,4195.384766,16183.000000,2.000000,,,,0.000000,4.000000,4.000000,4.000000,4.000000,4.000000,,,,,,,,,,,,,,,,,,,,,,,,,
1577808014.579524,88.000000,0.000000,3811.281982,4394.871582,4083.076904,4153.333496,4192.307617,450.000000,2.000000,,,,0.000000,4.000000,4.000000,4.000000,4.000000,4.000000,,,,,,,,,,,,,,,,,,,,,,,,,
1577808014.587322,89.000000,0.000000,3813.333252,4395.897461,4083.589844,4145.128418,4192.307617,450.000000,2.000000,,,,0.000000,4.000000,4.000000,4.000000,4.000000,4.000000,,,,,,,,,,,,,,,,,,,,,,,,,
1577808014.595021,90.000000,0.000000,3820.512939,4395.384766,4088.718018,4149.743652,4192.820313,450.000000,2.000000,,,,0.000000,4.000000,4.000000,4.000000,4.000000,4.000000,,,,,,,,,,,,,,,,,,,,,,,,,
1577808014.602919,91.000000,0.000000,3824.102539,4385.128418,4086.153809,4144.102539,4190.769043,16183.000000,2.000000,,,,0.000000,4.000000,4.000000,4.000000,4.000000,4.000000,,,,,,,,,,,,,,,,,,,,,,,,,
1577808014.610718,92.000000,0.000000,3828.718018,4373.333496,4103.077148,4163.077148,4197.948730,450.000000,2.000000,,,,0.000000,4.000000,4.000000,4.000000,4.000000,4.000000,,,,,,,,,,,,,,,,,,,,,,,,,
1577808014.618616,93.000000,0.000000,3835.384521,4374.358887,4097.948730,4153.333496,4207.692383,450.000000,2.000000,,,,0.000000,4.000000,4.000000,4.000000,4.000000,4.000000,,,,,,,,,,,,,,,,,,,,,,,,,
1577808014.626415,94.000000,0.000000,3834.871826,4378.974121,4093.846191,4156.410156,4202.051270,450.000000,2.000000,,,,0.000000,4.000000,4.000000,4.000000,4.000000,4.000000,,,,,,,,,,,,,,,,,,,,,,,,,
1577808014.634314,95.000000,0.000000,3836.410156,4380.000000,4101.025879,4165.641113,4200.000000,16183.000000,2.000000,,,,0.000000,4.000000,4.000000,4.000000,4.000000,4.000000,,,,,,,,,,,,,,,,,,,,,,,,,
1577808014.642112,96.000000,0.000000,3843.589844,4387.692383,4116.410156,4164.615234,4217.948730,450.000000,2.000000,,,,0.000000,4.000000,4.000000,4.000000,4.000000,4.000000,,,,,,,,,,,,,,,,,,,,,,,,,
1577808014.650011,97.000000,0.000000,3848.205078,4392.820313,4144.102539,4200.000000,4231.282227,450.000000,2.000000,,,,0.000000,4.000000,4.000000,4.000000,4.000000,4.000000,,,,,,,,,,,,,,,,,,,,,,,,,
1577808014.657810,98.000000,0.000000,3851.281982,4393.333496,4134.871582,4187.692383,4227.179688,450.000000,2.000000,,,,0.000000,4.000000,4.000000,4.000000,4.000000,4.000000,,,,,,,,,,,,,,,,,,,,,,,,,
1577808014.665708,99.000000,0.000000,3846.666748,4388.205078,4137.948730,4166.153809,4216.410156,16183.000000,2.000000,,,,0.000000,4.000000,4.000000,4.000000,4.000000,4.000000,8.813732,3.661403,2.602219,0.722864,0.627597,1.873919,1.296826,0.799444,0.620574,0.872431,14.317064,10.972409,3.212069,2.875167,14.162478,11.922027,3.816951,4.128664,5.610754,31.974991,6.026212,2.848123,2.568905,0.675058,0.544193
1577808014.673506,100.000000,0.000000,3840.000000,4377.436035,4147.179688,4182.563965,4210.256348,450.000000,2.000000,,,,0.000000,4.000000,4.000000,4.000000,4.000000,4.000000,,,,,,,,,,,,,,,,,,,,,,,,,
1577808014.681305,101.000000,0.000000,3842.564209,4390.256348,4135.384766,4186.666504,4208.717773,450.000000,2.000000,,,,0.000000,4.000000,4.000000,4.000000,4.000000,4.000000,,,,,,,,,,,,,,,,,,,,,,,,,
1577808014.689003,102.000000,0.000000,3847.692383,4411.794922,4160.000000,4209.230957,4210.769043,450.000000,2.000000,,,,0.000000,4.000000,4.000000,4.000000,4.000000,4.000000,,,,,,,,,,,,,,,,,,,,,,,,,
1577808014.696901,103.000000,0.000000,3843.589844,4396.410156,4168.205078,4204.102539,4214.871582,16183.000000,2.000000,,,,0.000000,4.000000,4.000000,4.000000,4.000000,4.000000,,,,,,,,,,,,,,,,,,,,,,,,,
1577808014.704700,104.000000,0.000000,3842.564209,4374.358887,4164.615234,4195.384766,4215.384766,450.000000,2.000000,,,,0.000000,4.000000,4.000000,4.000000,4.000000,4.000000,,,,,,,,,,,,,,,,,,,,,,,,,
1577808014.712498,105.000000,0.000000,3848.718018,4396.410156,4176.922852,4213.846191,4214.358887,450.000000,2.000000,,,,0.000000,4.000000,4.000000,4.000000,4.000000,4.000000,,,,,,,,,,,,,,,,,,,,,,,,,
1577808014.720196,106.000000,0.000000,3845.128174,4406.666504,4157.948730,4196.922852,4213.846191,450.000000,2.000000,,,,0.000000,4.000000,4.000000,4.000000,4.000000,4.000000,,,,,,,,,,,,,,,,,,,,,,,,,
1577808014.728094,107.000000,0.000000,3841.025635,4382.051270,4157.948730,4208.205078,4214.871582,16183.000000,2.000000,,,,0.000000,4.000000,4.000000,4.000000,4.000000,4.000000,,,,,,,,,,,,,,,,,,,,,,,,,
1577808014.735893,108.000000,0.000000,3847.692383,4375.897461,4158.974121,4223.077148,4222.051270,450.000000,2.000000,,,,0.000000,4.000000,4.000000,4.000000,4.000000,4.000000,,,,,,,,,,,,,,,,,,,,,,,,,
1577808014.743591,109.000000,0.000000,3845.128174,4384.615234,4140.000000,4209.230957,4221.538574,450.000000,2.000000,,,,0.000000,4.000000,4.000000,4.000000,4.000000,4.000000,,,,,,,,,,,,,,,,,,,,,,,,,
1577808014.751390,110.000000,0.000000,3835.897461,4391.794922,4146.666504,4212.820313,4212.820313,450.000000,2.000000,,,,0.000000,4.000000,4.000000,4.000000,4.000000,4.000000,,,,,,,,,,,,,,,,,,,,,,,,,
1577808014.759088,111.000000,0.000000,3843.589844,4394.871582,4147.692383,4200.000000,4211.282227,16183.000000,2.000000,,,,0.000000,4.000000,4.000000,4.000000,4.000000,4.000000,,,,,,,,,,,,,,,,,,,,,,,,,
1577808014.766987,112.000000,0.000000,3849.230713,4383.077148,4152.307617,4208.205078,4210.769043,450.000000,2.000000,,,,0.000000,4.000000,4.000000,4.000000,4.000000,4.000000,,,,,,,,,,,,,,,,,,,,,,,,,
1577808014.774786,113.000000,0.000000,3840.000000,4380.000000,4149.743652,4214.871582,4202.051270,450.000000,2.000000,,,,0.000000,4.000000,4.000000,4.000000,4.000000,4.000000,,,,,,,,,,,,,,,,,,,,,,,,,
1577808014.782584,114.000000,0.000000,3835.384521,4389.743652,4139.487305,4205.641113,4196.922852,450.000000,2.000000,,,,0.000000,4.000000,4.000000,4.000000,4.000000,4.000000,,,,,,,,,,,,,,,,,,,,,,,,,
1577808014.790283,115.000000,0.000000,3835.897461,4371.282227,4129.743652,4221.538574,4194.358887,16183.000000,2.000000,,,,0.000000,4.000000,4.000000,4.000000,4.000000,4.000000,9.422771,3.720277,2.723413,0.806449,0.604534,2.322312,1.350208,0.926150,0.653599,0.900938,12.967273,10.367248,3.335416,2.641149,12.641544,12.369138,3.814178,3.850571,4.983603,28.574827,6.776228,3.214622,2.832421,0.641208,0.503432
