title:h2, start timestamp:2019-12-31T19:01:56.014038+03:00, stop timestamp:2019-12-31T19:02:33.239627+03:00, headset type:INSIGHT, headset serial:A2D200FB, headset firmware:930, subject name:Usman, channels:44, sampling rate:eeg_128;pow_8, samples:4772      , version:2.0
Timestamp,EEG.Counter,EEG.Interpolated,EEG.AF3,EEG.T7,EEG.Pz,EEG.T8,EEG.AF4,EEG.RawCq,EEG.Battery,MarkerIndex,MarkerType,MarkerValueInt,EEG.MarkerHardware,CQ.AF3,CQ.T7,CQ.Pz,CQ.T8,CQ.AF4,POW.AF3.Theta,POW.AF3.Alpha,POW.AF3.BetaL,POW.AF3.BetaH,POW.AF3.Gamma,POW.T7.Theta,POW.T7.Alpha,POW.T7.BetaL,POW.T7.BetaH,POW.T7.Gamma,POW.Pz.Theta,POW.Pz.Alpha,POW.Pz.BetaL,POW.Pz.BetaH,POW.Pz.Gamma,POW.T8.Theta,POW.T8.Alpha,POW.T8.BetaL,POW.T8.BetaH,POW.T8.Gamma,POW.AF4.Theta,POW.AF4.Alpha,POW.AF4.BetaL,POW.AF4.BetaH,POW.AF4.Gamma
1577808116.014038,46.000000,0.000000,4226.153809,4354.871582,4022.051270,4129.743652,4183.589844,0.000000,2.000000,,,,0.000000,4.000000,4.000000,4.000000,4.000000,4.000000,2.511809,2.429309,2.306518,1.017937,2.395145,1.423210,0.869572,0.893129,0.974296,2.698052,27.917496,7.307302,1.940821,0.776155,1.376936,7.532050,1.924068,1.817863,1.919648,1.683744,2.383763,3.226155,2.642913,1.187967,2.124010
1577808116.021936,47.000000,0.000000,4224.615234,4372.307617,4020.512939,4143.077148,4195.384766,0.000000,2.000000,,,,0.000000,4.000000,4.000000,4.000000,4.000000,4.000000,,,,,,,,,,,,,,,,,,,,,,,,,
1577808116.029733,48.000000,0.000000,4235.384766,4379.487305,4031.794922,4172.307617,4210.769043,0.000000,2.000000,,,,0.000000,4.000000,4.000000,4.000000,4.000000,4.000000,,,,,,,,,,,,,,,,,,,,,,,,,
1577808116.037631,49.000000,0.000000,4251.282227,4359.487305,4034.871826,4176.922852,4221.025879,0.000000,2.000000,,,,0.000000,4.000000,4.000000,4.000000,4.000000,4.000000,,,,,,,,,,,,,,,,,,,,,,,,,
1577808116.045428,50.000000,0.000000,4245.128418,4342.051270,4019.487061,4176.922852,4210.256348,0.000000,2.000000,,,,0.000000,4.000000,4.000000,4.000000,4.000000,4.000000,,,,,,,,,,,,,,,,,,,,,,,,,
1577808116.053325,51.000000,0.000000,4224.615234,4348.717773,3997.948730,4176.410156,4189.230957,0.000000,2.000000,,,,0.000000,4.000000,4.000000,4.000000,4.000000,4.000000,,,,,,,,,,,,,,,,,,,,,,,,,
1577808116.061122,52.000000,0.000000,4226.666504,4363.589844,3995.897461,4174.871582,4189.743652,0.000000,2.000000,,,,0.000000,4.000000,4.000000,4.000000,4.000000,4.000000,,,,,,,,,,,,,,,,,,,,,,,,,
1577808116.068820,53.000000,0.000000,4244.102539,4363.077148,4021.025635,4186.666504,4203.589844,0.000000,2.000000,,,,0.000000,4.000000,4.000000,4.000000,4.000000,4.000000,,,,,,,,,,,,,,,,,,,,,,,,,
1577808116.076617,54.000000,0.000000,4250.769043,4359.487305,4030.256348,4188.717773,4206.153809,0.000000,2.000000,,,,0.000000,4.000000,4.000000,4.000000,4.000000,4.000000,,,,,,,,,,,,,,,,,,,,,,,,,
1577808116.084314,55.000000,0.000000,4262.051270,4371.282227,4031.281982,4198.461426,4214.871582,0.000000,2.000000,,,,0.000000,4.000000,4.000000,4.000000,4.000000,4.000000,,,,,,,,,,,,,,,,,,,,,,,,,
1577808116.092111,56.000000,0.000000,4270.256348,4372.820313,4037.948730,4213.333496,4226.153809,0.000000,2.000000,,,,0.000000,4.000000,4.000000,4.000000,4.000000,4.000000,,,,,,,,,,,,,,,,,,,,,,,,,
1577808116.099808,57.000000,0.000000,4243.589844,4341.025879,4031.281982,4211.794922,4199.487305,0.000000,2.000000,,,,0.000000,4.000000,4.000000,4.000000,4.000000,4.000000,,,,,,,,,,,,,,,,,,,,,,,,,
1577808116.107604,58.000000,0.000000,4214.871582,4322.563965,4022.051270,4200.000000,4161.538574,0.000000,2.000000,,,,0.000000,4.000000,4.000000,4.000000,4.000000,4.000000,,,,,,,,,,,,,,,,,,,,,,,,,
1577808116.115301,59.000000,0.000000,4219.487305,4351.282227,4035.384521,4197.436035,4163.077148,0.000000,2.000000,,,,0.000000,4.000000,4.000000,4.000000,4.000000,4.000000,,,,,,,,,,,,,,,,,,,,,,,,,
1577808116.123200,60.000000,0.000000,4228.717773,4367.692383,4070.256348,4211.282227,4178.974121,0.000000,2.000000,,,,0.000000,4.000000,4.000000,4.000000,4.000000,4.000000,,,,,,,,,,,,,,,,,,,,,,,,,
1577808116.130999,61.000000,0.000000,4233.846191,4361.025879,4092.820557,4210.769043,4186.666504,0.000000,2.000000,,,,0.000000,4.000000,4.000000,4.000000,4.000000,4.000000,,,,,,,,,,,,,,,,,,,,,,,,,
1577808116.138798,62.000000,0.000000,4234.358887,4372.820313,4104.102539,4206.666504,4189.230957,0.000000,2.000000,,,,0.000000,4.000000,4.000000,4.000000,4.000000,4.000000,2.041905,2.262138,2.208958,0.978790,2.153921,1.400813,0.769391,0.967805,0.878242,2.391567,31.435333,9.905931,2.069830,0.718656,1.148533,11.101676,1.693225,1.513731,1.367076,1.458448,1.751252,3.016413,2.436496,1.083834,1.923222
1577808116.146494,63.000000,0.000000,4228.205078,4384.615234,4113.846191,4210.256348,4180.512695,0.000000,2.000000,,,,0.000000,4.000000,4.000000,4.000000,4.000000,4.000000,,,,,,,,,,,,,,,,,,,,,,,,,
1577808116.154393,64.000000,0.000000,4231.794922,4366.666504,4109.743652,4192.820313,4178.974121,450.000000,2.000000,,,,0.000000,4.000000,4.000000,4.000000,4.000000,4.000000,,,,,,,,,,,,,,,,,,,,,,,,,
1577808116.162191,65.000000,0.000000,4248.205078,4357.436035,4125.641113,4203.589844,4200.512695,450.000000,2.000000,,,,0.000000,4.000000,4.000000,4.000000,4.000000,4.000000,,,,,,,,,,,,,,,,,,,,,,,,,
1577808116.170089,66.000000,0.000000,4256.410156,4379.487305,4145.128418,4229.230957,4214.358887,16187.000000,2.000000,,,,0.000000,4.000000,4.000000,4.000000,4.000000,4.000000,,,,,,,,,,,,,,,,,,,,,,,,,
1577808116.177990,67.000000,0.000000,4246.666504,4377.948730,4128.717773,4216.410156,4202.563965,450.000000,2.000000,,,,0.000000,4.000000,4.000000,4.000000,4.000000,4.000000,,,,,,,,,,,,,,,,,,,,,,,,,
1577808116.185791,68.000000,0.000000,4244.615234,4363.077148,4120.512695,4214.358887,4200.512695,16118.000000,2.000000,,,,0.000000,4.000000,4.000000,4.000000,4.000000,4.000000,,,,,,,,,,,,,,,,,,,,,,,,,
1577808116.193691,69.000000,0.000000,4249.743652,4371.282227,4121.538574,4210.256348,4206.666504,450.000000,2.000000,,,,0.000000,4.000000,4.000000,4.000000,4.000000,4.000000,,,,,,,,,,,,,,,,,,,,,,,,,
1577808116.201492,70.000000,0.000000,4246.153809,4381.538574,4127.692383,4190.256348,4198.461426,16091.000000,2.000000,,,,0.000000,4.000000,4.000000,4.000000,4.000000,4.000000,,,,,,,,,,,,,,,,,,,,,,,,,
1577808116.209392,71.000000,0.000000,4237.948730,4387.692383,4138.461426,4188.717773,4190.769043,450.000000,2.000000,,,,0.000000,4.000000,4.000000,4.000000,4.000000,4.000000,,,,,,,,,,,,,,,,,,,,,,,,,
1577808116.217192,72.000000,0.000000,4233.333496,4386.666504,4135.897461,4187.179688,4189.230957,450.000000,2.000000,,,,0.000000,4.000000,4.000000,4.000000,4.000000,4.000000,,,,,,,,,,,,,,,,,,,,,,,,,
1577808116.225092,73.000000,0.000000,4232.307617,4371.282227,4139.487305,4177.436035,4186.153809,16086.000000,2.000000,,,,0.000000,4.000000,4.000000,4.000000,4.000000,4.000000,,,,,,,,,,,,,,,,,,,,,,,,,
1577808116.232893,74.000000,0.000000,4228.717773,4366.153809,4148.717773,4159.487305,4179.487305,450.000000,2.000000,,,,0.000000,4.000000,4.000000,4.000000,4.000000,4.000000,,,,,,,,,,,,,,,,,,,,,,,,,
1577808116.240792,75.000000,0.000000,4231.794922,4382.563965,4157.436035,4159.487305,4180.000000,16183.000000,2.000000,,,,0.000000,4.000000,4.000000,4.000000,4.000000,4.000000,,,,,,,,,,,,,,,,,,,,,,,,,
1577808116.248592,76.000000,0.000000,4238.461426,4392.307617,4159.487305,4180.000000,4188.205078,450.000000,2.000000,,,,0.000000,4.000000,4.000000,4.000000,4.000000,4.000000,,,,,,,,,,,,,,,,,,,,,,,,,
1577808116.256492,77.000000,0.000000,4240.000000,4385.641113,4150.256348,4177.948730,4192.820313,450.000000,2.000000,,,,0.000000,4.000000,4.000000,4.000000,4.000000,4.000000,,,,,,,,,,,,,,,,,,,,,,,,,
1577808116.264292,78.000000,0.000000,4240.000000,4383.077148,4151.282227,4167.692383,4194.871582,450.000000,2.000000,,,,0.000000,4.000000,4.000000,4.000000,4.000000,4.000000,1.714208,2.011556,2.002002,1.062198,1.819654,1.454216,0.685231,0.978299,0.789191,1.963344,35.164131,12.572509,2.344761,0.793373,1.012170,14.389213,1.510666,1.231834,1.070767,1.282393,1.483340,2.776663,2.159924,1.081182,1.635916
1577808116.272196,79.000000,0.000000,4249.230957,4395.384766,4152.307617,4169.743652,4204.615234,16183.000000,2.000000,,,,0.000000,4.000000,4.000000,4.000000,4.000000,4.000000,,,,,,,,,,,,,,,,,,,,,,,,,
1577808116.280104,80.000000,0.000000,4254.871582,4393.846191,4144.615234,4176.922852,4209.230957,450.000000,2.000000,,,,0.000000,4.000000,4.000000,4.000000,4.000000,4.000000,,,,,,,,,,,,,,,,,,,,,,,,,
1577808116.287911,81.000000,0.000000,4239.487305,4359.487305,4138.974121,4166.666504,4197.948730,450.000000,2.000000,,,,0.000000,4.000000,4.000000,4.000000,4.000000,4.000000,,,,,,,,,,,,,,,,,,,,,,,,,
1577808116.295719,82.000000,0.000000,4245.641113,4354.358887,4145.641113,4152.820313,4206.153809,450.000000,2.000000,,,,0.000000,4.000000,4.000000,4.000000,4.000000,4.000000,,,,,,,,,,,,,,,,,,,,,,,,,
1577808116.303623,83.000000,0.000000,4265.128418,4380.512695,4156.922852,4168.205078,4222.051270,16183.000000,2.000000,,,,0.000000,4.000000,4.000000,4.000000,4.000000,4.000000,,,,,,,,,,,,,,,,,,,,,,,,,
1577808116.311427,84.000000,0.000000,4256.922852,4368.717773,4149.230957,4168.205078,4210.256348,450.000000,2.000000,,,,0.000000,4.000000,4.000000,4.000000,4.000000,4.000000,,,,,,,,,,,,,,,,,,,,,,,,,
1577808116.319232,85.000000,0.000000,4242.563965,4336.922852,4143.077148,4149.743652,4193.846191,450.000000,2.000000,,,,0.000000,4.000000,4.000000,4.000000,4.000000,4.000000,,,,,,,,,,,,,,,,,,,,,,,,,
1577808116.327133,86.000000,0.000000,4244.102539,4342.563965,4163.589844,4156.922852,4195.897461,450.000000,2.000000,,,,0.000000,4.000000,4.000000,4.000000,4.000000,4.000000,,,,,,,,,,,,,,,,,,,,,,,,,
1577808116.334935,87.000000,0.000000,4244.615234,4363.589844,4178.461426,4142.051270,4202.051270,16183.000000,2.000000,,,,0.000000,4.000000,4.000000,4.000000,4.000000,4.000000,,,,,,,,,,,,,,,,,,,,,,,,,
1577808116.342836,88.000000,0.000000,4247.692383,4366.153809,4189.743652,4142.051270,4208.205078,450.000000,2.000000,,,,0.000000,4.000000,4.000000,4.000000,4.000000,4.000000,,,,,,,,,,,,,,,,,,,,,,,,,
1577808116.350637,89.000000,0.000000,4261.538574,4361.025879,4201.538574,4174.358887,4217.948730,450.000000,2.000000,,,,0.000000,4.000000,4.000000,4.000000,4.000000,4.000000,,,,,,,,,,,,,,,,,,,,,,,,,
1577808116.358538,90.000000,0.000000,4255.384766,4354.871582,4193.333496,4154.871582,4214.871582,450.000000,2.000000,,,,0.000000,4.000000,4.000000,4.000000,4.000000,4.000000,,,,,,,,,,,,,,,,,,,,,,,,,
1577808116.366339,91.000000,0.000000,4244.615234,4348.205078,4188.717773,4133.333496,4209.743652,16183.000000,2.000000,,,,0.000000,4.000000,4.000000,4.000000,4.000000,4.000000,,,,,,,,,,,,,,,,,,,,,,,,,
1577808116.374240,92.000000,0.000000,4254.871582,4350.769043,4185.128418,4149.743652,4210.256348,450.000000,2.000000,,,,0.000000,4.000000,4.000000,4.000000,4.000000,4.000000,,,,,,,,,,,,,,,,,,,,,,,,,
1577808116.382041,93.000000,0.000000,4238.974121,4346.666504,4170.769043,4151.794922,4186.153809,450.000000,2.000000,,,,0.000000,4.000000,4.000000,4.000000,4.000000,4.000000,,,,,,,,,,,,,,,,,,,,,,,,,
1577808116.389942,94.000000,0.000000,4210.769043,4341.025879,4162.051270,4142.563965,4163.077148,450.000000,2.000000,,,,0.000000,4.000000,4.000000,4.000000,4.000000,4.000000,1.562675,1.760006,1.760433,1.297971,1.466313,1.549507,0.627709,0.941250,0.743088,1.525520,37.869789,14.752854,2.830838,1.055365,0.930933,16.427250,1.455757,1.027596,1.036974,1.218237,1.526868,2.537453,1.908293,1.209140,1.324429
1577808116.397845,95.000000,0.000000,4220.000000,4346.666504,4176.410156,4147.692383,4170.769043,16183.000000,2.000000,,,,0.000000,4.000000,4.000000,4.000000,4.000000,4.000000,,,,,,,,,,,,,,,,,,,,,,,,,
1577808116.405648,96.000000,0.000000,4244.615234,4358.974121,4209.743652,4161.025879,4194.358887,450.000000,2.000000,,,,0.000000,4.000000,4.000000,4.000000,4.000000,4.000000,,,,,,,,,,,,,,,,,,,,,,,,,
1577808116.413551,97.000000,0.000000,4244.102539,4361.538574,4204.102539,4144.615234,4203.077148,450.000000,2.000000,,,,0.000000,4.000000,4.000000,4.000000,4.000000,4.000000,,,,,,,,,,,,,,,,,,,,,,,,,
1577808116.421456,98.000000,0.000000,4215.897461,4347.179688,4184.615234,4136.410156,4173.333496,450.000000,2.000000,,,,0.000000,4.000000,4.000000,4.000000,4.000000,4.000000,,,,,,,,,,,,,,,,,,,,,,,,,
1577808116.429262,99.000000,0.000000,4202.563965,4333.333496,4178.974121,4136.410156,4149.743652,16183.000000,2.000000,,,,0.000000,4.000000,4.000000,4.000000,4.000000,4.000000,,,,,,,,,,,,,,,,,,,,,,,,,
1577808116.437067,100.000000,0.000000,4215.897461,4334.871582,4187.179688,4138.974121,4164.615234,450.000000,2.000000,,,,0.000000,4.000000,4.000000,4.000000,4.000000,4.000000,,,,,,,,,,,,,,,,,,,,,,,,,
1577808116.444970,101.000000,0.000000,4223.589844,4356.410156,4215.384766,4183.589844,4176.922852,450.000000,2.000000,,,,0.000000,4.000000,4.000000,4.000000,4.000000,4.000000,,,,,,,,,,,,,,,,,,,,,,,,,
1577808116.452772,102.000000,0.000000,4226.666504,4369.230957,4111.794922,4039.487061,4177.436035,450.000000,2.000000,,,,0.000000,4.000000,4.000000,4.000000,4.000000,4.000000,,,,,,,,,,,,,,,,,,,,,,,,,
1577808116.460674,103.000000,0.000000,4216.922852,4343.589844,4178.974121,4151.794922,4164.102539,16183.000000,2.000000,,,,0.000000,4.000000,4.000000,4.000000,4.000000,4.000000,,,,,,,,,,,,,,,,,,,,,,,,,
1577808116.468477,104.000000,0.000000,4220.512695,4339.487305,4230.256348,4256.922852,4168.717773,450.000000,2.000000,,,,0.000000,4.000000,4.000000,4.000000,4.000000,4.000000,,,,,,,,,,,,,,,,,,,,,,,,,
1577808116.476379,105.000000,0.000000,4245.128418,4361.025879,3947.179443,3787.692383,4200.000000,450.000000,2.000000,,,,0.000000,4.000000,4.000000,4.000000,4.000000,4.000000,,,,,,,,,,,,,,,,,,,,,,,,,
1577808116.484181,106.000000,0.000000,4238.974121,4348.205078,4125.641113,4022.051270,4189.230957,450.000000,2.000000,,,,0.000000,4.000000,4.000000,4.000000,4.000000,4.000000,,,,,,,,,,,,,,,,,,,,,,,,,
1577808116.492083,107.000000,0.000000,4228.717773,4326.153809,4291.282227,4330.256348,4172.820313,16183.000000,2.000000,,,,0.000000,4.000000,4.000000,4.000000,4.000000,4.000000,,,,,,,,,,,,,,,,,,,,,,,,,
1577808116.499884,108.000000,0.000000,4245.641113,4342.051270,4094.358887,4030.769287,4191.794922,450.000000,2.000000,,,,0.000000,4.000000,4.000000,4.000000,4.000000,4.000000,,,,,,,,,,,,,,,,,,,,,,,,,
1577808116.507786,109.000000,0.000000,4251.794922,4361.025879,4183.077148,4161.538574,4197.948730,450.000000,2.000000,,,,0.000000,4.000000,4.000000,4.000000,4.000000,4.000000,,,,,,,,,,,,,,,,,,,,,,,,,
1577808116.515587,110.000000,0.000000,4244.615234,4362.563965,4182.051270,4201.025879,4194.358887,450.000000,2.000000,,,,0.000000,4.000000,4.000000,4.000000,4.000000,4.000000,1.572983,1.601498,1.553358,1.675562,1.159365,1.620740,0.595390,0.922179,0.781574,1.191162,38.285248,15.917961,3.521067,1.510989,0.892996,16.827045,1.570344,0.932416,1.186408,1.282699,1.785392,2.340154,1.733188,1.476735,1.051836
1577808116.523489,111.000000,0.000000,4234.358887,4356.410156,4104.615234,4094.358887,4186.666504,16183.000000,2.000000,,,,0.000000,4.000000,4.000000,4.000000,4.000000,4.000000,,,,,,,,,,,,,,,,,,,,,,,,,
1577808116.531393,112.000000,0.000000,4236.410156,4341.538574,4137.948730,4160.512695,4184.102539,450.000000,2.000000,,,,0.000000,4.000000,4.000000,4.000000,4.000000,4.000000,,,,,,,,,,,,,,,,,,,,,,,,,
1577808116.539197,113.000000,0.000000,4255.897461,4344.102539,4127.179688,4153.333496,4201.025879,450.000000,2.000000,,,,0.000000,4.000000,4.000000,4.000000,4.000000,4.000000,,,,,,,,,,,,,,,,,,,,,,,,,
1577808116.547101,114.000000,0.000000,4263.077148,4366.153809,4123.589844,4141.538574,4207.692383,450.000000,2.000000,,,,0.000000,4.000000,4.000000,4.000000,4.000000,4.000000,,,,,,,,,,,,,,,,,,,,,,,,,
1577808116.555007,115.000000,0.000000,4257.948730,4371.794922,4113.846191,4126.153809,4197.948730,16183.000000,2.000000,,,,0.000000,4.000000,4.000000,4.000000,4.000000,4.000000,,,,,,,,,,,,,,,,,,,,,,,,,
1577808116.562813,116.000000,0.000000,4260.000000,4363.077148,4114.358887,4144.615234,4197.436035,450.000000,2.000000,,,,0.000000,4.000000,4.000000,4.000000,4.000000,4.000000,,,,,,,,,,,,,,,,,,,,,,,,,
1577808116.570719,117.000000,0.000000,4262.051270,4367.692383,4125.641113,4180.512695,4205.641113,450.000000,2.000000,,,,0.000000,4.000000,4.000000,4.000000,4.000000,4.000000,,,,,,,,,,,,,,,,,,,,,,,,,
1577808116.578525,118.000000,0.000000,4251.282227,4377.436035,4124.615234,4172.307617,4206.153809,450.000000,2.000000,,,,0.000000,4.000000,4.000000,4.000000,4.000000,4.000000,,,,,,,,,,,,,,,,,,,,,,,,,
1577808116.586431,119.000000,0.000000,4233.333496,4350.256348,4119.487305,4160.000000,4194.358887,16183.000000,2.000000,,,,0.000000,4.000000,4.000000,4.000000,4.000000,4.000000,,,,,,,,,,,,,,,,,,,,,,,,,
1577808116.594237,120.000000,0.000000,4229.743652,4317.436035,4117.948730,4164.102539,4183.077148,450.000000,2.000000,,,,0.000000,4.000000,4.000000,4.000000,4.000000,4.000000,,,,,,,,,,,,,,,,,,,,,,,,,
1577808116.602142,121.000000,0.000000,4257.436035,4342.563965,4131.282227,4169.743652,4192.307617,450.000000,2.000000,,,,0.000000,4.000000,4.000000,4.000000,4.000000,4.000000,,,,,,,,,,,,,,,,,,,,,,,,,
1577808116.609948,122.000000,0.000000,4285.128418,4385.641113,4158.461426,4185.128418,4218.974121,450.000000,2.000000,,,,0.000000,4.000000,4.000000,4.000000,4.000000,4.000000,,,,,,,,,,,,,,,,,,,,,,,,,
1577808116.617853,123.000000,0.000000,4281.025879,4367.692383,4143.077148,4184.102539,4227.692383,16183.000000,2.000000,,,,0.000000,4.000000,4.000000,4.000000,4.000000,4.000000,,,,,,,,,,,,,,,,,,,,,,,,,
1577808116.625658,124.000000,0.000000,4261.025879,4320.000000,4117.436035,4182.563965,4205.641113,450.000000,2.000000,,,,0.000000,4.000000,4.000000,4.000000,4.000000,4.000000,,,,,,,,,,,,,,,,,,,,,,,,,
1577808116.633563,125.000000,0.000000,4254.871582,4323.077148,4118.461426,4174.871582,4193.846191,450.000000,2.000000,,,,0.000000,4.000000,4.000000,4.000000,4.000000,4.000000,,,,,,,,,,,,,,,,,,,,,,,,,
1577808116.641368,126.000000,0.000000,4281.538574,4371.282227,4129.743652,4168.205078,4227.692383,450.000000,2.000000,,,,0.000000,4.000000,4.000000,4.000000,4.000000,4.000000,1.730464,1.596884,1.405147,2.114753,0.937778,1.591602,0.579494,0.983897,0.910584,1.024210,35.950443,15.796171,4.245134,2.088125,0.938509,15.936831,1.868195,0.977042,1.430169,1.564083,2.181956,2.230072,1.623750,1.835575,0.862008
1577808116.649273,127.000000,0.000000,4311.794922,4388.205078,4155.384766,4218.461426,4261.538574,229.000000,2.000000,,,,0.000000,4.000000,4.000000,4.000000,4.000000,4.000000,,,,,,,,,,,,,,,,,,,,,,,,,
1577808116.657078,0.000000,0.000000,4298.461426,4354.358887,4126.153809,4208.717773,4246.666504,450.000000,2.000000,,,,0.000000,4.000000,4.000000,4.000000,4.000000,4.000000,,,,,,,,,,,,,,,,,,,,,,,,,
1577808116.664983,1.000000,0.000000,4266.153809,4341.025879,4091.794922,4177.436035,4217.948730,450.000000,2.000000,,,,0.000000,4.000000,4.000000,4.000000,4.000000,4.000000,,,,,,,,,,,,,,,,,,,,,,,,,
1577808116.672788,2.000000,0.000000,4269.743652,4370.769043,4118.461426,4213.846191,4223.077148,16187.000000,2.000000,,,,0.000000,4.000000,4.000000,4.000000,4.000000,4.000000,,,,,,,,,,,,,,,,,,,,,,,,,
1577808116.680692,3.000000,0.000000,4284.102539,4375.897461,4120.000000,4196.922852,4232.307617,450.000000,2.000000,,,,0.000000,4.000000,4.000000,4.000000,4.000000,4.000000,,,,,,,,,,,,,,,,,,,,,,,,,
1577808116.688497,4.000000,0.000000,4266.153809,4351.794922,4111.282227,4172.820313,4213.333496,16119.000000,2.000000,,,,0.000000,4.000000,4.000000,4.000000,4.000000,4.000000,,,,,,,,,,,,,,,,,,,,,,,,,
1577808116.696401,5.000000,0.000000,4252.820313,4357.948730,4106.153809,4185.128418,4198.974121,450.000000,2.000000,,,,0.000000,4.000000,4.000000,4.000000,4.000000,4.000000,,,,,,,,,,,,,,,,,,,,,,,,,
1577808116.704205,6.000000,0.000000,4257.436035,4363.077148,4093.333252,4188.205078,4201.025879,16096.000000,2.000000,,,,0.000000,4.000000,4.000000,4.000000,4.000000,4.000000,,,,,,,,,,,,,,,,,,,,,,,,,
1577808116.712109,7.000000,0.000000,4256.922852,4343.589844,4097.436035,4198.461426,4203.077148,450.000000,2.000000,,,,0.000000,4.000000,4.000000,4.000000,4.000000,4.000000,,,,,,,,,,,,,,,,,,,,,,,,,
1577808116.720016,8.000000,0.000000,4251.794922,4347.179688,4087.179443,4182.051270,4205.641113,450.000000,2.000000,,,,0.000000,4.000000,4.000000,4.000000,4.000000,4.000000,,,,,,,,,,,,,,,,,,,,,,,,,
1577808116.727823,9.000000,0.000000,4247.692383,4357.436035,4091.281982,4189.230957,4208.205078,16086.000000,2.000000,,,,0.000000,4.000000,4.000000,4.000000,4.000000,4.000000,,,,,,,,,,,,,,,,,,,,,,,,,
1577808116.735729,10.000000,0.000000,4241.025879,4354.358887,4100.512695,4209.743652,4203.077148,450.000000,2.000000,,,,0.000000,4.000000,4.000000,4.000000,4.000000,4.000000,,,,,,,,,,,,,,,,,,,,,,,,,
1577808116.743535,11.000000,0.000000,4233.333496,4354.358887,4084.102539,4181.025879,4193.333496,16186.000000,2.000000,,,,0.000000,4.000000,4.000000,4.000000,4.000000,4.000000,,,,,,,,,,,,,,,,,,,,,,,,,
1577808116.751441,12.000000,0.000000,4239.487305,4365.641113,4100.000000,4181.538574,4196.410156,450.000000,2.000000,,,,0.000000,4.000000,4.000000,4.000000,4.000000,4.000000,,,,,,,,,,,,,,,,,,,,,,,,,
1577808116.759247,13.000000,0.000000,4253.333496,4371.282227,4113.333496,4177.948730,4204.615234,450.000000,2.000000,,,,0.000000,4.000000,4.000000,4.000000,4.000000,4.000000,,,,,,,,,,,,,,,,,,,,,,,,,
1577808116.767153,14.000000,0.000000,4250.769043,4360.000000,4109.230957,4159.487305,4202.051270,450.000000,2.000000,,,,0.000000,4.000000,4.000000,4.000000,4.000000,4.000000,2.036626,1.735168,1.300533,2.487217,0.810735,1.485934,0.578737,1.141281,1.096311,1.021101,31.352402,14.545025,4.819588,2.692210,1.287320,14.561556,2.416276,1.292229,1.791825,2.636889,2.659991,2.214065,1.543646,2.190155,0.771345
1577808116.774959,15.000000,0.000000,4238.461426,4352.820313,4121.538574,4161.538574,4197.436035,16186.000000,2.000000,,,,0.000000,4.000000,4.000000,4.000000,4.000000,4.000000,,,,,,,,,,,,,,,,,,,,,,,,,
1577808116.782764,16.000000,0.000000,4228.717773,4354.871582,4124.615234,4138.974121,4193.333496,0.000000,2.000000,,,,0.000000,4.000000,4.000000,4.000000,4.000000,4.000000,,,,,,,,,,,,,,,,,,,,,,,,,
1577808116.790668,17.000000,0.000000,4217.436035,4354.871582,4130.769043,4137.948730,4182.051270,0.000000,2.000000,,,,0.000000,4.000000,4.000000,4.000000,4.000000,4.000000,,,,,,,,,,,,,,,,,,,,,,,,,
1577808116.798573,18.000000,0.000000,4226.666504,4363.077148,4132.307617,4150.256348,4187.692383,0.000000,2.000000,,,,0.000000,4.000000,4.000000,4.000000,4.000000,4.000000,,,,,,,,,,,,,,,,,,,,,,,,,
1577808116.806379,19.000000,0.000000,4246.666504,4375.384766,4127.179688,4143.077148,4202.051270,0.000000,2.000000,,,,0.000000,4.000000,4.000000,4.000000,4.000000,4.000000,,,,,,,,,,,,,,,,,,,,,,,,,
1577808116.814284,20.000000,0.000000,4242.051270,4359.487305,4129.743652,4135.897461,4194.871582,0.000000,2.000000,,,,0.000000,4.000000,4.000000,4.000000,4.000000,4.000000,,,,,,,,,,,,,,,,,,,,,,,,,
1577808116.822089,21.000000,0.000000,4232.820313,4337.436035,4124.615234,4122.563965,4191.282227,0.000000,2.000000,,,,0.000000,4.000000,4.000000,4.000000,4.000000,4.000000,,,,,,,,,,,,,,,,,,,,,,,,,
1577808116.829994,22.000000,0.000000,4237.948730,4353.333496,4130.256348,4141.538574,4199.487305,0.000000,2.000000,,,,0.000000,4.000000,4.000000,4.000000,4.000000,4.000000,,,,,,,,,,,,,,,,,,,,,,,,,
1577808116.837799,23.000000,0.000000,4234.358887,4368.205078,4120.000000,4132.307617,4192.307617,0.000000,2.000000,,,,0.000000,4.000000,4.000000,4.000000,4.000000,4.000000,,,,,,,,,,,,,,,,,,,,,,,,,
1577808116.845604,24.000000,0.000000,4223.077148,4349.230957,4104.615234,4102.563965,4180.512695,0.000000,2.000000,,,,0.000000,4.000000,4.000000,4.000000,4.000000,4.000000,,,,,,,,,,,,,,,,,,,,,,,,,
1577808116.853511,25.000000,0.000000,4231.282227,4350.256348,4122.563965,4132.307617,4194.358887,0.000000,2.000000,,,,0.000000,4.000000,4.000000,4.000000,4.000000,4.000000,,,,,,,,,,,,,,,,,,,,,,,,,
1577808116.861421,26.000000,0.000000,4244.615234,4378.974121,4121.538574,4120.512695,4207.179688,0.000000,2.000000,,,,0.000000,4.000000,4.000000,4.000000,4.000000,4.000000,,,,,,,,,,,,,,,,,,,,,,,,,
1577808116.869231,27.000000,0.000000,4232.820313,4371.282227,4113.333496,4088.718018,4190.769043,0.000000,2.000000,,,,0.000000,4.000000,4.000000,4.000000,4.000000,4.000000,,,,,,,,,,,,,,,,,,,,,,,,,
1577808116.877040,28.000000,0.000000,4224.102539,4347.179688,4116.410156,4090.256348,4187.692383,0.000000,2.000000,,,,0.000000,4.000000,4.000000,4.000000,4.000000,4.000000,,,,,,,,,,,,,,,,,,,,,,,,,
1577808116.884850,29.000000,0.000000,4242.051270,4363.077148,4114.358887,4083.076904,4213.333496,0.000000,2.000000,,,,0.000000,4.000000,4.000000,4.000000,4.000000,4.000000,,,,,,,,,,,,,,,,,,,,,,,,,
1577808116.892755,30.000000,0.000000,4258.461426,4385.128418,4126.666504,4099.487305,4224.615234,0.000000,2.000000,,,,0.000000,4.000000,4.000000,4.000000,4.000000,4.000000,2.443540,1.945834,1.210424,2.685210,0.764745,1.392320,0.603058,1.341067,1.287462,1.140504,26.212812,12.721677,5.124781,3.243673,2.258820,13.350141,3.266444,2.048296,2.374592,5.355981,3.122818,2.262871,1.454896,2.438720,0.771546
1577808116.900559,31.000000,0.000000,4248.717773,4370.256348,4112.820313,4087.692383,4210.769043,0.000000,2.000000,,,,0.000000,4.000000,4.000000,4.000000,4.000000,4.000000,,,,,,,,,,,,,,,,,,,,,,,,,
1577808116.908463,32.000000,0.000000,4225.641113,4354.871582,4084.615479,4052.820557,4195.384766,0.000000,2.000000,,,,0.000000,4.000000,4.000000,4.000000,4.000000,4.000000,,,,,,,,,,,,,,,,,,,,,,,,,
1577808116.916268,33.000000,0.000000,4218.974121,4368.717773,4079.487061,4046.153809,4192.820313,0.000000,2.000000,,,,0.000000,4.000000,4.000000,4.000000,4.000000,4.000000,,,,,,,,,,,,,,,,,,,,,,,,,
1577808116.924171,34.000000,0.000000,4216.410156,4367.179688,4063.589844,4023.589844,4192.307617,0.000000,2.000000,,,,0.000000,4.000000,4.000000,4.000000,4.000000,4.000000,,,,,,,,,,,,,,,,,,,,,,,,,
1577808116.931975,35.000000,0.000000,4209.743652,4354.358887,4058.461426,4021.025635,4196.410156,0.000000,2.000000,,,,0.000000,4.000000,4.000000,4.000000,4.000000,4.000000,,,,,,,,,,,,,,,,,,,,,,,,,
1577808116.939879,36.000000,0.000000,4231.282227,4373.846191,4068.718018,4030.769287,4222.563965,0.000000,2.000000,,,,0.000000,4.000000,4.000000,4.000000,4.000000,4.000000,,,,,,,,,,,,,,,,,,,,,,,,,
1577808116.947683,37.000000,0.000000,4253.846191,4382.563965,4075.384521,4036.923096,4238.461426,0.000000,2.000000,,,,0.000000,4.000000,4.000000,4.000000,4.000000,4.000000,,,,,,,,,,,,,,,,,,,,,,,,,
1577808116.955587,38.000000,0.000000,4240.512695,4358.974121,4064.102539,4046.153809,4224.615234,0.000000,2.000000,,,,0.000000,4.000000,4.000000,4.000000,4.000000,4.000000,,,,,,,,,,,,,,,,,,,,,,,,,
1577808116.963390,39.000000,0.000000,4216.922852,4347.179688,4032.820557,4029.230713,4210.256348,0.000000,2.000000,,,,0.000000,4.000000,4.000000,4.000000,4.000000,4.000000,,,,,,,,,,,,,,,,,,,,,,,,,
1577808116.971294,40.000000,0.000000,4218.974121,4368.717773,4043.589844,4040.000000,4211.794922,0.000000,2.000000,,,,0.000000,4.000000,4.000000,4.000000,4.000000,4.000000,,,,,,,,,,,,,,,,,,,,,,,,,
1577808116.979199,41.000000,0.000000,4235.384766,4386.153809,4049.743652,4040.000000,4221.025879,0.000000,2.000000,,,,0.000000,4.000000,4.000000,4.000000,4.000000,4.000000,,,,,,,,,,,,,,,,,,,,,,,,,
1577808116.987005,42.000000,0.000000,4236.410156,4369.230957,4027.179443,4022.564209,4229.230957,0.000000,2.000000,,,,0.000000,4.000000,4.000000,4.000000,4.000000,4.000000,,,,,,,,,,,,,,,,,,,,,,,,,
1577808116.994911,43.000000,0.000000,4220.512695,4340.000000,4030.256348,4037.435791,4223.589844,0.000000,2.000000,,,,0.000000,4.000000,4.000000,4.000000,4.000000,4.000000,,,,,,,,,,,,,,,,,,,,,,,,,
1577808117.002716,44.000000,0.000000,4204.615234,4332.307617,4018.974365,4030.256348,4195.897461,0.000000,2.000000,,,,0.000000,4.000000,4.000000,4.000000,4.000000,4.000000,,,,,,,,,,,,,,,,,,,,,,,,,
1577808117.010621,45.000000,0.000000,4213.846191,4365.641113,4011.794922,4036.923096,4190.256348,0.000000,2.000000,,,,0.000000,4.000000,4.000000,4.000000,4.000000,4.000000,,,,,,,,,,,,,,,,,,,,,,,,,
1577808117.018426,46.000000,0.000000,4226.153809,4392.820313,4011.794922,4043.076904,4205.641113,0.000000,2.000000,,,,0.000000,4.000000,4.000000,4.000000,4.000000,4.000000,2.872473,2.118536,1.124555,2.670166,0.779076,1.312191,0.665347,1.482924,1.442048,1.340080,21.635159,10.827778,5.157441,3.682286,4.012341,12.492087,4.333994,3.304224,3.240245,10.141706,3.506230,2.320710,1.346783,2.508214,0.839481
1577808117.026331,47.000000,0.000000,4216.922852,4375.384766,4001.025635,4038.461426,4202.563965,0.000000,2.000000,,,,0.000000,4.000000,4.000000,4.000000,4.000000,4.000000,,,,,,,,,,,,,,,,,,,,,,,,,
1577808117.034136,48.000000,0.000000,4205.641113,4347.179688,4013.333252,4055.897461,4191.282227,0.000000,2.000000,,,,0.000000,4.000000,4.000000,4.000000,4.000000,4.000000,,,,,,,,,,,,,,,,,,,,,,,,,
1577808117.042041,49.000000,0.000000,4206.153809,4350.256348,4014.358887,4026.153809,4187.692383,0.000000,2.000000,,,,0.000000,4.000000,4.000000,4.000000,4.000000,4.000000,,,,,,,,,,,,,,,,,,,,,,,,,
1577808117.049846,50.000000,0.000000,4213.333496,4374.358887,4009.743652,4013.333252,4186.666504,0.000000,2.000000,,,,0.000000,4.000000,4.000000,4.000000,4.000000,4.000000,,,,,,,,,,,,,,,,,,,,,,,,,
1577808117.057750,51.000000,0.000000,4216.922852,4374.871582,4017.948730,4052.820557,4188.205078,0.000000,2.000000,,,,0.000000,4.000000,4.000000,4.000000,4.000000,4.000000,,,,,,,,,,,,,,,,,,,,,,,,,
1577808117.065555,52.000000,0.000000,4213.333496,4350.256348,4009.230713,4040.000000,4193.333496,0.000000,2.000000,,,,0.000000,4.000000,4.000000,4.000000,4.000000,4.000000,,,,,,,,,,,,,,,,,,,,,,,,,
1577808117.073459,53.000000,0.000000,4212.307617,4345.128418,4015.897461,4023.076904,4200.000000,0.000000,2.000000,,,,0.000000,4.000000,4.000000,4.000000,4.000000,4.000000,,,,,,,,,,,,,,,,,,,,,,,,,
1577808117.081264,54.000000,0.000000,4229.743652,4374.358887,4033.333252,4051.794922,4216.922852,0.000000,2.000000,,,,0.000000,4.000000,4.000000,4.000000,4.000000,4.000000,,,,,,,,,,,,,,,,,,,,,,,,,
1577808117.089168,55.000000,0.000000,4244.102539,4389.230957,4035.384521,4086.153809,4228.205078,0.000000,2.000000,,,,0.000000,4.000000,4.000000,4.000000,4.000000,4.000000,,,,,,,,,,,,,,,,,,,,,,,,,
1577808117.097074,56.000000,0.000000,4237.948730,4365.128418,4025.641113,4082.051270,4218.974121,0.000000,2.000000,,,,0.000000,4.000000,4.000000,4.000000,4.000000,4.000000,,,,,,,,,,,,,,,,,,,,,,,,,
1577808117.104881,57.000000,0.000000,4222.563965,4347.179688,4009.230713,4056.410156,4203.077148,0.000000,2.000000,,,,0.000000,4.000000,4.000000,4.000000,4.000000,4.000000,,,,,,,,,,,,,,,,,,,,,,,,,
1577808117.112688,58.000000,0.000000,4217.436035,4355.897461,4013.846191,4076.923096,4193.333496,0.000000,2.000000,,,,0.000000,4.000000,4.000000,4.000000,4.000000,4.000000,,,,,,,,,,,,,,,,,,,,,,,,,
1577808117.120592,59.000000,0.000000,4228.205078,4358.974121,4010.256348,4083.076904,4198.461426,0.000000,2.000000,,,,0.000000,4.000000,4.000000,4.000000,4.000000,4.000000,,,,,,,,,,,,,,,,,,,,,,,,,
1577808117.128498,60.000000,0.000000,4240.000000,4358.461426,4004.615479,4083.589844,4213.846191,0.000000,2.000000,,,,0.000000,4.000000,4.000000,4.000000,4.000000,4.000000,,,,,,,,,,,,,,,,,,,,,,,,,
1577808117.136304,61.000000,0.000000,4247.692383,4375.897461,4018.461426,4111.282227,4228.717773,0.000000,2.000000,,,,0.000000,4.000000,4.000000,4.000000,4.000000,4.000000,,,,,,,,,,,,,,,,,,,,,,,,,
1577808117.144210,62.000000,0.000000,4241.538574,4374.358887,4004.615479,4098.461426,4224.102539,0.000000,2.000000,,,,0.000000,4.000000,4.000000,4.000000,4.000000,4.000000,3.228288,2.160795,1.047339,2.487085,0.836942,1.282182,0.769424,1.484869,1.546851,1.587110,18.331219,9.185236,4.994510,3.963712,6.341393,11.822747,5.403937,4.900864,4.298034,16.423279,3.709694,2.327639,1.235115,2.392729,0.948776
1577808117.152016,63.000000,0.000000,4238.974121,4348.717773,4006.666748,4110.769043,4217.436035,0.000000,2.000000,,,,0.000000,4.000000,4.000000,4.000000,4.000000,4.000000,,,,,,,,,,,,,,,,,,,,,,,,,
1577808117.159921,64.000000,0.000000,4257.436035,4355.897461,4022.564209,4138.461426,4229.230957,450.000000,2.000000,,,,0.000000,4.000000,4.000000,4.000000,4.000000,4.000000,,,,,,,,,,,,,,,,,,,,,,,,,
1577808117.167727,65.000000,0.000000,4257.948730,4373.846191,4013.846191,4122.563965,4221.538574,450.000000,2.000000,,,,0.000000,4.000000,4.000000,4.000000,4.000000,4.000000,,,,,,,,,,,,,,,,,,,,,,,,,
1577808117.175633,66.000000,0.000000,4237.436035,4364.102539,4019.487061,4117.948730,4201.025879,16182.000000,2.000000,,,,0.000000,4.000000,4.000000,4.000000,4.000000,4.000000,,,,,,,,,,,,,,,,,,,,,,,,,
1577808117.183439,67.000000,0.000000,4236.922852,4366.153809,4040.512939,4119.487305,4204.615234,450.000000,2.000000,,,,0.000000,4.000000,4.000000,4.000000,4.000000,4.000000,,,,,,,,,,,,,,,,,,,,,,,,,
1577808117.191344,68.000000,0.000000,4247.179688,4372.820313,4075.897461,4122.563965,4208.717773,16107.000000,2.000000,,,,0.000000,4.000000,4.000000,4.000000,4.000000,4.000000,,,,,,,,,,,,,,,,,,,,,,,,,
1577808117.199149,69.000000,0.000000,4235.897461,4355.384766,4100.000000,4109.230957,4198.461426,450.000000,2.000000,,,,0.000000,4.000000,4.000000,4.000000,4.000000,4.000000,,,,,,,,,,,,,,,,,,,,,,,,,
1577808117.207054,70.000000,0.000000,4233.333496,4363.077148,4114.358887,4097.948730,4202.051270,16089.000000,2.000000,,,,0.000000,4.000000,4.000000,4.000000,4.000000,4.000000,,,,,,,,,,,,,,,,,,,,,,,,,
1577808117.214860,71.000000,0.000000,4247.179688,4389.743652,4141.538574,4124.615234,4209.743652,450.000000,2.000000,,,,0.000000,4.000000,4.000000,4.000000,4.000000,4.000000,,,,,,,,,,,,,,,,,,,,,,,,,
1577808117.222665,72.000000,0.000000,4246.666504,4377.948730,4141.538574,4116.410156,4203.589844,450.000000,2.000000,,,,0.000000,4.000000,4.000000,4.000000,4.000000,4.000000,,,,,,,,,,,,,,,,,,,,,,,,,
1577808117.230567,73.000000,0.000000,4235.897461,4362.563965,4137.436035,4101.025879,4198.461426,16095.000000,2.000000,,,,0.000000,4.000000,4.000000,4.000000,4.000000,4.000000,,,,,,,,,,,,,,,,,,,,,,,,,
1577808117.238472,74.000000,0.000000,4248.717773,4377.948730,4142.563965,4119.487305,4201.025879,450.000000,2.000000,,,,0.000000,4.000000,4.000000,4.000000,4.000000,4.000000,,,,,,,,,,,,,,,,,,,,,,,,,
1577808117.246276,75.000000,0.000000,4271.282227,4380.512695,4134.871582,4147.692383,4212.307617,16182.000000,2.000000,,,,0.000000,4.000000,4.000000,4.000000,4.000000,4.000000,,,,,,,,,,,,,,,,,,,,,,,,,
1577808117.254180,76.000000,0.000000,4269.743652,4367.692383,4137.436035,4180.000000,4223.077148,450.000000,2.000000,,,,0.000000,4.000000,4.000000,4.000000,4.000000,4.000000,,,,,,,,,,,,,,,,,,,,,,,,,
1577808117.262087,77.000000,0.000000,4261.538574,4370.769043,4133.846191,4167.179688,4220.512695,450.000000,2.000000,,,,0.000000,4.000000,4.000000,4.000000,4.000000,4.000000,,,,,,,,,,,,,,,,,,,,,,,,,
1577808117.269894,78.000000,0.000000,4254.871582,4365.641113,4129.743652,4161.538574,4214.358887,450.000000,2.000000,,,,0.000000,4.000000,4.000000,4.000000,4.000000,4.000000,3.446143,2.061616,1.000952,2.241823,0.925002,1.240724,0.898927,1.330576,1.618700,1.856464,16.103657,7.934279,4.708439,4.051942,8.664971,10.985634,6.202707,6.484940,5.293071,22.630398,3.722529,2.269095,1.141586,2.161160,1.071782
1577808117.277801,79.000000,0.000000,4252.307617,4352.820313,4141.025879,4200.000000,4225.128418,16182.000000,2.000000,,,,0.000000,4.000000,4.000000,4.000000,4.000000,4.000000,,,,,,,,,,,,,,,,,,,,,,,,,
1577808117.285608,80.000000,0.000000,4264.102539,4355.897461,4135.897461,4212.820313,4241.538574,450.000000,2.000000,,,,0.000000,4.000000,4.000000,4.000000,4.000000,4.000000,,,,,,,,,,,,,,,,,,,,,,,,,
1577808117.293515,81.000000,0.000000,4272.820313,4347.179688,4124.102539,4209.230957,4235.384766,450.000000,2.000000,,,,0.000000,4.000000,4.000000,4.000000,4.000000,4.000000,,,,,,,,,,,,,,,,,,,,,,,,,
1577808117.301321,82.000000,0.000000,4281.025879,4323.589844,4100.512695,4194.358887,4227.179688,450.000000,2.000000,,,,0.000000,4.000000,4.000000,4.000000,4.000000,4.000000,,,,,,,,,,,,,,,,,,,,,,,,,
1577808117.309228,83.000000,0.000000,4297.436035,4326.666504,4069.230713,4196.410156,4223.589844,16182.000000,2.000000,,,,0.000000,4.000000,4.000000,4.000000,4.000000,4.000000,,,,,,,,,,,,,,,,,,,,,,,,,
1577808117.317034,84.000000,0.000000,4305.641113,4338.974121,4056.410156,4213.333496,4210.769043,450.000000,2.000000,,,,0.000000,4.000000,4.000000,4.000000,4.000000,4.000000,,,,,,,,,,,,,,,,,,,,,,,,,
1577808117.324841,85.000000,0.000000,4296.922852,4321.538574,4008.205078,4180.512695,4204.102539,450.000000,2.000000,,,,0.000000,4.000000,4.000000,4.000000,4.000000,4.000000,,,,,,,,,,,,,,,,,,,,,,,,,
1577808117.332744,86.000000,0.000000,4300.000000,4318.461426,3950.769287,4167.692383,4214.871582,450.000000,2.000000,,,,0.000000,4.000000,4.000000,4.000000,4.000000,4.000000,,,,,,,,,,,,,,,,,,,,,,,,,
1577808117.340548,87.000000,0.000000,4315.384766,4345.641113,3929.230713,4183.589844,4225.128418,16182.000000,2.000000,,,,0.000000,4.000000,4.000000,4.000000,4.000000,4.000000,,,,,,,,,,,,,,,,,,,,,,,,,
1577808117.348451,88.000000,0.000000,4309.230957,4335.384766,3892.820557,4155.384766,4215.897461,450.000000,2.000000,,,,0.000000,4.000000,4.000000,4.000000,4.000000,4.000000,,,,,,,,,,,,,,,,,,,,,,,,,
1577808117.356255,89.000000,0.000000,4309.230957,4314.871582,3874.871826,4141.025879,4214.871582,450.000000,2.000000,,,,0.000000,4.000000,4.000000,4.000000,4.000000,4.000000,,,,,,,,,,,,,,,,,,,,,,,,,
1577808117.364158,90.000000,0.000000,4342.563965,4339.487305,3884.102539,4165.128418,4238.974121,450.000000,2.000000,,,,0.000000,4.000000,4.000000,4.000000,4.000000,4.000000,,,,,,,,,,,,,,,,,,,,,,,,,
1577808117.371961,91.000000,0.000000,4350.769043,4350.769043,3871.794922,4192.307617,4236.922852,16182.000000,2.000000,,,,0.000000,4.000000,4.000000,4.000000,4.000000,4.000000,,,,,,,,,,,,,,,,,,,,,,,,,
1577808117.379864,92.000000,0.000000,4320.000000,4321.538574,3849.230713,4167.179688,4202.563965,450.000000,2.000000,,,,0.000000,4.000000,4.000000,4.000000,4.000000,4.000000,,,,,,,,,,,,,,,,,,,,,,,,,
1577808117.387769,93.000000,0.000000,4306.153809,4299.487305,3852.307617,4128.717773,4187.692383,450.000000,2.000000,,,,0.000000,4.000000,4.000000,4.000000,4.000000,4.000000,,,,,,,,,,,,,,,,,,,,,,,,,
1577808117.395575,94.000000,0.000000,4317.436035,4308.717773,3876.923096,4142.051270,4197.948730,450.000000,2.000000,,,,0.000000,4.000000,4.000000,4.000000,4.000000,4.000000,3.507172,1.871130,1.013168,2.034426,1.023600,1.182531,1.008854,1.067104,1.677820,2.122694,14.306783,6.992187,4.319831,3.919806,10.243122,9.799781,6.523715,7.633783,5.900010,26.796070,3.606472,2.160370,1.094048,1.913282,1.175316
1577808117.403480,95.000000,0.000000,4324.102539,4326.666504,3875.897461,4107.179688,4202.563965,16182.000000,2.000000,,,,0.000000,4.000000,4.000000,4.000000,4.000000,4.000000,,,,,,,,,,,,,,,,,,,,,,,,,
1577808117.411387,96.000000,0.000000,4325.128418,4328.205078,3892.820557,4073.333252,4205.128418,450.000000,2.000000,,,,0.000000,4.000000,4.000000,4.000000,4.000000,4.000000,,,,,,,,,,,,,,,,,,,,,,,,,
1577808117.419195,97.000000,0.000000,4328.717773,4320.000000,3908.718018,4081.538574,4210.256348,450.000000,2.000000,,,,0.000000,4.000000,4.000000,4.000000,4.000000,4.000000,,,,,,,,,,,,,,,,,,,,,,,,,
1577808117.427002,98.000000,0.000000,4325.128418,4331.794922,3889.743652,4026.153809,4203.077148,450.000000,2.000000,,,,0.000000,4.000000,4.000000,4.000000,4.000000,4.000000,,,,,,,,,,,,,,,,,,,,,,,,,
1577808117.434907,99.000000,0.000000,4317.436035,4345.128418,3909.230713,4005.128174,4197.436035,16182.000000,2.000000,,,,0.000000,4.000000,4.000000,4.000000,4.000000,4.000000,,,,,,,,,,,,,,,,,,,,,,,,,
1577808117.442712,100.000000,0.000000,4323.589844,4330.256348,3916.410156,3996.923096,4209.743652,450.000000,2.000000,,,,0.000000,4.000000,4.000000,4.000000,4.000000,4.000000,,,,,,,,,,,,,,,,,,,,,,,,,
1577808117.450616,101.000000,0.000000,4344.102539,4331.282227,3908.718018,3943.589844,4228.717773,450.000000,2.000000,,,,0.000000,4.000000,4.000000,4.000000,4.000000,4.000000,,,,,,,,,,,,,,,,,,,,,,,,,
1577808117.458421,102.000000,0.000000,4346.666504,4354.871582,3922.564209,3927.692383,4234.358887,450.000000,2.000000,,,,0.000000,4.000000,4.000000,4.000000,4.000000,4.000000,,,,,,,,,,,,,,,,,,,,,,,,,
1577808117.466325,103.000000,0.000000,4337.948730,4357.436035,3905.641113,3892.820557,4231.282227,16182.000000,2.000000,,,,0.000000,4.000000,4.000000,4.000000,4.000000,4.000000,,,,,,,,,,,,,,,,,,,,,,,,,
1577808117.474129,104.000000,0.000000,4339.487305,4340.000000,3886.666748,3855.384521,4228.205078,450.000000,2.000000,,,,0.000000,4.000000,4.000000,4.000000,4.000000,4.000000,,,,,,,,,,,,,,,,,,,,,,,,,
1577808117.482034,105.000000,0.000000,4340.000000,4335.384766,3872.820557,3852.820557,4227.179688,450.000000,2.000000,,,,0.000000,4.000000,4.000000,4.000000,4.000000,4.000000,,,,,,,,,,,,,,,,,,,,,,,,,
1577808117.489838,106.000000,0.000000,4330.256348,4339.487305,3835.897461,3829.230713,4229.743652,450.000000,2.000000,,,,0.000000,4.000000,4.000000,4.000000,4.000000,4.000000,,,,,,,,,,,,,,,,,,,,,,,,,
1577808117.497742,107.000000,0.000000,4314.358887,4334.871582,3792.820557,3813.846191,4221.025879,16182.000000,2.000000,,,,0.000000,4.000000,4.000000,4.000000,4.000000,4.000000,,,,,,,,,,,,,,,,,,,,,,,,,
1577808117.505545,108.000000,0.000000,4314.871582,4329.230957,3741.025635,3810.256348,4214.871582,450.000000,2.000000,,,,0.000000,4.000000,4.000000,4.000000,4.000000,4.000000,,,,,,,,,,,,,,,,,,,,,,,,,
1577808117.513449,109.000000,0.000000,4325.128418,4328.205078,3732.307617,3837.948730,4221.538574,450.000000,2.000000,,,,0.000000,4.000000,4.000000,4.000000,4.000000,4.000000,,,,,,,,,,,,,,,,,,,,,,,,,
1577808117.521253,110.000000,0.000000,4331.794922,4340.000000,3756.410156,3875.384521,4229.230957,450.000000,2.000000,,,,0.000000,4.000000,4.000000,4.000000,4.000000,4.000000,3.516297,1.656285,1.083385,1.911789,1.107783,1.088923,1.056617,0.779358,1.726214,2.354628,13.004066,6.234457,3.800102,3.557534,10.510338,8.429158,6.288559,7.989656,5.878691,27.453470,3.497147,2.016115,1.114831,1.727415,1.228383
1577808117.529157,111.000000,0.000000,4327.692383,4344.102539,3749.743652,3887.692383,4224.615234,16182.000000,2.000000,,,,0.000000,4.000000,4.000000,4.000000,4.000000,4.000000,,,,,,,,,,,,,,,,,,,,,,,,,
1577808117.536960,112.000000,0.000000,4315.897461,4330.769043,3761.025635,3927.692383,4213.333496,450.000000,2.000000,,,,0.000000,4.000000,4.000000,4.000000,4.000000,4.000000,,,,,,,,,,,,,,,,,,,,,,,,,
1577808117.544864,113.000000,0.000000,4320.512695,4340.512695,3796.923096,3957.435791,4217.948730,450.000000,2.000000,,,,0.000000,4.000000,4.000000,4.000000,4.000000,4.000000,,,,,,,,,,,,,,,,,,,,,,,,,
1577808117.552769,114.000000,0.000000,4331.794922,4361.025879,3842.051270,3983.076904,4232.307617,450.000000,2.000000,,,,0.000000,4.000000,4.000000,4.000000,4.000000,4.000000,,,,,,,,,,,,,,,,,,,,,,,,,
1577808117.560575,115.000000,0.000000,4322.563965,4346.153809,3858.974365,4014.358887,4232.307617,16182.000000,2.000000,,,,0.000000,4.000000,4.000000,4.000000,4.000000,4.000000,,,,,,,,,,,,,,,,,,,,,,,,,
1577808117.568481,116.000000,0.000000,4304.102539,4327.179688,3826.153809,4001.538574,4216.410156,450.000000,2.000000,,,,0.000000,4.000000,4.000000,4.000000,4.000000,4.000000,,,,,,,,,,,,,,,,,,,,,,,,,
1577808117.576286,117.000000,0.000000,4299.487305,4338.461426,3823.589844,4006.153809,4208.205078,450.000000,2.000000,,,,0.000000,4.000000,4.000000,4.000000,4.000000,4.000000,,,,,,,,,,,,,,,,,,,,,,,,,
1577808117.584192,118.000000,0.000000,4303.077148,4352.307617,3840.512939,4002.051270,4214.358887,450.000000,2.000000,,,,0.000000,4.000000,4.000000,4.000000,4.000000,4.000000,,,,,,,,,,,,,,,,,,,,,,,,,
1577808117.591997,119.000000,0.000000,4313.846191,4358.974121,3862.564209,3985.128174,4225.641113,16182.000000,2.000000,,,,0.000000,4.000000,4.000000,4.000000,4.000000,4.000000,,,,,,,,,,,,,,,,,,,,,,,,,
1577808117.599902,120.000000,0.000000,4331.794922,4367.692383,3894.358887,4004.102539,4243.077148,450.000000,2.000000,,,,0.000000,4.000000,4.000000,4.000000,4.000000,4.000000,,,,,,,,,,,,,,,,,,,,,,,,,
1577808117.607708,121.000000,0.000000,4324.102539,4364.102539,3883.076904,3980.000000,4240.000000,450.000000,2.000000,,,,0.000000,4.000000,4.000000,4.000000,4.000000,4.000000,,,,,,,,,,,,,,,,,,,,,,,,,
1577808117.615612,122.000000,0.000000,4300.512695,4357.948730,3865.641113,3949.743652,4218.974121,450.000000,2.000000,,,,0.000000,4.000000,4.000000,4.000000,4.000000,4.000000,,,,,,,,,,,,,,,,,,,,,,,,,
1577808117.623417,123.000000,0.000000,4297.948730,4360.512695,3860.000000,3951.281982,4217.948730,16182.000000,2.000000,,,,0.000000,4.000000,4.000000,4.000000,4.000000,4.000000,,,,,,,,,,,,,,,,,,,,,,,,,
1577808117.631322,124.000000,0.000000,4302.051270,4361.025879,3841.538574,3948.205078,4228.717773,450.000000,2.000000,,,,0.000000,4.000000,4.000000,4.000000,4.000000,4.000000,,,,,,,,,,,,,,,,,,,,,,,,,
1577808117.639126,125.000000,0.000000,4297.948730,4376.410156,3838.461426,3967.179443,4228.717773,450.000000,2.000000,,,,0.000000,4.000000,4.000000,4.000000,4.000000,4.000000,,,,,,,,,,,,,,,,,,,,,,,,,
1577808117.646931,126.000000,0.000000,4291.794922,4389.230957,3834.871826,3975.384521,4223.077148,450.000000,2.000000,,,,0.000000,4.000000,4.000000,4.000000,4.000000,4.000000,3.559958,1.472732,1.184119,1.851492,1.154170,0.999469,1.032646,0.552598,1.746068,2.517685,14.208288,5.574440,3.190253,2.993547,9.347638,8.424534,5.640713,7.437038,5.196004,24.355789,3.453295,1.870565,1.213296,1.623315,1.212621
1577808117.654833,127.000000,0.000000,4278.974121,4366.153809,3828.718018,3982.051270,4214.871582,229.000000,2.000000,,,,0.000000,4.000000,4.000000,4.000000,4.000000,4.000000,,,,,,,,,,,,,,,,,,,,,,,,,
1577808117.662737,0.000000,0.000000,4258.974121,4344.102539,3823.589844,3985.128174,4196.922852,450.000000,2.000000,,,,0.000000,4.000000,4.000000,4.000000,4.000000,4.000000,,,,,,,,,,,,,,,,,,,,,,,,,
1577808117.670542,1.000000,0.000000,4245.641113,4355.384766,3821.538574,3973.846191,4178.974121,450.000000,2.000000,,,,0.000000,4.000000,4.000000,4.000000,4.000000,4.000000,,,,,,,,,,,,,,,,,,,,,,,,,
1577808117.678446,2.000000,0.000000,4252.820313,4371.282227,3847.692383,4011.794922,4187.179688,16186.000000,2.000000,,,,0.000000,4.000000,4.000000,4.000000,4.000000,4.000000,,,,,,,,,,,,,,,,,,,,,,,,,
1577808117.686250,3.000000,0.000000,4263.589844,4374.871582,3858.461426,4045.128174,4206.153809,450.000000,2.000000,,,,0.000000,4.000000,4.000000,4.000000,4.000000,4.000000,,,,,,,,,,,,,,,,,,,,,,,,,
1577808117.694154,4.000000,0.000000,4253.333496,4377.436035,3854.871826,4053.846191,4201.025879,16110.000000,2.000000,,,,0.000000,4.000000,4.000000,4.000000,4.000000,4.000000,,,,,,,,,,,,,,,,,,,,,,,,,
1577808117.702060,5.000000,0.000000,4247.179688,4380.512695,3868.205078,4064.615479,4195.384766,450.000000,2.000000,,,,0.000000,4.000000,4.000000,4.000000,4.000000,4.000000,,,,,,,,,,,,,,,,,,,,,,,,,
1577808117.709867,6.000000,0.000000,4253.333496,4382.051270,3883.589844,4072.820557,4206.153809,16090.000000,2.000000,,,,0.000000,4.000000,4.000000,4.000000,4.000000,4.000000,,,,,,,,,,,,,,,,,,,,,,,,,
1577808117.717773,7.000000,0.000000,4236.922852,4379.487305,3897.948730,4087.179443,4200.000000,450.000000,2.000000,,,,0.000000,4.000000,4.000000,4.000000,4.000000,4.000000,,,,,,,,,,,,,,,,,,,,,,,,,
1577808117.725579,8.000000,0.000000,4221.538574,4383.077148,3903.076904,4074.358887,4192.307617,450.000000,2.000000,,,,0.000000,4.000000,4.000000,4.000000,4.000000,4.000000,,,,,,,,,,,,,,,,,,,,,,,,,
1577808117.733484,9.000000,0.000000,4241.538574,4401.538574,3933.846191,4088.205078,4216.410156,16093.000000,2.000000,,,,0.000000,4.000000,4.000000,4.000000,4.000000,4.000000,,,,,,,,,,,,,,,,,,,,,,,,,
1577808117.741290,10.000000,0.000000,4252.820313,4406.666504,3964.102539,4126.666504,4230.256348,450.000000,2.000000,,,,0.000000,4.000000,4.000000,4.000000,4.000000,4.000000,,,,,,,,,,,,,,,,,,,,,,,,,
1577808117.749196,11.000000,0.000000,4236.922852,4394.871582,3951.281982,4115.897461,4220.512695,16180.000000,2.000000,,,,0.000000,4.000000,4.000000,4.000000,4.000000,4.000000,,,,,,,,,,,,,,,,,,,,,,,,,
1577808117.757001,12.000000,0.000000,4234.871582,4397.948730,3958.461426,4124.615234,4220.000000,450.000000,2.000000,,,,0.000000,4.000000,4.000000,4.000000,4.000000,4.000000,,,,,,,,,,,,,,,,,,,,,,,,,
1577808117.764907,13.000000,0.000000,4240.512695,4408.205078,3958.974365,4129.230957,4224.615234,450.000000,2.000000,,,,0.000000,4.000000,4.000000,4.000000,4.000000,4.000000,,,,,,,,,,,,,,,,,,,,,,,,,
1577808117.772712,14.000000,0.000000,4224.615234,4409.743652,3944.615479,4104.102539,4213.333496,450.000000,2.000000,,,,0.000000,4.000000,4.000000,4.000000,4.000000,4.000000,3.597826,1.349935,1.279429,1.790313,1.148646,1.004427,0.989199,0.428259,1.703233,2.577351,22.114597,5.395301,2.689004,2.306993,7.153465,11.962659,4.843393,6.157104,4.054790,18.608427,3.520395,1.787725,1.376759,1.567694,1.127838
1577808117.780618,15.000000,0.000000,4223.589844,4424.615234,3962.564209,4129.230957,4212.820313,16180.000000,2.000000,,,,0.000000,4.000000,4.000000,4.000000,4.000000,4.000000,,,,,,,,,,,,,,,,,,,,,,,,,
1577808117.788423,16.000000,0.000000,4237.436035,4436.410156,3963.076904,4142.563965,4225.128418,0.000000,2.000000,,,,0.000000,4.000000,4.000000,4.000000,4.000000,4.000000,,,,,,,,,,,,,,,,,,,,,,,,,
1577808117.796328,17.000000,0.000000,4227.692383,4427.179688,3961.025635,4124.615234,4218.461426,0.000000,2.000000,,,,0.000000,4.000000,4.000000,4.000000,4.000000,4.000000,,,,,,,,,,,,,,,,,,,,,,,,,
1577808117.804133,18.000000,0.000000,4218.974121,4429.743652,3963.589844,4127.179688,4213.333496,0.000000,2.000000,,,,0.000000,4.000000,4.000000,4.000000,4.000000,4.000000,,,,,,,,,,,,,,,,,,,,,,,,,
1577808117.812038,19.000000,0.000000,4224.102539,4439.487305,3954.871826,4140.000000,4219.487305,0.000000,2.000000,,,,0.000000,4.000000,4.000000,4.000000,4.000000,4.000000,,,,,,,,,,,,,,,,,,,,,,,,,
1577808117.819843,20.000000,0.000000,4220.000000,4427.692383,3959.487061,4153.846191,4212.307617,0.000000,2.000000,,,,0.000000,4.000000,4.000000,4.000000,4.000000,4.000000,,,,,,,,,,,,,,,,,,,,,,,,,
1577808117.827747,21.000000,0.000000,4200.000000,4410.769043,3935.384521,4136.410156,4191.282227,0.000000,2.000000,,,,0.000000,4.000000,4.000000,4.000000,4.000000,4.000000,,,,,,,,,,,,,,,,,,,,,,,,,
1577808117.835552,22.000000,0.000000,4186.666504,4418.461426,3920.512939,4146.153809,4185.641113,0.000000,2.000000,,,,0.000000,4.000000,4.000000,4.000000,4.000000,4.000000,,,,,,,,,,,,,,,,,,,,,,,,,
1577808117.843456,23.000000,0.000000,4205.128418,4446.666504,3942.051270,4184.615234,4212.307617,0.000000,2.000000,,,,0.000000,4.000000,4.000000,4.000000,4.000000,4.000000,,,,,,,,,,,,,,,,,,,,,,,,,
1577808117.851260,24.000000,0.000000,4220.512695,4449.230957,3932.307617,4183.077148,4217.436035,0.000000,2.000000,,,,0.000000,4.000000,4.000000,4.000000,4.000000,4.000000,,,,,,,,,,,,,,,,,,,,,,,,,
1577808117.859165,25.000000,0.000000,4208.717773,4426.666504,3926.666748,4192.307617,4198.461426,0.000000,2.000000,,,,0.000000,4.000000,4.000000,4.000000,4.000000,4.000000,,,,,,,,,,,,,,,,,,,,,,,,,
1577808117.867071,26.000000,0.000000,4198.461426,4423.589844,3927.179443,4202.051270,4204.615234,0.000000,2.000000,,,,0.000000,4.000000,4.000000,4.000000,4.000000,4.000000,,,,,,,,,,,,,,,,,,,,,,,,,
1577808117.874878,27.000000,0.000000,4204.102539,4446.153809,3921.025635,4216.410156,4217.948730,0.000000,2.000000,,,,0.000000,4.000000,4.000000,4.000000,4.000000,4.000000,,,,,,,,,,,,,,,,,,,,,,,,,
1577808117.882684,28.000000,0.000000,4212.820313,4461.538574,3915.384521,4218.461426,4205.128418,0.000000,2.000000,,,,0.000000,4.000000,4.000000,4.000000,4.000000,4.000000,,,,,,,,,,,,,,,,,,,,,,,,,
1577808117.890588,29.000000,0.000000,4205.128418,4441.025879,3890.256348,4180.000000,4187.179688,0.000000,2.000000,,,,0.000000,4.000000,4.000000,4.000000,4.000000,4.000000,,,,,,,,,,,,,,,,,,,,,,,,,
1577808117.898392,30.000000,0.000000,4191.282227,4420.512695,3887.179443,4179.487305,4188.205078,0.000000,2.000000,,,,0.000000,4.000000,4.000000,4.000000,4.000000,4.000000,3.724052,1.288439,1.336489,1.690026,1.100025,1.201350,0.994883,0.393162,1.586674,2.514954,38.522137,6.038241,2.644743,1.651768,4.661567,21.746307,4.231088,4.581723,2.801992,12.120044,3.720671,1.802505,1.556789,1.518639,1.000937
1577808117.906296,31.000000,0.000000,4184.102539,4427.179688,3889.230713,4174.871582,4182.051270,0.000000,2.000000,,,,0.000000,4.000000,4.000000,4.000000,4.000000,4.000000,,,,,,,,,,,,,,,,,,,,,,,,,
1577808117.914100,32.000000,0.000000,4190.769043,4434.358887,3895.384521,4157.436035,4177.948730,0.000000,2.000000,,,,0.000000,4.000000,4.000000,4.000000,4.000000,4.000000,,,,,,,,,,,,,,,,,,,,,,,,,
1577808117.922003,33.000000,0.000000,4205.128418,4435.384766,3918.461426,4175.384766,4194.871582,0.000000,2.000000,,,,0.000000,4.000000,4.000000,4.000000,4.000000,4.000000,,,,,,,,,,,,,,,,,,,,,,,,,
1577808117.929807,34.000000,0.000000,4208.717773,4434.871582,3912.307617,4175.897461,4204.615234,0.000000,2.000000,,,,0.000000,4.000000,4.000000,4.000000,4.000000,4.000000,,,,,,,,,,,,,,,,,,,,,,,,,
1577808117.937710,35.000000,0.000000,4197.948730,4425.128418,3915.384521,4171.282227,4194.358887,0.000000,2.000000,,,,0.000000,4.000000,4.000000,4.000000,4.000000,4.000000,,,,,,,,,,,,,,,,,,,,,,,,,
1577808117.945513,36.000000,0.000000,4189.743652,4425.641113,3927.179443,4152.820313,4189.230957,0.000000,2.000000,,,,0.000000,4.000000,4.000000,4.000000,4.000000,4.000000,,,,,,,,,,,,,,,,,,,,,,,,,
1577808117.953416,37.000000,0.000000,4199.487305,4445.128418,3919.487061,4138.974121,4198.974121,0.000000,2.000000,,,,0.000000,4.000000,4.000000,4.000000,4.000000,4.000000,,,,,,,,,,,,,,,,,,,,,,,,,
1577808117.961321,38.000000,0.000000,4212.820313,4446.153809,3930.769287,4165.641113,4205.128418,0.000000,2.000000,,,,0.000000,4.000000,4.000000,4.000000,4.000000,4.000000,,,,,,,,,,,,,,,,,,,,,,,,,
1577808117.969127,39.000000,0.000000,4216.922852,4436.410156,3935.384521,4164.615234,4207.692383,0.000000,2.000000,,,,0.000000,4.000000,4.000000,4.000000,4.000000,4.000000,,,,,,,,,,,,,,,,,,,,,,,,,
1577808117.977032,40.000000,0.000000,4218.461426,4444.102539,3927.692383,4174.358887,4215.897461,0.000000,2.000000,,,,0.000000,4.000000,4.000000,4.000000,4.000000,4.000000,,,,,,,,,,,,,,,,,,,,,,,,,
1577808117.984837,41.000000,0.000000,4237.436035,4461.025879,3937.948730,4204.615234,4235.897461,0.000000,2.000000,,,,0.000000,4.000000,4.000000,4.000000,4.000000,4.000000,,,,,,,,,,,,,,,,,,,,,,,,,
1577808117.992742,42.000000,0.000000,4239.487305,4453.333496,3926.666748,4190.256348,4232.820313,0.000000,2.000000,,,,0.000000,4.000000,4.000000,4.000000,4.000000,4.000000,,,,,,,,,,,,,,,,,,,,,,,,,
1577808118.000547,43.000000,0.000000,4195.897461,4412.820313,3898.974365,4175.384766,4187.692383,0.000000,2.000000,,,,0.000000,4.000000,4.000000,4.000000,4.000000,4.000000,,,,,,,,,,,,,,,,,,,,,,,,,
1577808118.008452,44.000000,0.000000,4192.820313,4410.769043,3907.692383,4183.589844,4182.563965,0.000000,2.000000,,,,0.000000,4.000000,4.000000,4.000000,4.000000,4.000000,,,,,,,,,,,,,,,,,,,,,,,,,
1577808118.016257,45.000000,0.000000,4235.897461,4456.922852,3954.358887,4218.461426,4224.102539,0.000000,2.000000,,,,0.000000,4.000000,4.000000,4.000000,4.000000,4.000000,,,,,,,,,,,,,,,,,,,,,,,,,
1577808118.024161,46.000000,0.000000,4232.307617,4467.179688,3974.358887,4227.179688,4222.051270,0.000000,2.000000,,,,0.000000,4.000000,4.000000,4.000000,4.000000,4.000000,3.825333,1.253922,1.335766,1.558653,1.029692,1.543026,1.091096,0.407528,1.420414,2.335779,62.511364,7.580412,3.227250,1.202098,2.590803,39.480278,4.082667,3.152252,1.775728,6.710196,3.973306,1.885506,1.683408,1.450129,0.871659
1577808118.031966,47.000000,0.000000,4201.538574,4441.538574,3968.718018,4188.717773,4189.743652,0.000000,2.000000,,,,0.000000,4.000000,4.000000,4.000000,4.000000,4.000000,,,,,,,,,,,,,,,,,,,,,,,,,
1577808118.039870,48.000000,0.000000,4217.948730,4448.717773,4005.128174,4207.179688,4196.922852,0.000000,2.000000,,,,0.000000,4.000000,4.000000,4.000000,4.000000,4.000000,,,,,,,,,,,,,,,,,,,,,,,,,
1577808118.047675,49.000000,0.000000,4238.461426,4467.692383,4020.000000,4211.282227,4216.410156,0.000000,2.000000,,,,0.000000,4.000000,4.000000,4.000000,4.000000,4.000000,,,,,,,,,,,,,,,,,,,,,,,,,
1577808118.055579,50.000000,0.000000,4224.615234,4461.025879,4006.153809,4165.641113,4211.282227,0.000000,2.000000,,,,0.000000,4.000000,4.000000,4.000000,4.000000,4.000000,,,,,,,,,,,,,,,,,,,,,,,,,
1577808118.063383,51.000000,0.000000,4232.820313,4458.461426,4022.051270,4167.692383,4223.077148,0.000000,2.000000,,,,0.000000,4.000000,4.000000,4.000000,4.000000,4.000000,,,,,,,,,,,,,,,,,,,,,,,,,
1577808118.071287,52.000000,0.000000,4256.922852,4465.128418,4021.025635,4154.358887,4247.692383,0.000000,2.000000,,,,0.000000,4.000000,4.000000,4.000000,4.000000,4.000000,,,,,,,,,,,,,,,,,,,,,,,,,
1577808118.079091,53.000000,0.000000,4252.820313,4468.205078,4020.512939,4133.846191,4246.666504,0.000000,2.000000,,,,0.000000,4.000000,4.000000,4.000000,4.000000,4.000000,,,,,,,,,,,,,,,,,,,,,,,,,
1577808118.086995,54.000000,0.000000,4244.615234,4467.692383,4028.718018,4130.256348,4238.974121,0.000000,2.000000,,,,0.000000,4.000000,4.000000,4.000000,4.000000,4.000000,,,,,,,,,,,,,,,,,,,,,,,,,
1577808118.094798,55.000000,0.000000,4233.333496,4457.948730,4017.435791,4094.358887,4228.717773,0.000000,2.000000,,,,0.000000,4.000000,4.000000,4.000000,4.000000,4.000000,,,,,,,,,,,,,,,,,,,,,,,,,
1577808118.102702,56.000000,0.000000,4204.615234,4461.025879,4009.743652,4067.179443,4201.025879,0.000000,2.000000,,,,0.000000,4.000000,4.000000,4.000000,4.000000,4.000000,,,,,,,,,,,,,,,,,,,,,,,,,
1577808118.110505,57.000000,0.000000,4194.358887,4476.922852,4018.461426,4074.871826,4184.615234,0.000000,2.000000,,,,0.000000,4.000000,4.000000,4.000000,4.000000,4.000000,,,,,,,,,,,,,,,,,,,,,,,,,
1577808118.118408,58.000000,0.000000,4208.205078,4471.794922,4024.615479,4099.487305,4190.769043,0.000000,2.000000,,,,0.000000,4.000000,4.000000,4.000000,4.000000,4.000000,,,,,,,,,,,,,,,,,,,,,,,,,
1577808118.126314,59.000000,0.000000,4205.641113,4460.000000,3999.487061,4098.974121,4188.717773,0.000000,2.000000,,,,0.000000,4.000000,4.000000,4.000000,4.000000,4.000000,,,,,,,,,,,,,,,,,,,,,,,,,
1577808118.134120,60.000000,0.000000,4186.153809,4468.717773,3986.666748,4084.102539,4171.794922,0.000000,2.000000,,,,0.000000,4.000000,4.000000,4.000000,4.000000,4.000000,,,,,,,,,,,,,,,,,,,,,,,,,
1577808118.142026,61.000000,0.000000,4189.230957,4477.948730,4018.461426,4104.615234,4168.205078,0.000000,2.000000,,,,0.000000,4.000000,4.000000,4.000000,4.000000,4.000000,,,,,,,,,,,,,,,,,,,,,,,,,
1577808118.149832,62.000000,0.000000,4215.384766,4467.692383,4034.871826,4122.051270,4180.000000,0.000000,2.000000,,,,0.000000,4.000000,4.000000,4.000000,4.000000,4.000000,3.846700,1.232263,1.282536,1.438767,0.960572,1.925855,1.267931,0.435346,1.261900,2.079171,88.927490,9.580785,4.349519,1.055982,1.334659,63.667961,4.510055,2.139847,1.183393,3.349078,4.258866,1.998443,1.699400,1.373783,0.776338
1577808118.157737,63.000000,0.000000,4215.384766,4460.512695,4027.692383,4127.692383,4175.897461,0.000000,2.000000,,,,0.000000,4.000000,4.000000,4.000000,4.000000,4.000000,,,,,,,,,,,,,,,,,,,,,,,,,
1577808118.165543,64.000000,0.000000,4197.948730,4469.743652,4018.461426,4143.077148,4168.205078,450.000000,2.000000,,,,0.000000,4.000000,4.000000,4.000000,4.000000,4.000000,,,,,,,,,,,,,,,,,,,,,,,,,
1577808118.173448,65.000000,0.000000,4214.358887,4484.615234,4013.846191,4177.436035,4186.153809,450.000000,2.000000,,,,0.000000,4.000000,4.000000,4.000000,4.000000,4.000000,,,,,,,,,,,,,,,,,,,,,,,,,
1577808118.181253,66.000000,0.000000,4217.436035,4481.538574,4009.230713,4198.974121,4188.717773,16193.000000,2.000000,,,,0.000000,4.000000,4.000000,4.000000,4.000000,4.000000,,,,,,,,,,,,,,,,,,,,,,,,,
1577808118.189158,67.000000,0.000000,4178.974121,4463.589844,3980.000000,4169.230957,4154.358887,450.000000,2.000000,,,,0.000000,4.000000,4.000000,4.000000,4.000000,4.000000,,,,,,,,,,,,,,,,,,,,,,,,,
1577808118.196963,68.000000,0.000000,4178.461426,4464.615234,3969.743652,4171.282227,4145.128418,16110.000000,2.000000,,,,0.000000,4.000000,4.000000,4.000000,4.000000,4.000000,,,,,,,,,,,,,,,,,,,,,,,,,
1577808118.204868,69.000000,0.000000,4225.128418,4480.512695,3988.205078,4207.692383,4177.436035,450.000000,2.000000,,,,0.000000,4.000000,4.000000,4.000000,4.000000,4.000000,,,,,,,,,,,,,,,,,,,,,,,,,
1577808118.212673,70.000000,0.000000,4242.051270,4477.948730,3993.846191,4203.589844,4192.820313,16093.000000,2.000000,,,,0.000000,4.000000,4.000000,4.000000,4.000000,4.000000,,,,,,,,,,,,,,,,,,,,,,,,,
1577808118.220578,71.000000,0.000000,4227.179688,4458.461426,4005.128174,4192.820313,4177.948730,450.000000,2.000000,,,,0.000000,4.000000,4.000000,4.000000,4.000000,4.000000,,,,,,,,,,,,,,,,,,,,,,,,,
1577808118.228382,72.000000,0.000000,4229.230957,4456.410156,4008.718018,4168.205078,4166.666504,450.000000,2.000000,,,,0.000000,4.000000,4.000000,4.000000,4.000000,4.000000,,,,,,,,,,,,,,,,,,,,,,,,,
1577808118.236187,73.000000,0.000000,4244.615234,4469.230957,4016.410156,4148.205078,4177.436035,16088.000000,2.000000,,,,0.000000,4.000000,4.000000,4.000000,4.000000,4.000000,,,,,,,,,,,,,,,,,,,,,,,,,
1577808118.243889,74.000000,0.000000,4247.179688,4458.974121,4040.512939,4175.384766,4191.794922,450.000000,2.000000,,,,0.000000,4.000000,4.000000,4.000000,4.000000,4.000000,,,,,,,,,,,,,,,,,,,,,,,,,
1577808118.251793,75.000000,0.000000,4230.256348,4443.077148,4036.923096,4163.077148,4184.102539,16182.000000,2.000000,,,,0.000000,4.000000,4.000000,4.000000,4.000000,4.000000,,,,,,,,,,,,,,,,,,,,,,,,,
1577808118.259597,76.000000,0.000000,4233.333496,4455.897461,4057.435791,4156.410156,4186.153809,450.000000,2.000000,,,,0.000000,4.000000,4.000000,4.000000,4.000000,4.000000,,,,,,,,,,,,,,,,,,,,,,,,,
1577808118.267501,77.000000,0.000000,4255.384766,4472.307617,4086.666748,4189.743652,4204.615234,450.000000,2.000000,,,,0.000000,4.000000,4.000000,4.000000,4.000000,4.000000,,,,,,,,,,,,,,,,,,,,,,,,,
1577808118.275407,78.000000,0.000000,4243.589844,4467.179688,4079.487061,4191.282227,4196.410156,450.000000,2.000000,,,,0.000000,4.000000,4.000000,4.000000,4.000000,4.000000,3.767766,1.250196,1.194778,1.371104,0.909446,2.197642,1.476760,0.468955,1.160774,1.802389,110.357513,11.416541,5.613429,1.184826,0.849454,88.501137,5.440612,1.583831,1.020814,1.903939,4.561169,2.150893,1.583201,1.321270,0.732507
1577808118.283213,79.000000,0.000000,4232.820313,4462.563965,4094.358887,4201.538574,4189.743652,16182.000000,2.000000,,,,0.000000,4.000000,4.000000,4.000000,4.000000,4.000000,,,,,,,,,,,,,,,,,,,,,,,,,
1577808118.291119,80.000000,0.000000,4250.769043,4462.051270,4092.820557,4193.846191,4204.102539,450.000000,2.000000,,,,0.000000,4.000000,4.000000,4.000000,4.000000,4.000000,,,,,,,,,,,,,,,,,,,,,,,,,
1577808118.298926,81.000000,0.000000,4237.948730,4445.128418,4106.153809,4248.717773,4188.717773,450.000000,2.000000,,,,0.000000,4.000000,4.000000,4.000000,4.000000,4.000000,,,,,,,,,,,,,,,,,,,,,,,,,
1577808118.306831,82.000000,0.000000,4208.205078,4445.641113,4149.230957,4353.333496,4167.692383,450.000000,2.000000,,,,0.000000,4.000000,4.000000,4.000000,4.000000,4.000000,,,,,,,,,,,,,,,,,,,,,,,,,
1577808118.314637,83.000000,0.000000,4220.512695,4471.282227,3992.820557,4094.358887,4185.128418,16182.000000,2.000000,,,,0.000000,4.000000,4.000000,4.000000,4.000000,4.000000,,,,,,,,,,,,,,,,,,,,,,,,,
1577808118.322443,84.000000,0.000000,4228.205078,4464.102539,4157.436035,4302.563965,4183.589844,450.000000,2.000000,,,,0.000000,4.000000,4.000000,4.000000,4.000000,4.000000,,,,,,,,,,,,,,,,,,,,,,,,,
1577808118.330346,85.000000,0.000000,4215.384766,4441.025879,4516.922852,4911.794922,4171.794922,450.000000,2.000000,,,,0.000000,4.000000,4.000000,4.000000,4.000000,4.000000,,,,,,,,,,,,,,,,,,,,,,,,,
1577808118.338149,86.000000,0.000000,4231.794922,4451.282227,4094.358887,4309.743652,4201.538574,450.000000,2.000000,,,,0.000000,4.000000,4.000000,4.000000,4.000000,4.000000,,,,,,,,,,,,,,,,,,,,,,,,,
1577808118.346053,87.000000,0.000000,4236.922852,4455.897461,3863.589844,3954.358887,4209.230957,16182.000000,2.000000,,,,0.000000,4.000000,4.000000,4.000000,4.000000,4.000000,,,,,,,,,,,,,,,,,,,,,,,,,
1577808118.353856,88.000000,0.000000,4223.589844,4433.333496,4125.641113,4421.025879,4200.000000,450.000000,2.000000,,,,0.000000,4.000000,4.000000,4.000000,4.000000,4.000000,,,,,,,,,,,,,,,,,,,,,,,,,
1577808118.361759,89.000000,0.000000,4234.871582,4437.436035,4026.153809,4282.563965,4213.333496,450.000000,2.000000,,,,0.000000,4.000000,4.000000,4.000000,4.000000,4.000000,,,,,,,,,,,,,,,,,,,,,,,,,
1577808118.369562,90.000000,0.000000,4243.589844,4448.717773,3986.666748,4205.128418,4210.769043,450.000000,2.000000,,,,0.000000,4.000000,4.000000,4.000000,4.000000,4.000000,,,,,,,,,,,,,,,,,,,,,,,,,
1577808118.377465,91.000000,0.000000,4246.153809,4438.461426,4043.589844,4310.769043,4214.871582,16182.000000,2.000000,,,,0.000000,4.000000,4.000000,4.000000,4.000000,4.000000,,,,,,,,,,,,,,,,,,,,,,,,,
1577808118.385369,92.000000,0.000000,4253.333496,4433.846191,4023.589844,4278.974121,4229.230957,450.000000,2.000000,,,,0.000000,4.000000,4.000000,4.000000,4.000000,4.000000,,,,,,,,,,,,,,,,,,,,,,,,,
1577808118.393174,93.000000,0.000000,4246.153809,4427.179688,4018.461426,4285.128418,4210.256348,450.000000,2.000000,,,,0.000000,4.000000,4.000000,4.000000,4.000000,4.000000,,,,,,,,,,,,,,,,,,,,,,,,,
1577808118.401079,94.000000,0.000000,4238.974121,4427.179688,4004.615479,4281.025879,4201.025879,450.000000,2.000000,,,,0.000000,4.000000,4.000000,4.000000,4.000000,4.000000,3.667883,1.368178,1.088997,1.371400,0.895657,2.264380,1.640321,0.520335,1.127854,1.562135,119.940033,12.443521,6.499028,1.468395,0.806342,107.434387,6.451185,1.337411,1.144469,1.547376,4.945734,2.412251,1.367403,1.323587,0.745169
1577808118.408884,95.000000,0.000000,4249.743652,4443.589844,4026.153809,4307.692383,4221.025879,16182.000000,2.000000,,,,0.000000,4.000000,4.000000,4.000000,4.000000,4.000000,,,,,,,,,,,,,,,,,,,,,,,,,
1577808118.416788,96.000000,0.000000,4259.487305,4442.051270,4021.025635,4273.333496,4225.641113,450.000000,2.000000,,,,0.000000,4.000000,4.000000,4.000000,4.000000,4.000000,,,,,,,,,,,,,,,,,,,,,,,,,
1577808118.424593,97.000000,0.000000,4254.871582,4421.538574,4020.000000,4242.051270,4216.922852,450.000000,2.000000,,,,0.000000,4.000000,4.000000,4.000000,4.000000,4.000000,,,,,,,,,,,,,,,,,,,,,,,,,
1577808118.432497,98.000000,0.000000,4248.717773,4422.563965,4030.769287,4227.179688,4217.948730,450.000000,2.000000,,,,0.000000,4.000000,4.000000,4.000000,4.000000,4.000000,,,,,,,,,,,,,,,,,,,,,,,,,
1577808118.440301,99.000000,0.000000,4254.358887,4427.179688,4034.358887,4201.538574,4224.102539,16182.000000,2.000000,,,,0.000000,4.000000,4.000000,4.000000,4.000000,4.000000,,,,,,,,,,,,,,,,,,,,,,,,,
1577808118.448205,100.000000,0.000000,4250.256348,4404.102539,4026.153809,4181.025879,4212.307617,450.000000,2.000000,,,,0.000000,4.000000,4.000000,4.000000,4.000000,4.000000,,,,,,,,,,,,,,,,,,,,,,,,,
1577808118.456009,101.000000,0.000000,4232.307617,4400.512695,4004.615479,4138.974121,4195.384766,450.000000,2.000000,,,,0.000000,4.000000,4.000000,4.000000,4.000000,4.000000,,,,,,,,,,,,,,,,,,,,,,,,,
1577808118.463913,102.000000,0.000000,4239.487305,4428.205078,4018.974365,4151.794922,4207.179688,450.000000,2.000000,,,,0.000000,4.000000,4.000000,4.000000,4.000000,4.000000,,,,,,,,,,,,,,,,,,,,,,,,,
1577808118.471717,103.000000,0.000000,4261.538574,4433.846191,4034.358887,4183.077148,4232.307617,16182.000000,2.000000,,,,0.000000,4.000000,4.000000,4.000000,4.000000,4.000000,,,,,,,,,,,,,,,,,,,,,,,,,
1577808118.479621,104.000000,0.000000,4261.538574,4417.436035,4025.128174,4173.846191,4236.922852,450.000000,2.000000,,,,0.000000,4.000000,4.000000,4.000000,4.000000,4.000000,,,,,,,,,,,,,,,,,,,,,,,,,
1577808118.487424,105.000000,0.000000,4255.897461,4413.846191,4017.435791,4164.102539,4227.179688,450.000000,2.000000,,,,0.000000,4.000000,4.000000,4.000000,4.000000,4.000000,,,,,,,,,,,,,,,,,,,,,,,,,
1577808118.495328,106.000000,0.000000,4263.077148,4423.077148,3997.435791,4147.692383,4226.666504,450.000000,2.000000,,,,0.000000,4.000000,4.000000,4.000000,4.000000,4.000000,,,,,,,,,,,,,,,,,,,,,,,,,
1577808118.503131,107.000000,0.000000,4269.230957,4426.153809,3989.230713,4152.307617,4231.282227,16182.000000,2.000000,,,,0.000000,4.000000,4.000000,4.000000,4.000000,4.000000,,,,,,,,,,,,,,,,,,,,,,,,,
1577808118.511035,108.000000,0.000000,4263.077148,4417.436035,3992.307617,4144.615234,4227.692383,450.000000,2.000000,,,,0.000000,4.000000,4.000000,4.000000,4.000000,4.000000,,,,,,,,,,,,,,,,,,,,,,,,,
1577808118.518838,109.000000,0.000000,4256.922852,4407.692383,3985.128174,4101.025879,4220.512695,450.000000,2.000000,,,,0.000000,4.000000,4.000000,4.000000,4.000000,4.000000,,,,,,,,,,,,,,,,,,,,,,,,,
1577808118.526742,110.000000,0.000000,4257.436035,4403.077148,3990.256348,4096.410156,4213.333496,450.000000,2.000000,,,,0.000000,4.000000,4.000000,4.000000,4.000000,4.000000,3.759848,1.605213,1.001684,1.422515,0.939028,2.120015,1.692436,0.586100,1.139697,1.398618,115.417755,12.709504,6.652862,1.876404,1.137156,116.689133,7.260105,1.351522,1.592576,2.140380,5.442013,2.818998,1.123847,1.384469,0.811584
1577808118.534647,111.000000,0.000000,4255.384766,4396.410156,3989.230713,4094.871826,4207.179688,16182.000000,2.000000,,,,0.000000,4.000000,4.000000,4.000000,4.000000,4.000000,,,,,,,,,,,,,,,,,,,,,,,,,
1577808118.542453,112.000000,0.000000,4243.589844,4393.846191,3987.179443,4076.923096,4203.077148,450.000000,2.000000,,,,0.000000,4.000000,4.000000,4.000000,4.000000,4.000000,,,,,,,,,,,,,,,,,,,,,,,,,
1577808118.550358,113.000000,0.000000,4232.820313,4389.230957,3987.692383,4070.256348,4202.563965,450.000000,2.000000,,,,0.000000,4.000000,4.000000,4.000000,4.000000,4.000000,,,,,,,,,,,,,,,,,,,,,,,,,
1577808118.558163,114.000000,0.000000,4236.922852,4380.000000,3982.564209,4068.718018,4208.717773,450.000000,2.000000,,,,0.000000,4.000000,4.000000,4.000000,4.000000,4.000000,,,,,,,,,,,,,,,,,,,,,,,,,
1577808118.566068,115.000000,0.000000,4246.153809,4388.205078,3988.205078,4078.461426,4216.922852,16182.000000,2.000000,,,,0.000000,4.000000,4.000000,4.000000,4.000000,4.000000,,,,,,,,,,,,,,,,,,,,,,,,,
1577808118.573873,116.000000,0.000000,4242.563965,4392.307617,3978.461426,4069.230713,4211.282227,450.000000,2.000000,,,,0.000000,4.000000,4.000000,4.000000,4.000000,4.000000,,,,,,,,,,,,,,,,,,,,,,,,,
1577808118.581778,117.000000,0.000000,4241.025879,4378.974121,3963.589844,4065.641113,4204.102539,450.000000,2.000000,,,,0.000000,4.000000,4.000000,4.000000,4.000000,4.000000,,,,,,,,,,,,,,,,,,,,,,,,,
1577808118.589583,118.000000,0.000000,4239.487305,4375.897461,3954.871826,4076.923096,4205.641113,450.000000,2.000000,,,,0.000000,4.000000,4.000000,4.000000,4.000000,4.000000,,,,,,,,,,,,,,,,,,,,,,,,,
1577808118.597487,119.000000,0.000000,4221.025879,4372.820313,3944.615479,4071.281982,4194.871582,16182.000000,2.000000,,,,0.000000,4.000000,4.000000,4.000000,4.000000,4.000000,,,,,,,,,,,,,,,,,,,,,,,,,
1577808118.605292,120.000000,0.000000,4216.410156,4359.487305,3952.820557,4069.230713,4183.589844,450.000000,2.000000,,,,0.000000,4.000000,4.000000,4.000000,4.000000,4.000000,,,,,,,,,,,,,,,,,,,,,,,,,
1577808118.613197,121.000000,0.000000,4216.410156,4344.615234,3945.641113,4075.384521,4176.410156,450.000000,2.000000,,,,0.000000,4.000000,4.000000,4.000000,4.000000,4.000000,,,,,,,,,,,,,,,,,,,,,,,,,
1577808118.621001,122.000000,0.000000,4208.717773,4347.692383,3937.435791,4091.794922,4173.846191,450.000000,2.000000,,,,0.000000,4.000000,4.000000,4.000000,4.000000,4.000000,,,,,,,,,,,,,,,,,,,,,,,,,
1577808118.628906,123.000000,0.000000,4218.974121,4366.153809,3960.000000,4119.487305,4187.179688,16182.000000,2.000000,,,,0.000000,4.000000,4.000000,4.000000,4.000000,4.000000,,,,,,,,,,,,,,,,,,,,,,,,,
1577808118.636710,124.000000,0.000000,4214.358887,4360.000000,3970.769287,4155.384766,4179.487305,450.000000,2.000000,,,,0.000000,4.000000,4.000000,4.000000,4.000000,4.000000,,,,,,,,,,,,,,,,,,,,,,,,,
1577808118.644614,125.000000,0.000000,4188.717773,4339.487305,3976.410156,4192.307617,4155.384766,450.000000,2.000000,,,,0.000000,4.000000,4.000000,4.000000,4.000000,4.000000,,,,,,,,,,,,,,,,,,,,,,,,,
1577808118.652418,126.000000,0.000000,4197.948730,4348.205078,4010.769287,4212.307617,4158.974121,450.000000,2.000000,,,,0.000000,4.000000,4.000000,4.000000,4.000000,4.000000,4.185289,1.928043,0.975355,1.481180,1.045807,1.792468,1.608959,0.642401,1.152834,1.323772,100.903946,12.691108,6.334765,2.790602,2.632094,115.174881,8.216395,2.114136,2.990762,5.746105,5.944632,3.337170,0.932363,1.467478,0.920959
1577808118.660322,127.000000,0.000000,4217.948730,4359.487305,4055.384521,4240.512695,4169.743652,229.000000,2.000000,,,,0.000000,4.000000,4.000000,4.000000,4.000000,4.000000,,,,,,,,,,,,,,,,,,,,,,,,,
1577808118.668126,0.000000,0.000000,4202.563965,4355.384766,4082.051270,4262.563965,4158.461426,450.000000,2.000000,,,,0.000000,4.000000,4.000000,4.000000,4.000000,4.000000,,,,,,,,,,,,,,,,,,,,,,,,,
1577808118.676029,1.000000,0.000000,4184.615234,4364.102539,4095.384521,4254.871582,4149.230957,450.000000,2.000000,,,,0.000000,4.000000,4.000000,4.000000,4.000000,4.000000,,,,,,,,,,,,,,,,,,,,,,,,,
1577808118.683935,2.000000,0.000000,4188.717773,4377.948730,4119.487305,4259.487305,4155.897461,16190.000000,2.000000,,,,0.000000,4.000000,4.000000,4.000000,4.000000,4.000000,,,,,,,,,,,,,,,,,,,,,,,,,
1577808118.691742,3.000000,0.000000,4190.769043,4385.641113,4143.589844,4257.436035,4161.025879,450.000000,2.000000,,,,0.000000,4.000000,4.000000,4.000000,4.000000,4.000000,,,,,,,,,,,,,,,,,,,,,,,,,
1577808118.699647,4.000000,0.000000,4188.205078,4400.000000,4164.615234,4238.461426,4162.051270,16113.000000,2.000000,,,,0.000000,4.000000,4.000000,4.000000,4.000000,4.000000,,,,,,,,,,,,,,,,,,,,,,,,,
1577808118.707453,5.000000,0.000000,4188.717773,4402.051270,4187.179688,4220.512695,4157.436035,450.000000,2.000000,,,,0.000000,4.000000,4.000000,4.000000,4.000000,4.000000,,,,,,,,,,,,,,,,,,,,,,,,,
1577808118.715359,6.000000,0.000000,4178.974121,4376.922852,4201.538574,4167.692383,4143.589844,16094.000000,2.000000,,,,0.000000,4.000000,4.000000,4.000000,4.000000,4.000000,,,,,,,,,,,,,,,,,,,,,,,,,
1577808118.723164,7.000000,0.000000,4172.820313,4374.871582,4213.333496,4135.897461,4143.077148,450.000000,2.000000,,,,0.000000,4.000000,4.000000,4.000000,4.000000,4.000000,,,,,,,,,,,,,,,,,,,,,,,,,
1577808118.731069,8.000000,0.000000,4193.333496,4411.282227,4227.692383,4148.205078,4168.205078,450.000000,2.000000,,,,0.000000,4.000000,4.000000,4.000000,4.000000,4.000000,,,,,,,,,,,,,,,,,,,,,,,,,
1577808118.738875,9.000000,0.000000,4209.230957,4415.384766,4236.922852,4133.846191,4177.436035,16082.000000,2.000000,,,,0.000000,4.000000,4.000000,4.000000,4.000000,4.000000,,,,,,,,,,,,,,,,,,,,,,,,,
1577808118.746780,10.000000,0.000000,4200.512695,4395.384766,4233.846191,4117.436035,4164.615234,450.000000,2.000000,,,,0.000000,4.000000,4.000000,4.000000,4.000000,4.000000,,,,,,,,,,,,,,,,,,,,,,,,,
1577808118.754585,11.000000,0.000000,4195.384766,4405.641113,4228.205078,4124.615234,4166.666504,16188.000000,2.000000,,,,0.000000,4.000000,4.000000,4.000000,4.000000,4.000000,,,,,,,,,,,,,,,,,,,,,,,,,
1577808118.762390,12.000000,0.000000,4195.384766,4415.384766,4234.871582,4127.692383,4170.256348,450.000000,2.000000,,,,0.000000,4.000000,4.000000,4.000000,4.000000,4.000000,,,,,,,,,,,,,,,,,,,,,,,,,
1577808118.770093,13.000000,0.000000,4183.589844,4398.974121,4234.358887,4102.563965,4150.256348,450.000000,2.000000,,,,0.000000,4.000000,4.000000,4.000000,4.000000,4.000000,,,,,,,,,,,,,,,,,,,,,,,,,
1577808118.777998,14.000000,0.000000,4174.871582,4396.922852,4234.871582,4089.230713,4136.922852,450.000000,2.000000,,,,0.000000,4.000000,4.000000,4.000000,4.000000,4.000000,4.978733,2.265898,1.027427,1.505944,1.196321,1.446183,1.427670,0.673510,1.129103,1.320426,82.887169,13.024057,6.189679,4.695070,6.317282,104.880768,10.245480,4.420582,6.065263,15.006982,6.365319,3.870160,0.854824,1.518517,1.052233
1577808118.785803,15.000000,0.000000,4173.333496,4408.717773,4247.692383,4116.922852,4144.102539,16188.000000,2.000000,,,,0.000000,4.000000,4.000000,4.000000,4.000000,4.000000,,,,,,,,,,,,,,,,,,,,,,,,,
1577808118.793708,16.000000,0.000000,4167.179688,4403.077148,4248.205078,4117.436035,4141.538574,0.000000,2.000000,,,,0.000000,4.000000,4.000000,4.000000,4.000000,4.000000,,,,,,,,,,,,,,,,,,,,,,,,,
1577808118.801513,17.000000,0.000000,4179.487305,4408.205078,4254.871582,4111.794922,4148.205078,0.000000,2.000000,,,,0.000000,4.000000,4.000000,4.000000,4.000000,4.000000,,,,,,,,,,,,,,,,,,,,,,,,,
1577808118.809417,18.000000,0.000000,4209.743652,4427.179688,4268.717773,4127.692383,4174.358887,0.000000,2.000000,,,,0.000000,4.000000,4.000000,4.000000,4.000000,4.000000,,,,,,,,,,,,,,,,,,,,,,,,,
1577808118.817323,19.000000,0.000000,4208.717773,4417.436035,4260.512695,4112.820313,4172.307617,0.000000,2.000000,,,,0.000000,4.000000,4.000000,4.000000,4.000000,4.000000,,,,,,,,,,,,,,,,,,,,,,,,,
1577808118.825130,20.000000,0.000000,4196.410156,4402.051270,4262.563965,4098.461426,4160.512695,0.000000,2.000000,,,,0.000000,4.000000,4.000000,4.000000,4.000000,4.000000,,,,,,,,,,,,,,,,,,,,,,,,,
1577808118.832937,21.000000,0.000000,4222.051270,4425.128418,4285.641113,4116.410156,4183.589844,0.000000,2.000000,,,,0.000000,4.000000,4.000000,4.000000,4.000000,4.000000,,,,,,,,,,,,,,,,,,,,,,,,,
1577808118.840841,22.000000,0.000000,4244.615234,4437.436035,4296.410156,4132.307617,4203.589844,0.000000,2.000000,,,,0.000000,4.000000,4.000000,4.000000,4.000000,4.000000,,,,,,,,,,,,,,,,,,,,,,,,,
1577808118.848645,23.000000,0.000000,4231.282227,4410.769043,4283.077148,4110.769043,4194.358887,0.000000,2.000000,,,,0.000000,4.000000,4.000000,4.000000,4.000000,4.000000,,,,,,,,,,,,,,,,,,,,,,,,,
1577808118.856549,24.000000,0.000000,4217.948730,4400.000000,4267.179688,4075.384521,4190.256348,0.000000,2.000000,,,,0.000000,4.000000,4.000000,4.000000,4.000000,4.000000,,,,,,,,,,,,,,,,,,,,,,,,,
1577808118.864455,25.000000,0.000000,4222.051270,4412.307617,4277.948730,4083.076904,4196.922852,0.000000,2.000000,,,,0.000000,4.000000,4.000000,4.000000,4.000000,4.000000,,,,,,,,,,,,,,,,,,,,,,,,,
1577808118.872261,26.000000,0.000000,4231.794922,4407.692383,4280.512695,4086.153809,4196.410156,0.000000,2.000000,,,,0.000000,4.000000,4.000000,4.000000,4.000000,4.000000,,,,,,,,,,,,,,,,,,,,,,,,,
1577808118.880067,27.000000,0.000000,4222.563965,4399.487305,4251.794922,4051.281982,4181.538574,0.000000,2.000000,,,,0.000000,4.000000,4.000000,4.000000,4.000000,4.000000,,,,,,,,,,,,,,,,,,,,,,,,,
1577808118.887970,28.000000,0.000000,4211.282227,4414.358887,4242.051270,4045.128174,4179.487305,0.000000,2.000000,,,,0.000000,4.000000,4.000000,4.000000,4.000000,4.000000,,,,,,,,,,,,,,,,,,,,,,,,,
1577808118.895773,29.000000,0.000000,4221.025879,4417.948730,4257.948730,4068.718018,4193.846191,0.000000,2.000000,,,,0.000000,4.000000,4.000000,4.000000,4.000000,4.000000,,,,,,,,,,,,,,,,,,,,,,,,,
1577808118.903477,30.000000,0.000000,4230.256348,4399.487305,4272.307617,4078.461426,4193.333496,0.000000,2.000000,,,,0.000000,4.000000,4.000000,4.000000,4.000000,4.000000,6.007334,2.544886,1.155844,1.470031,1.343857,1.190881,1.222376,0.671300,1.053721,1.345409,69.742859,14.130030,6.793595,7.708921,12.467348,90.728287,14.344091,8.599829,10.950001,30.619995,6.626695,4.294719,0.914580,1.492598,1.171780
1577808118.911280,31.000000,0.000000,4220.512695,4397.948730,4271.282227,4064.615479,4185.128418,0.000000,2.000000,,,,0.000000,4.000000,4.000000,4.000000,4.000000,4.000000,,,,,,,,,,,,,,,,,,,,,,,,,
1577808118.918983,32.000000,0.000000,4201.538574,4400.000000,4270.256348,4050.769287,4171.282227,0.000000,2.000000,,,,0.000000,4.000000,4.000000,4.000000,4.000000,4.000000,,,,,,,,,,,,,,,,,,,,,,,,,
1577808118.926786,33.000000,0.000000,4198.974121,4390.769043,4288.205078,4053.333252,4156.410156,0.000000,2.000000,,,,0.000000,4.000000,4.000000,4.000000,4.000000,4.000000,,,,,,,,,,,,,,,,,,,,,,,,,
1577808118.934490,34.000000,0.000000,4216.410156,4397.948730,4306.153809,4050.256348,4168.717773,0.000000,2.000000,,,,0.000000,4.000000,4.000000,4.000000,4.000000,4.000000,,,,,,,,,,,,,,,,,,,,,,,,,
1577808118.942293,35.000000,0.000000,4217.948730,4418.461426,4314.871582,4054.358887,4187.692383,0.000000,2.000000,,,,0.000000,4.000000,4.000000,4.000000,4.000000,4.000000,,,,,,,,,,,,,,,,,,,,,,,,,
1577808118.949996,36.000000,0.000000,4208.205078,4417.948730,4320.512695,4072.307617,4182.563965,0.000000,2.000000,,,,0.000000,4.000000,4.000000,4.000000,4.000000,4.000000,,,,,,,,,,,,,,,,,,,,,,,,,
1577808118.957900,37.000000,0.000000,4216.410156,4397.436035,4325.641113,4083.589844,4179.487305,0.000000,2.000000,,,,0.000000,4.000000,4.000000,4.000000,4.000000,4.000000,,,,,,,,,,,,,,,,,,,,,,,,,
1577808118.965705,38.000000,0.000000,4219.487305,4391.282227,4321.538574,4087.179443,4186.666504,0.000000,2.000000,,,,0.000000,4.000000,4.000000,4.000000,4.000000,4.000000,,,,,,,,,,,,,,,,,,,,,,,,,
1577808118.973610,39.000000,0.000000,4202.563965,4401.025879,4304.615234,4066.666748,4176.922852,0.000000,2.000000,,,,0.000000,4.000000,4.000000,4.000000,4.000000,4.000000,,,,,,,,,,,,,,,,,,,,,,,,,
1577808118.981415,40.000000,0.000000,4204.615234,4408.205078,4307.179688,4053.846191,4174.871582,0.000000,2.000000,,,,0.000000,4.000000,4.000000,4.000000,4.000000,4.000000,,,,,,,,,,,,,,,,,,,,,,,,,
1577808118.989319,41.000000,0.000000,4220.000000,4411.282227,4311.282227,4071.794922,4193.333496,0.000000,2.000000,,,,0.000000,4.000000,4.000000,4.000000,4.000000,4.000000,,,,,,,,,,,,,,,,,,,,,,,,,
1577808118.997124,42.000000,0.000000,4213.333496,4407.179688,4290.769043,4071.281982,4197.436035,0.000000,2.000000,,,,0.000000,4.000000,4.000000,4.000000,4.000000,4.000000,,,,,,,,,,,,,,,,,,,,,,,,,
1577808119.005028,43.000000,0.000000,4206.666504,4409.230957,4281.025879,4070.256348,4191.282227,0.000000,2.000000,,,,0.000000,4.000000,4.000000,4.000000,4.000000,4.000000,,,,,,,,,,,,,,,,,,,,,,,,,
1577808119.012833,44.000000,0.000000,4215.897461,4418.461426,4276.410156,4086.153809,4201.538574,0.000000,2.000000,,,,0.000000,4.000000,4.000000,4.000000,4.000000,4.000000,,,,,,,,,,,,,,,,,,,,,,,,,
1577808119.020737,45.000000,0.000000,4210.256348,4406.153809,4261.538574,4076.410156,4202.051270,0.000000,2.000000,,,,0.000000,4.000000,4.000000,4.000000,4.000000,4.000000,,,,,,,,,,,,,,,,,,,,,,,,,
1577808119.028541,46.000000,0.000000,4198.461426,4396.410156,4251.794922,4042.051270,4185.128418,0.000000,2.000000,,,,0.000000,4.000000,4.000000,4.000000,4.000000,4.000000,6.869448,2.712345,1.337440,1.370649,1.434268,1.172021,1.055545,0.638807,0.941246,1.351943,65.464432,15.767216,8.237261,11.337862,20.073191,78.590553,20.479164,14.096309,16.809389,49.998646,6.530235,4.502728,1.089565,1.379634,1.243329
1577808119.036445,47.000000,0.000000,4208.205078,4411.794922,4250.256348,4036.410156,4187.179688,0.000000,2.000000,,,,0.000000,4.000000,4.000000,4.000000,4.000000,4.000000,,,,,,,,,,,,,,,,,,,,,,,,,
1577808119.044249,48.000000,0.000000,4213.846191,4410.769043,4249.230957,4056.410156,4200.512695,0.000000,2.000000,,,,0.000000,4.000000,4.000000,4.000000,4.000000,4.000000,,,,,,,,,,,,,,,,,,,,,,,,,
1577808119.052152,49.000000,0.000000,4204.102539,4390.256348,4231.794922,4041.025635,4197.436035,0.000000,2.000000,,,,0.000000,4.000000,4.000000,4.000000,4.000000,4.000000,,,,,,,,,,,,,,,,,,,,,,,,,
1577808119.059956,50.000000,0.000000,4199.487305,4386.153809,4212.820313,4015.897461,4181.538574,0.000000,2.000000,,,,0.000000,4.000000,4.000000,4.000000,4.000000,4.000000,,,,,,,,,,,,,,,,,,,,,,,,,
1577808119.067860,51.000000,0.000000,4210.256348,4403.077148,4214.358887,4032.820557,4182.563965,0.000000,2.000000,,,,0.000000,4.000000,4.000000,4.000000,4.000000,4.000000,,,,,,,,,,,,,,,,,,,,,,,,,
1577808119.075664,52.000000,0.000000,4218.461426,4413.846191,4215.384766,4047.179443,4201.538574,0.000000,2.000000,,,,0.000000,4.000000,4.000000,4.000000,4.000000,4.000000,,,,,,,,,,,,,,,,,,,,,,,,,
1577808119.083367,53.000000,0.000000,4200.512695,4396.922852,4203.077148,4045.128174,4195.897461,0.000000,2.000000,,,,0.000000,4.000000,4.000000,4.000000,4.000000,4.000000,,,,,,,,,,,,,,,,,,,,,,,,,
1577808119.091171,54.000000,0.000000,4193.333496,4382.563965,4191.794922,4050.256348,4182.563965,0.000000,2.000000,,,,0.000000,4.000000,4.000000,4.000000,4.000000,4.000000,,,,,,,,,,,,,,,,,,,,,,,,,
1577808119.098874,55.000000,0.000000,4214.871582,4392.820313,4197.436035,4072.820557,4196.922852,0.000000,2.000000,,,,0.000000,4.000000,4.000000,4.000000,4.000000,4.000000,,,,,,,,,,,,,,,,,,,,,,,,,
1577808119.106779,56.000000,0.000000,4220.512695,4400.000000,4210.256348,4086.666748,4213.846191,0.000000,2.000000,,,,0.000000,4.000000,4.000000,4.000000,4.000000,4.000000,,,,,,,,,,,,,,,,,,,,,,,,,
1577808119.114584,57.000000,0.000000,4210.769043,4392.307617,4209.230957,4072.307617,4214.871582,0.000000,2.000000,,,,0.000000,4.000000,4.000000,4.000000,4.000000,4.000000,,,,,,,,,,,,,,,,,,,,,,,,,
1577808119.122490,58.000000,0.000000,4222.563965,4383.589844,4213.846191,4090.769287,4220.512695,0.000000,2.000000,,,,0.000000,4.000000,4.000000,4.000000,4.000000,4.000000,,,,,,,,,,,,,,,,,,,,,,,,,
1577808119.130295,59.000000,0.000000,4240.512695,4383.589844,4218.974121,4103.077148,4233.333496,0.000000,2.000000,,,,0.000000,4.000000,4.000000,4.000000,4.000000,4.000000,,,,,,,,,,,,,,,,,,,,,,,,,
1577808119.138200,60.000000,0.000000,4230.769043,4387.179688,4207.179688,4059.487061,4223.589844,0.000000,2.000000,,,,0.000000,4.000000,4.000000,4.000000,4.000000,4.000000,,,,,,,,,,,,,,,,,,,,,,,,,
1577808119.146005,61.000000,0.000000,4229.230957,4390.769043,4216.922852,4055.897461,4211.794922,0.000000,2.000000,,,,0.000000,4.000000,4.000000,4.000000,4.000000,4.000000,,,,,,,,,,,,,,,,,,,,,,,,,
1577808119.153910,62.000000,0.000000,4235.897461,4378.461426,4208.717773,4072.820557,4204.615234,0.000000,2.000000,,,,0.000000,4.000000,4.000000,4.000000,4.000000,4.000000,7.167722,2.775023,1.529303,1.222279,1.436471,1.415233,0.956017,0.591610,0.827946,1.319406,68.458008,17.244007,10.009556,14.575674,27.042028,72.244377,27.363287,19.469536,22.053953,67.801758,6.091197,4.445942,1.319555,1.207735,1.245553
1577808119.161715,63.000000,0.000000,4214.871582,4357.436035,4177.436035,4057.435791,4186.666504,0.000000,2.000000,,,,0.000000,4.000000,4.000000,4.000000,4.000000,4.000000,,,,,,,,,,,,,,,,,,,,,,,,,
1577808119.169620,64.000000,0.000000,4206.666504,4359.487305,4183.077148,4066.153809,4185.128418,450.000000,2.000000,,,,0.000000,4.000000,4.000000,4.000000,4.000000,4.000000,,,,,,,,,,,,,,,,,,,,,,,,,
1577808119.177425,65.000000,0.000000,4219.487305,4373.333496,4196.410156,4091.281982,4196.410156,450.000000,2.000000,,,,0.000000,4.000000,4.000000,4.000000,4.000000,4.000000,,,,,,,,,,,,,,,,,,,,,,,,,
1577808119.185329,66.000000,0.000000,4214.871582,4361.538574,4193.846191,4090.769287,4189.743652,16193.000000,2.000000,,,,0.000000,4.000000,4.000000,4.000000,4.000000,4.000000,,,,,,,,,,,,,,,,,,,,,,,,,
1577808119.193134,67.000000,0.000000,4204.615234,4336.922852,4193.333496,4080.512939,4176.922852,450.000000,2.000000,,,,0.000000,4.000000,4.000000,4.000000,4.000000,4.000000,,,,,,,,,,,,,,,,,,,,,,,,,
1577808119.201038,68.000000,0.000000,4208.205078,4336.922852,4202.051270,4087.692383,4179.487305,16113.000000,2.000000,,,,0.000000,4.000000,4.000000,4.000000,4.000000,4.000000,,,,,,,,,,,,,,,,,,,,,,,,,
1577808119.208842,69.000000,0.000000,4212.820313,4347.179688,4208.717773,4095.897461,4183.589844,450.000000,2.000000,,,,0.000000,4.000000,4.000000,4.000000,4.000000,4.000000,,,,,,,,,,,,,,,,,,,,,,,,,
1577808119.216647,70.000000,0.000000,4218.974121,4346.153809,4212.820313,4091.794922,4185.128418,16091.000000,2.000000,,,,0.000000,4.000000,4.000000,4.000000,4.000000,4.000000,,,,,,,,,,,,,,,,,,,,,,,,,
1577808119.224349,71.000000,0.000000,4223.077148,4343.589844,4223.077148,4092.820557,4190.256348,450.000000,2.000000,,,,0.000000,4.000000,4.000000,4.000000,4.000000,4.000000,,,,,,,,,,,,,,,,,,,,,,,,,
1577808119.232252,72.000000,0.000000,4213.333496,4337.948730,4227.692383,4082.051270,4191.282227,450.000000,2.000000,,,,0.000000,4.000000,4.000000,4.000000,4.000000,4.000000,,,,,,,,,,,,,,,,,,,,,,,,,
1577808119.240056,73.000000,0.000000,4202.563965,4327.179688,4235.897461,4075.384521,4189.743652,16083.000000,2.000000,,,,0.000000,4.000000,4.000000,4.000000,4.000000,4.000000,,,,,,,,,,,,,,,,,,,,,,,,,
1577808119.247960,74.000000,0.000000,4204.102539,4326.153809,4246.153809,4085.128174,4189.230957,450.000000,2.000000,,,,0.000000,4.000000,4.000000,4.000000,4.000000,4.000000,,,,,,,,,,,,,,,,,,,,,,,,,
1577808119.255764,75.000000,0.000000,4215.384766,4335.384766,4236.410156,4077.435791,4190.256348,16187.000000,2.000000,,,,0.000000,4.000000,4.000000,4.000000,4.000000,4.000000,,,,,,,,,,,,,,,,,,,,,,,,,
1577808119.263668,76.000000,0.000000,4225.128418,4337.436035,4236.410156,4089.230713,4197.436035,450.000000,2.000000,,,,0.000000,4.000000,4.000000,4.000000,4.000000,4.000000,,,,,,,,,,,,,,,,,,,,,,,,,
1577808119.271472,77.000000,0.000000,4223.589844,4347.179688,4247.179688,4113.333496,4203.589844,450.000000,2.000000,,,,0.000000,4.000000,4.000000,4.000000,4.000000,4.000000,,,,,,,,,,,,,,,,,,,,,,,,,
1577808119.279175,78.000000,0.000000,4215.897461,4348.717773,4241.025879,4105.641113,4194.871582,450.000000,2.000000,,,,0.000000,4.000000,4.000000,4.000000,4.000000,4.000000,6.720114,2.768977,1.679861,1.043715,1.353172,1.898427,0.908695,0.559708,0.750416,1.255123,75.195442,17.701283,11.250544,16.307478,31.060961,71.879669,32.851837,22.935326,24.978495,78.147629,5.409508,4.140188,1.518848,1.024870,1.179004
1577808119.287081,79.000000,0.000000,4212.307617,4330.256348,4241.025879,4100.000000,4185.128418,16187.000000,2.000000,,,,0.000000,4.000000,4.000000,4.000000,4.000000,4.000000,,,,,,,,,,,,,,,,,,,,,,,,,
1577808119.294886,80.000000,0.000000,4216.410156,4332.820313,4252.307617,4111.794922,4193.333496,450.000000,2.000000,,,,0.000000,4.000000,4.000000,4.000000,4.000000,4.000000,,,,,,,,,,,,,,,,,,,,,,,,,
1577808119.302792,81.000000,0.000000,4221.025879,4346.153809,4261.538574,4130.256348,4198.974121,450.000000,2.000000,,,,0.000000,4.000000,4.000000,4.000000,4.000000,4.000000,,,,,,,,,,,,,,,,,,,,,,,,,
1577808119.310597,82.000000,0.000000,4224.615234,4344.615234,4266.666504,4144.102539,4195.897461,450.000000,2.000000,,,,0.000000,4.000000,4.000000,4.000000,4.000000,4.000000,,,,,,,,,,,,,,,,,,,,,,,,,
1577808119.318402,83.000000,0.000000,4222.563965,4342.563965,4262.563965,4142.051270,4192.307617,16187.000000,2.000000,,,,0.000000,4.000000,4.000000,4.000000,4.000000,4.000000,,,,,,,,,,,,,,,,,,,,,,,,,
1577808119.326105,84.000000,0.000000,4215.384766,4342.563965,4258.461426,4134.871582,4186.666504,450.000000,2.000000,,,,0.000000,4.000000,4.000000,4.000000,4.000000,4.000000,,,,,,,,,,,,,,,,,,,,,,,,,
1577808119.333908,85.000000,0.000000,4220.000000,4343.077148,4264.102539,4130.256348,4189.743652,450.000000,2.000000,,,,0.000000,4.000000,4.000000,4.000000,4.000000,4.000000,,,,,,,,,,,,,,,,,,,,,,,,,
1577808119.341611,86.000000,0.000000,4228.717773,4345.128418,4274.358887,4140.000000,4203.077148,450.000000,2.000000,,,,0.000000,4.000000,4.000000,4.000000,4.000000,4.000000,,,,,,,,,,,,,,,,,,,,,,,,,
1577808119.349414,87.000000,0.000000,4232.307617,4347.179688,4268.205078,4144.102539,4205.128418,16187.000000,2.000000,,,,0.000000,4.000000,4.000000,4.000000,4.000000,4.000000,,,,,,,,,,,,,,,,,,,,,,,,,
1577808119.357117,88.000000,0.000000,4230.769043,4347.179688,4260.000000,4128.205078,4187.179688,450.000000,2.000000,,,,0.000000,4.000000,4.000000,4.000000,4.000000,4.000000,,,,,,,,,,,,,,,,,,,,,,,,,
1577808119.364920,89.000000,0.000000,4217.948730,4348.205078,4271.794922,4122.563965,4164.615234,450.000000,2.000000,,,,0.000000,4.000000,4.000000,4.000000,4.000000,4.000000,,,,,,,,,,,,,,,,,,,,,,,,,
1577808119.372623,90.000000,0.000000,4211.282227,4353.846191,4280.000000,4121.025879,4164.102539,450.000000,2.000000,,,,0.000000,4.000000,4.000000,4.000000,4.000000,4.000000,,,,,,,,,,,,,,,,,,,,,,,,,
1577808119.380527,91.000000,0.000000,4217.436035,4359.487305,4280.512695,4115.897461,4172.307617,16187.000000,2.000000,,,,0.000000,4.000000,4.000000,4.000000,4.000000,4.000000,,,,,,,,,,,,,,,,,,,,,,,,,
1577808119.388332,92.000000,0.000000,4217.436035,4352.820313,4293.846191,4124.615234,4168.205078,450.000000,2.000000,,,,0.000000,4.000000,4.000000,4.000000,4.000000,4.000000,,,,,,,,,,,,,,,,,,,,,,,,,
1577808119.396236,93.000000,0.000000,4217.948730,4337.436035,4301.538574,4123.589844,4171.282227,450.000000,2.000000,,,,0.000000,4.000000,4.000000,4.000000,4.000000,4.000000,,,,,,,,,,,,,,,,,,,,,,,,,
1577808119.404041,94.000000,0.000000,4219.487305,4332.307617,4293.846191,4115.384766,4180.000000,450.000000,2.000000,,,,0.000000,4.000000,4.000000,4.000000,4.000000,4.000000,5.720929,2.723332,1.742283,0.859719,1.219030,2.465786,0.877021,0.560047,0.721793,1.182437,80.023697,16.842232,11.222892,15.844607,30.682913,74.582863,34.955730,23.223063,24.548456,77.352158,4.793233,3.691475,1.613608,0.875846,1.067244
1577808119.411945,95.000000,0.000000,4221.538574,4353.333496,4286.153809,4117.948730,4182.563965,16187.000000,2.000000,,,,0.000000,4.000000,4.000000,4.000000,4.000000,4.000000,,,,,,,,,,,,,,,,,,,,,,,,,
1577808119.419851,96.000000,0.000000,4228.205078,4367.179688,4291.794922,4121.025879,4184.615234,450.000000,2.000000,,,,0.000000,4.000000,4.000000,4.000000,4.000000,4.000000,,,,,,,,,,,,,,,,,,,,,,,,,
1577808119.427657,97.000000,0.000000,4230.769043,4344.102539,4300.000000,4128.717773,4187.179688,450.000000,2.000000,,,,0.000000,4.000000,4.000000,4.000000,4.000000,4.000000,,,,,,,,,,,,,,,,,,,,,,,,,
1577808119.435464,98.000000,0.000000,4227.692383,4328.205078,4290.256348,4135.384766,4187.692383,450.000000,2.000000,,,,0.000000,4.000000,4.000000,4.000000,4.000000,4.000000,,,,,,,,,,,,,,,,,,,,,,,,,
1577808119.443168,99.000000,0.000000,4222.563965,4353.846191,4287.179688,4142.051270,4181.025879,16187.000000,2.000000,,,,0.000000,4.000000,4.000000,4.000000,4.000000,4.000000,,,,,,,,,,,,,,,,,,,,,,,,,
1577808119.450972,100.000000,0.000000,4213.846191,4367.692383,4294.871582,4149.743652,4170.256348,450.000000,2.000000,,,,0.000000,4.000000,4.000000,4.000000,4.000000,4.000000,,,,,,,,,,,,,,,,,,,,,,,,,
1577808119.458676,101.000000,0.000000,4213.846191,4354.358887,4289.230957,4143.589844,4169.230957,450.000000,2.000000,,,,0.000000,4.000000,4.000000,4.000000,4.000000,4.000000,,,,,,,,,,,,,,,,,,,,,,,,,
1577808119.466480,102.000000,0.000000,4225.128418,4362.563965,4293.333496,4139.487305,4179.487305,450.000000,2.000000,,,,0.000000,4.000000,4.000000,4.000000,4.000000,4.000000,,,,,,,,,,,,,,,,,,,,,,,,,
1577808119.474183,103.000000,0.000000,4215.897461,4370.256348,4295.897461,4133.333496,4170.769043,16187.000000,2.000000,,,,0.000000,4.000000,4.000000,4.000000,4.000000,4.000000,,,,,,,,,,,,,,,,,,,,,,,,,
1577808119.481987,104.000000,0.000000,4200.512695,4353.333496,4287.692383,4133.846191,4150.256348,450.000000,2.000000,,,,0.000000,4.000000,4.000000,4.000000,4.000000,4.000000,,,,,,,,,,,,,,,,,,,,,,,,,
1577808119.489690,105.000000,0.000000,4227.179688,4353.846191,4296.410156,4149.743652,4168.717773,450.000000,2.000000,,,,0.000000,4.000000,4.000000,4.000000,4.000000,4.000000,,,,,,,,,,,,,,,,,,,,,,,,,
1577808119.497494,106.000000,0.000000,4249.230957,4365.128418,4289.743652,4145.641113,4197.436035,450.000000,2.000000,,,,0.000000,4.000000,4.000000,4.000000,4.000000,4.000000,,,,,,,,,,,,,,,,,,,,,,,,,
1577808119.505197,107.000000,0.000000,4230.769043,4363.077148,4266.666504,4137.948730,4191.794922,16187.000000,2.000000,,,,0.000000,4.000000,4.000000,4.000000,4.000000,4.000000,,,,,,,,,,,,,,,,,,,,,,,,,
1577808119.513000,108.000000,0.000000,4236.410156,4363.589844,4271.282227,4148.717773,4194.358887,450.000000,2.000000,,,,0.000000,4.000000,4.000000,4.000000,4.000000,4.000000,,,,,,,,,,,,,,,,,,,,,,,,,
1577808119.520703,109.000000,0.000000,4261.538574,4358.974121,4285.641113,4145.128418,4210.769043,450.000000,2.000000,,,,0.000000,4.000000,4.000000,4.000000,4.000000,4.000000,,,,,,,,,,,,,,,,,,,,,,,,,
1577808119.528506,110.000000,0.000000,4255.897461,4347.179688,4280.512695,4128.205078,4206.666504,450.000000,2.000000,,,,0.000000,4.000000,4.000000,4.000000,4.000000,4.000000,4.465186,2.643838,1.709326,0.696802,1.079698,2.890748,0.830833,0.587913,0.730516,1.124324,79.723015,14.711076,9.685252,13.276387,26.029465,76.309761,32.917698,20.221878,20.899252,65.706161,4.432648,3.255781,1.586961,0.784867,0.943678
1577808119.536209,111.000000,0.000000,4235.897461,4351.282227,4278.974121,4130.769043,4193.333496,16187.000000,2.000000,,,,0.000000,4.000000,4.000000,4.000000,4.000000,4.000000,,,,,,,,,,,,,,,,,,,,,,,,,
1577808119.544113,112.000000,0.000000,4230.769043,4357.948730,4296.410156,4156.922852,4188.205078,450.000000,2.000000,,,,0.000000,4.000000,4.000000,4.000000,4.000000,4.000000,,,,,,,,,,,,,,,,,,,,,,,,,
1577808119.551918,113.000000,0.000000,4241.025879,4361.538574,4300.512695,4165.641113,4186.666504,450.000000,2.000000,,,,0.000000,4.000000,4.000000,4.000000,4.000000,4.000000,,,,,,,,,,,,,,,,,,,,,,,,,
1577808119.559823,114.000000,0.000000,4243.077148,4362.051270,4294.358887,4168.205078,4189.230957,450.000000,2.000000,,,,0.000000,4.000000,4.000000,4.000000,4.000000,4.000000,,,,,,,,,,,,,,,,,,,,,,,,,
1577808119.567628,115.000000,0.000000,4227.692383,4356.410156,4298.461426,4192.307617,4193.846191,16187.000000,2.000000,,,,0.000000,4.000000,4.000000,4.000000,4.000000,4.000000,,,,,,,,,,,,,,,,,,,,,,,,,
1577808119.575532,116.000000,0.000000,4215.897461,4350.769043,4298.974121,4190.256348,4190.256348,450.000000,2.000000,,,,0.000000,4.000000,4.000000,4.000000,4.000000,4.000000,,,,,,,,,,,,,,,,,,,,,,,,,
1577808119.583337,117.000000,0.000000,4207.692383,4339.487305,4293.846191,4171.282227,4171.794922,450.000000,2.000000,,,,0.000000,4.000000,4.000000,4.000000,4.000000,4.000000,,,,,,,,,,,,,,,,,,,,,,,,,
1577808119.591241,118.000000,0.000000,4206.666504,4340.512695,4289.743652,4175.384766,4168.205078,450.000000,2.000000,,,,0.000000,4.000000,4.000000,4.000000,4.000000,4.000000,,,,,,,,,,,,,,,,,,,,,,,,,
1577808119.599046,119.000000,0.000000,4226.153809,4368.205078,4293.333496,4191.794922,4190.769043,16187.000000,2.000000,,,,0.000000,4.000000,4.000000,4.000000,4.000000,4.000000,,,,,,,,,,,,,,,,,,,,,,,,,
1577808119.606950,120.000000,0.000000,4237.948730,4381.025879,4300.000000,4189.743652,4198.974121,450.000000,2.000000,,,,0.000000,4.000000,4.000000,4.000000,4.000000,4.000000,,,,,,,,,,,,,,,,,,,,,,,,,
1577808119.614754,121.000000,0.000000,4226.666504,4357.436035,4289.230957,4161.538574,4181.538574,450.000000,2.000000,,,,0.000000,4.000000,4.000000,4.000000,4.000000,4.000000,,,,,,,,,,,,,,,,,,,,,,,,,
1577808119.622658,122.000000,0.000000,4228.205078,4353.846191,4285.128418,4162.051270,4179.487305,450.000000,2.000000,,,,0.000000,4.000000,4.000000,4.000000,4.000000,4.000000,,,,,,,,,,,,,,,,,,,,,,,,,
1577808119.630462,123.000000,0.000000,4239.487305,4370.769043,4288.717773,4173.846191,4195.384766,16187.000000,2.000000,,,,0.000000,4.000000,4.000000,4.000000,4.000000,4.000000,,,,,,,,,,,,,,,,,,,,,,,,,
1577808119.638266,124.000000,0.000000,4237.436035,4365.641113,4289.230957,4164.615234,4200.512695,450.000000,2.000000,,,,0.000000,4.000000,4.000000,4.000000,4.000000,4.000000,,,,,,,,,,,,,,,,,,,,,,,,,
1577808119.646070,125.000000,0.000000,4242.051270,4356.922852,4301.538574,4178.974121,4201.025879,450.000000,2.000000,,,,0.000000,4.000000,4.000000,4.000000,4.000000,4.000000,,,,,,,,,,,,,,,,,,,,,,,,,
1577808119.653974,126.000000,0.000000,4246.666504,4360.512695,4294.358887,4179.487305,4193.846191,450.000000,2.000000,,,,0.000000,4.000000,4.000000,4.000000,4.000000,4.000000,3.554257,2.514144,1.602407,0.574076,0.967263,2.996020,0.747842,0.616355,0.751969,1.088712,72.816597,11.700413,7.106723,9.450942,18.736597,73.648033,27.374279,15.050455,15.295011,47.332153,4.520624,2.922581,1.461902,0.753274,0.834903
1577808119.661777,127.000000,0.000000,4227.692383,4366.153809,4271.794922,4151.794922,4172.307617,229.000000,2.000000,,,,0.000000,4.000000,4.000000,4.000000,4.000000,4.000000,,,,,,,,,,,,,,,,,,,,,,,,,
1577808119.669481,0.000000,0.000000,4214.358887,4374.358887,4269.743652,4145.128418,4170.256348,450.000000,2.000000,,,,0.000000,4.000000,4.000000,4.000000,4.000000,4.000000,,,,,,,,,,,,,,,,,,,,,,,,,
1577808119.677386,1.000000,0.000000,4222.051270,4371.282227,4270.256348,4148.717773,4184.102539,450.000000,2.000000,,,,0.000000,4.000000,4.000000,4.000000,4.000000,4.000000,,,,,,,,,,,,,,,,,,,,,,,,,
1577808119.685192,2.000000,0.000000,4231.282227,4357.436035,4266.666504,4152.307617,4183.077148,16185.000000,2.000000,,,,0.000000,4.000000,4.000000,4.000000,4.000000,4.000000,,,,,,,,,,,,,,,,,,,,,,,,,
1577808119.692998,3.000000,0.000000,4228.717773,4360.512695,4250.769043,4150.256348,4177.948730,450.000000,2.000000,,,,0.000000,4.000000,4.000000,4.000000,4.000000,4.000000,,,,,,,,,,,,,,,,,,,,,,,,,
1577808119.700701,4.000000,0.000000,4214.358887,4367.692383,4227.179688,4143.589844,4171.794922,16111.000000,2.000000,,,,0.000000,4.000000,4.000000,4.000000,4.000000,4.000000,,,,,,,,,,,,,,,,,,,,,,,,,
1577808119.708606,5.000000,0.000000,4221.538574,4360.512695,4231.794922,4145.128418,4171.794922,450.000000,2.000000,,,,0.000000,4.000000,4.000000,4.000000,4.000000,4.000000,,,,,,,,,,,,,,,,,,,,,,,,,
1577808119.716411,6.000000,0.000000,4252.820313,4349.743652,4251.794922,4146.153809,4198.461426,16093.000000,2.000000,,,,0.000000,4.000000,4.000000,4.000000,4.000000,4.000000,,,,,,,,,,,,,,,,,,,,,,,,,
1577808119.724316,7.000000,0.000000,4258.974121,4357.948730,4266.153809,4148.205078,4218.461426,450.000000,2.000000,,,,0.000000,4.000000,4.000000,4.000000,4.000000,4.000000,,,,,,,,,,,,,,,,,,,,,,,,,
1577808119.732121,8.000000,0.000000,4245.641113,4384.615234,4267.179688,4137.948730,4207.179688,450.000000,2.000000,,,,0.000000,4.000000,4.000000,4.000000,4.000000,4.000000,,,,,,,,,,,,,,,,,,,,,,,,,
1577808119.740026,9.000000,0.000000,4248.717773,4382.051270,4254.358887,4124.615234,4197.436035,16078.000000,2.000000,,,,0.000000,4.000000,4.000000,4.000000,4.000000,4.000000,,,,,,,,,,,,,,,,,,,,,,,,,
1577808119.747831,10.000000,0.000000,4248.717773,4358.974121,4249.743652,4133.333496,4194.358887,450.000000,2.000000,,,,0.000000,4.000000,4.000000,4.000000,4.000000,4.000000,,,,,,,,,,,,,,,,,,,,,,,,,
1577808119.755735,11.000000,0.000000,4235.384766,4359.487305,4248.717773,4134.871582,4182.051270,16183.000000,2.000000,,,,0.000000,4.000000,4.000000,4.000000,4.000000,4.000000,,,,,,,,,,,,,,,,,,,,,,,,,
1577808119.763540,12.000000,0.000000,4224.615234,4355.897461,4244.615234,4132.820313,4169.230957,450.000000,2.000000,,,,0.000000,4.000000,4.000000,4.000000,4.000000,4.000000,,,,,,,,,,,,,,,,,,,,,,,,,
1577808119.771444,13.000000,0.000000,4217.436035,4333.846191,4234.358887,4136.410156,4162.051270,450.000000,2.000000,,,,0.000000,4.000000,4.000000,4.000000,4.000000,4.000000,,,,,,,,,,,,,,,,,,,,,,,,,
1577808119.779249,14.000000,0.000000,4221.538574,4346.153809,4221.025879,4136.922852,4163.589844,450.000000,2.000000,,,,0.000000,4.000000,4.000000,4.000000,4.000000,4.000000,3.046635,2.323332,1.451512,0.499709,0.888889,2.789620,0.626226,0.611389,0.768415,1.066026,61.372890,8.545675,4.331273,5.568300,11.162844,65.014648,20.111753,9.419080,9.520154,28.181612,4.939247,2.728353,1.282260,0.762076,0.751752
1577808119.787153,15.000000,0.000000,4233.846191,4381.538574,4226.153809,4153.333496,4176.410156,16183.000000,2.000000,,,,0.000000,4.000000,4.000000,4.000000,4.000000,4.000000,,,,,,,,,,,,,,,,,,,,,,,,,
1577808119.794958,16.000000,0.000000,4239.487305,4383.077148,4226.153809,4151.282227,4183.589844,0.000000,2.000000,,,,0.000000,4.000000,4.000000,4.000000,4.000000,4.000000,,,,,,,,,,,,,,,,,,,,,,,,,
1577808119.802862,17.000000,0.000000,4237.948730,4364.102539,4217.436035,4128.717773,4184.102539,0.000000,2.000000,,,,0.000000,4.000000,4.000000,4.000000,4.000000,4.000000,,,,,,,,,,,,,,,,,,,,,,,,,
1577808119.810666,18.000000,0.000000,4230.769043,4356.922852,4214.871582,4130.769043,4180.000000,0.000000,2.000000,,,,0.000000,4.000000,4.000000,4.000000,4.000000,4.000000,,,,,,,,,,,,,,,,,,,,,,,,,
1577808119.818570,19.000000,0.000000,4215.384766,4353.846191,4202.051270,4131.282227,4164.615234,0.000000,2.000000,,,,0.000000,4.000000,4.000000,4.000000,4.000000,4.000000,,,,,,,,,,,,,,,,,,,,,,,,,
1577808119.826374,20.000000,0.000000,4224.102539,4354.358887,4205.641113,4130.256348,4171.794922,0.000000,2.000000,,,,0.000000,4.000000,4.000000,4.000000,4.000000,4.000000,,,,,,,,,,,,,,,,,,,,,,,,,
1577808119.834077,21.000000,0.000000,4262.051270,4358.461426,4231.282227,4151.794922,4207.692383,0.000000,2.000000,,,,0.000000,4.000000,4.000000,4.000000,4.000000,4.000000,,,,,,,,,,,,,,,,,,,,,,,,,
1577808119.841881,22.000000,0.000000,4268.717773,4357.436035,4241.538574,4165.128418,4214.358887,0.000000,2.000000,,,,0.000000,4.000000,4.000000,4.000000,4.000000,4.000000,,,,,,,,,,,,,,,,,,,,,,,,,
1577808119.849585,23.000000,0.000000,4250.256348,4366.153809,4247.179688,4155.384766,4196.410156,0.000000,2.000000,,,,0.000000,4.000000,4.000000,4.000000,4.000000,4.000000,,,,,,,,,,,,,,,,,,,,,,,,,
1577808119.857491,24.000000,0.000000,4256.922852,4384.615234,4261.025879,4154.871582,4200.512695,0.000000,2.000000,,,,0.000000,4.000000,4.000000,4.000000,4.000000,4.000000,,,,,,,,,,,,,,,,,,,,,,,,,
1577808119.865296,25.000000,0.000000,4262.563965,4378.461426,4265.641113,4163.589844,4209.743652,0.000000,2.000000,,,,0.000000,4.000000,4.000000,4.000000,4.000000,4.000000,,,,,,,,,,,,,,,,,,,,,,,,,
1577808119.873102,26.000000,0.000000,4256.922852,4368.717773,4258.974121,4154.358887,4207.179688,0.000000,2.000000,,,,0.000000,4.000000,4.000000,4.000000,4.000000,4.000000,,,,,,,,,,,,,,,,,,,,,,,,,
1577808119.880806,27.000000,0.000000,4258.974121,4379.487305,4262.563965,4162.051270,4201.538574,0.000000,2.000000,,,,0.000000,4.000000,4.000000,4.000000,4.000000,4.000000,,,,,,,,,,,,,,,,,,,,,,,,,
1577808119.888609,28.000000,0.000000,4256.922852,4371.794922,4266.666504,4193.846191,4195.897461,0.000000,2.000000,,,,0.000000,4.000000,4.000000,4.000000,4.000000,4.000000,,,,,,,,,,,,,,,,,,,,,,,,,
1577808119.896312,29.000000,0.000000,4253.846191,4357.436035,4270.256348,4205.128418,4202.051270,0.000000,2.000000,,,,0.000000,4.000000,4.000000,4.000000,4.000000,4.000000,,,,,,,,,,,,,,,,,,,,,,,,,
1577808119.904115,30.000000,0.000000,4253.333496,4371.282227,4285.641113,4208.717773,4200.512695,0.000000,2.000000,,,,0.000000,4.000000,4.000000,4.000000,4.000000,4.000000,2.935313,2.132082,1.274446,0.468179,0.832643,2.370985,0.490806,0.553524,0.775142,1.039556,47.175407,5.979980,2.147252,2.618981,5.293297,52.127979,13.327523,4.877549,5.057023,13.286935,5.471718,2.689577,1.092406,0.781815,0.692204
1577808119.911818,31.000000,0.000000,4256.922852,4385.641113,4292.820313,4204.615234,4191.282227,0.000000,2.000000,,,,0.000000,4.000000,4.000000,4.000000,4.000000,4.000000,,,,,,,,,,,,,,,,,,,,,,,,,
1577808119.919621,32.000000,0.000000,4256.922852,4376.922852,4301.538574,4197.948730,4186.666504,0.000000,2.000000,,,,0.000000,4.000000,4.000000,4.000000,4.000000,4.000000,,,,,,,,,,,,,,,,,,,,,,,,,
1577808119.927324,33.000000,0.000000,4246.153809,4368.205078,4308.717773,4192.820313,4179.487305,0.000000,2.000000,,,,0.000000,4.000000,4.000000,4.000000,4.000000,4.000000,,,,,,,,,,,,,,,,,,,,,,,,,
1577808119.935126,34.000000,0.000000,4252.307617,4368.717773,4303.589844,4169.230957,4190.256348,0.000000,2.000000,,,,0.000000,4.000000,4.000000,4.000000,4.000000,4.000000,,,,,,,,,,,,,,,,,,,,,,,,,
1577808119.942829,35.000000,0.000000,4264.615234,4364.615234,4317.436035,4178.974121,4210.769043,0.000000,2.000000,,,,0.000000,4.000000,4.000000,4.000000,4.000000,4.000000,,,,,,,,,,,,,,,,,,,,,,,,,
1577808119.950631,36.000000,0.000000,4250.256348,4367.692383,4322.051270,4198.974121,4208.205078,0.000000,2.000000,,,,0.000000,4.000000,4.000000,4.000000,4.000000,4.000000,,,,,,,,,,,,,,,,,,,,,,,,,
1577808119.958334,37.000000,0.000000,4237.436035,4380.000000,4315.897461,4177.436035,4194.358887,0.000000,2.000000,,,,0.000000,4.000000,4.000000,4.000000,4.000000,4.000000,,,,,,,,,,,,,,,,,,,,,,,,,
1577808119.966238,38.000000,0.000000,4248.717773,4376.410156,4333.333496,4172.820313,4196.410156,0.000000,2.000000,,,,0.000000,4.000000,4.000000,4.000000,4.000000,4.000000,,,,,,,,,,,,,,,,,,,,,,,,,
1577808119.974042,39.000000,0.000000,4247.179688,4355.384766,4329.743652,4177.436035,4195.384766,0.000000,2.000000,,,,0.000000,4.000000,4.000000,4.000000,4.000000,4.000000,,,,,,,,,,,,,,,,,,,,,,,,,
1577808119.981847,40.000000,0.000000,4229.743652,4352.820313,4306.666504,4170.256348,4179.487305,0.000000,2.000000,,,,0.000000,4.000000,4.000000,4.000000,4.000000,4.000000,,,,,,,,,,,,,,,,,,,,,,,,,
1577808119.989549,41.000000,0.000000,4231.794922,4362.563965,4297.948730,4167.692383,4171.794922,0.000000,2.000000,,,,0.000000,4.000000,4.000000,4.000000,4.000000,4.000000,,,,,,,,,,,,,,,,,,,,,,,,,
1577808119.997453,42.000000,0.000000,4238.461426,4349.743652,4298.974121,4153.846191,4178.461426,0.000000,2.000000,,,,0.000000,4.000000,4.000000,4.000000,4.000000,4.000000,,,,,,,,,,,,,,,,,,,,,,,,,
1577808120.005257,43.000000,0.000000,4241.025879,4348.717773,4308.717773,4152.820313,4190.769043,0.000000,2.000000,,,,0.000000,4.000000,4.000000,4.000000,4.000000,4.000000,,,,,,,,,,,,,,,,,,,,,,,,,
1577808120.013161,44.000000,0.000000,4242.563965,4372.820313,4300.512695,4154.358887,4193.846191,0.000000,2.000000,,,,0.000000,4.000000,4.000000,4.000000,4.000000,4.000000,,,,,,,,,,,,,,,,,,,,,,,,,
1577808120.020964,45.000000,0.000000,4237.948730,4370.256348,4283.077148,4143.077148,4185.128418,0.000000,2.000000,,,,0.000000,4.000000,4.000000,4.000000,4.000000,4.000000,,,,,,,,,,,,,,,,,,,,,,,,,
1577808120.028668,46.000000,0.000000,4243.589844,4350.769043,4283.077148,4153.846191,4189.743652,0.000000,2.000000,,,,0.000000,4.000000,4.000000,4.000000,4.000000,4.000000,3.010726,2.068780,1.089821,0.469360,0.785721,1.833130,0.375907,0.466094,0.789145,1.001629,33.083427,4.266536,0.915730,0.986356,1.950934,37.389744,8.484921,2.204419,2.493657,4.754163,5.764578,2.829331,0.948397,0.792004,0.653099
1577808120.036472,47.000000,0.000000,4250.256348,4347.179688,4277.948730,4171.794922,4192.307617,0.000000,2.000000,,,,0.000000,4.000000,4.000000,4.000000,4.000000,4.000000,,,,,,,,,,,,,,,,,,,,,,,,,
1577808120.044175,48.000000,0.000000,4241.538574,4336.922852,4263.589844,4173.333496,4176.410156,0.000000,2.000000,,,,0.000000,4.000000,4.000000,4.000000,4.000000,4.000000,,,,,,,,,,,,,,,,,,,,,,,,,
1577808120.051979,49.000000,0.000000,4235.384766,4320.512695,4251.282227,4164.102539,4172.820313,0.000000,2.000000,,,,0.000000,4.000000,4.000000,4.000000,4.000000,4.000000,,,,,,,,,,,,,,,,,,,,,,,,,
1577808120.059682,50.000000,0.000000,4237.948730,4324.615234,4250.769043,4176.922852,4181.025879,0.000000,2.000000,,,,0.000000,4.000000,4.000000,4.000000,4.000000,4.000000,,,,,,,,,,,,,,,,,,,,,,,,,
1577808120.067486,51.000000,0.000000,4237.436035,4340.512695,4260.000000,4200.000000,4181.025879,0.000000,2.000000,,,,0.000000,4.000000,4.000000,4.000000,4.000000,4.000000,,,,,,,,,,,,,,,,,,,,,,,,,
1577808120.075189,52.000000,0.000000,4241.538574,4351.282227,4259.487305,4196.922852,4189.743652,0.000000,2.000000,,,,0.000000,4.000000,4.000000,4.000000,4.000000,4.000000,,,,,,,,,,,,,,,,,,,,,,,,,
1577808120.082992,53.000000,0.000000,4255.897461,4347.179688,4268.717773,4203.589844,4207.179688,0.000000,2.000000,,,,0.000000,4.000000,4.000000,4.000000,4.000000,4.000000,,,,,,,,,,,,,,,,,,,,,,,,,
1577808120.090696,54.000000,0.000000,4253.846191,4330.769043,4274.358887,4209.230957,4199.487305,0.000000,2.000000,,,,0.000000,4.000000,4.000000,4.000000,4.000000,4.000000,,,,,,,,,,,,,,,,,,,,,,,,,
1577808120.098601,55.000000,0.000000,4236.410156,4328.205078,4257.436035,4190.769043,4181.025879,0.000000,2.000000,,,,0.000000,4.000000,4.000000,4.000000,4.000000,4.000000,,,,,,,,,,,,,,,,,,,,,,,,,
1577808120.106406,56.000000,0.000000,4246.153809,4345.128418,4262.563965,4188.717773,4194.871582,0.000000,2.000000,,,,0.000000,4.000000,4.000000,4.000000,4.000000,4.000000,,,,,,,,,,,,,,,,,,,,,,,,,
1577808120.114312,57.000000,0.000000,4274.358887,4351.794922,4273.846191,4182.563965,4215.897461,0.000000,2.000000,,,,0.000000,4.000000,4.000000,4.000000,4.000000,4.000000,,,,,,,,,,,,,,,,,,,,,,,,,
1577808120.122119,58.000000,0.000000,4272.820313,4336.410156,4260.000000,4167.692383,4211.794922,0.000000,2.000000,,,,0.000000,4.000000,4.000000,4.000000,4.000000,4.000000,,,,,,,,,,,,,,,,,,,,,,,,,
1577808120.129925,59.000000,0.000000,4249.743652,4326.153809,4250.256348,4164.102539,4205.641113,0.000000,2.000000,,,,0.000000,4.000000,4.000000,4.000000,4.000000,4.000000,,,,,,,,,,,,,,,,,,,,,,,,,
1577808120.137828,60.000000,0.000000,4239.487305,4332.820313,4251.282227,4148.205078,4202.563965,0.000000,2.000000,,,,0.000000,4.000000,4.000000,4.000000,4.000000,4.000000,,,,,,,,,,,,,,,,,,,,,,,,,
1577808120.145732,61.000000,0.000000,4240.512695,4333.846191,4255.384766,4146.666504,4191.282227,0.000000,2.000000,,,,0.000000,4.000000,4.000000,4.000000,4.000000,4.000000,,,,,,,,,,,,,,,,,,,,,,,,,
1577808120.153537,62.000000,0.000000,4251.282227,4323.077148,4257.436035,4169.230957,4199.487305,0.000000,2.000000,,,,0.000000,4.000000,4.000000,4.000000,4.000000,4.000000,3.006003,2.237634,0.914352,0.503616,0.747761,1.426636,0.304338,0.413636,0.843677,0.957130,20.871544,3.390207,0.520512,0.427105,0.707960,23.711430,5.845165,1.211476,1.476787,1.524361,5.590936,3.136380,0.884858,0.798296,0.636428
1577808120.161441,63.000000,0.000000,4253.846191,4317.436035,4246.153809,4175.897461,4207.692383,0.000000,2.000000,,,,0.000000,4.000000,4.000000,4.000000,4.000000,4.000000,,,,,,,,,,,,,,,,,,,,,,,,,
1577808120.169246,64.000000,0.000000,4241.025879,4324.615234,4232.820313,4173.846191,4189.743652,450.000000,2.000000,,,,0.000000,4.000000,4.000000,4.000000,4.000000,4.000000,,,,,,,,,,,,,,,,,,,,,,,,,
1577808120.177150,65.000000,0.000000,4236.410156,4329.230957,4226.153809,4181.025879,4181.538574,450.000000,2.000000,,,,0.000000,4.000000,4.000000,4.000000,4.000000,4.000000,,,,,,,,,,,,,,,,,,,,,,,,,
1577808120.184954,66.000000,0.000000,4226.666504,4316.410156,4218.461426,4186.153809,4178.974121,16187.000000,2.000000,,,,0.000000,4.000000,4.000000,4.000000,4.000000,4.000000,,,,,,,,,,,,,,,,,,,,,,,,,
1577808120.192858,67.000000,0.000000,4217.948730,4318.974121,4214.358887,4182.563965,4174.358887,450.000000,2.000000,,,,0.000000,4.000000,4.000000,4.000000,4.000000,4.000000,,,,,,,,,,,,,,,,,,,,,,,,,
1577808120.200662,68.000000,0.000000,4244.615234,4345.641113,4226.153809,4187.179688,4192.307617,16120.000000,2.000000,,,,0.000000,4.000000,4.000000,4.000000,4.000000,4.000000,,,,,,,,,,,,,,,,,,,,,,,,,
1577808120.208366,69.000000,0.000000,4275.384766,4359.487305,4250.256348,4201.025879,4217.948730,450.000000,2.000000,,,,0.000000,4.000000,4.000000,4.000000,4.000000,4.000000,,,,,,,,,,,,,,,,,,,,,,,,,
1577808120.216170,70.000000,0.000000,4270.256348,4351.794922,4253.846191,4181.538574,4215.384766,16095.000000,2.000000,,,,0.000000,4.000000,4.000000,4.000000,4.000000,4.000000,,,,,,,,,,,,,,,,,,,,,,,,,
1577808120.223874,71.000000,0.000000,4251.282227,4337.436035,4243.589844,4156.922852,4195.897461,450.000000,2.000000,,,,0.000000,4.000000,4.000000,4.000000,4.000000,4.000000,,,,,,,,,,,,,,,,,,,,,,,,,
1577808120.231678,72.000000,0.000000,4252.820313,4334.871582,4244.102539,4165.641113,4196.410156,450.000000,2.000000,,,,0.000000,4.000000,4.000000,4.000000,4.000000,4.000000,,,,,,,,,,,,,,,,,,,,,,,,,
1577808120.239381,73.000000,0.000000,4260.000000,4342.051270,4251.794922,4172.307617,4211.794922,16084.000000,2.000000,,,,0.000000,4.000000,4.000000,4.000000,4.000000,4.000000,,,,,,,,,,,,,,,,,,,,,,,,,
1577808120.247287,74.000000,0.000000,4253.333496,4343.077148,4261.025879,4172.820313,4209.230957,450.000000,2.000000,,,,0.000000,4.000000,4.000000,4.000000,4.000000,4.000000,,,,,,,,,,,,,,,,,,,,,,,,,
1577808120.255092,75.000000,0.000000,4241.538574,4335.384766,4255.897461,4173.333496,4183.077148,16186.000000,2.000000,,,,0.000000,4.000000,4.000000,4.000000,4.000000,4.000000,,,,,,,,,,,,,,,,,,,,,,,,,
1577808120.262898,76.000000,0.000000,4235.897461,4323.077148,4254.358887,4175.384766,4166.666504,450.000000,2.000000,,,,0.000000,4.000000,4.000000,4.000000,4.000000,4.000000,,,,,,,,,,,,,,,,,,,,,,,,,
1577808120.270602,77.000000,0.000000,4243.589844,4324.615234,4267.692383,4178.461426,4180.000000,450.000000,2.000000,,,,0.000000,4.000000,4.000000,4.000000,4.000000,4.000000,,,,,,,,,,,,,,,,,,,,,,,,,
1577808120.278405,78.000000,0.000000,4253.846191,4338.974121,4273.333496,4162.051270,4190.256348,450.000000,2.000000,,,,0.000000,4.000000,4.000000,4.000000,4.000000,4.000000,2.876876,2.674311,0.772052,0.571133,0.728092,1.118364,0.281761,0.449676,0.961664,0.915385,12.423816,3.095555,0.522969,0.394198,0.490936,13.542826,4.616183,1.153150,1.198591,0.895630,4.978920,3.587679,0.908185,0.818309,0.645244
1577808120.286108,79.000000,0.000000,4240.512695,4340.512695,4272.820313,4149.230957,4173.333496,16186.000000,2.000000,,,,0.000000,4.000000,4.000000,4.000000,4.000000,4.000000,,,,,,,,,,,,,,,,,,,,,,,,,
1577808120.294013,80.000000,0.000000,4235.384766,4344.102539,4276.922852,4153.846191,4174.358887,450.000000,2.000000,,,,0.000000,4.000000,4.000000,4.000000,4.000000,4.000000,,,,,,,,,,,,,,,,,,,,,,,,,
1577808120.301818,81.000000,0.000000,4249.743652,4349.230957,4285.641113,4158.974121,4196.922852,450.000000,2.000000,,,,0.000000,4.000000,4.000000,4.000000,4.000000,4.000000,,,,,,,,,,,,,,,,,,,,,,,,,
1577808120.309623,82.000000,0.000000,4249.230957,4336.922852,4280.512695,4142.563965,4190.256348,450.000000,2.000000,,,,0.000000,4.000000,4.000000,4.000000,4.000000,4.000000,,,,,,,,,,,,,,,,,,,,,,,,,
1577808120.317326,83.000000,0.000000,4248.717773,4336.410156,4269.230957,4117.948730,4181.538574,16186.000000,2.000000,,,,0.000000,4.000000,4.000000,4.000000,4.000000,4.000000,,,,,,,,,,,,,,,,,,,,,,,,,
1577808120.325128,84.000000,0.000000,4261.538574,4350.256348,4276.922852,4130.769043,4198.461426,450.000000,2.000000,,,,0.000000,4.000000,4.000000,4.000000,4.000000,4.000000,,,,,,,,,,,,,,,,,,,,,,,,,
1577808120.332831,85.000000,0.000000,4264.615234,4343.589844,4283.077148,4143.589844,4210.256348,450.000000,2.000000,,,,0.000000,4.000000,4.000000,4.000000,4.000000,4.000000,,,,,,,,,,,,,,,,,,,,,,,,,
1577808120.340633,86.000000,0.000000,4260.000000,4334.871582,4274.871582,4135.384766,4206.666504,450.000000,2.000000,,,,0.000000,4.000000,4.000000,4.000000,4.000000,4.000000,,,,,,,,,,,,,,,,,,,,,,,,,
1577808120.348336,87.000000,0.000000,4269.230957,4352.307617,4273.333496,4138.974121,4210.769043,16186.000000,2.000000,,,,0.000000,4.000000,4.000000,4.000000,4.000000,4.000000,,,,,,,,,,,,,,,,,,,,,,,,,
1577808120.356240,88.000000,0.000000,4287.692383,4357.436035,4265.641113,4139.487305,4222.563965,450.000000,2.000000,,,,0.000000,4.000000,4.000000,4.000000,4.000000,4.000000,,,,,,,,,,,,,,,,,,,,,,,,,
1577808120.364045,89.000000,0.000000,4304.102539,4345.128418,4259.487305,4142.051270,4232.820313,450.000000,2.000000,,,,0.000000,4.000000,4.000000,4.000000,4.000000,4.000000,,,,,,,,,,,,,,,,,,,,,,,,,
1577808120.371850,90.000000,0.000000,4317.948730,4345.128418,4257.436035,4149.743652,4248.205078,450.000000,2.000000,,,,0.000000,4.000000,4.000000,4.000000,4.000000,4.000000,,,,,,,,,,,,,,,,,,,,,,,,,
1577808120.379552,91.000000,0.000000,4329.230957,4347.692383,4242.563965,4151.282227,4262.051270,16186.000000,2.000000,,,,0.000000,4.000000,4.000000,4.000000,4.000000,4.000000,,,,,,,,,,,,,,,,,,,,,,,,,
1577808120.387354,92.000000,0.000000,4353.333496,4343.589844,4232.307617,4158.461426,4275.897461,450.000000,2.000000,,,,0.000000,4.000000,4.000000,4.000000,4.000000,4.000000,,,,,,,,,,,,,,,,,,,,,,,,,
1577808120.395056,93.000000,0.000000,4372.307617,4331.794922,4212.820313,4146.666504,4282.563965,450.000000,2.000000,,,,0.000000,4.000000,4.000000,4.000000,4.000000,4.000000,,,,,,,,,,,,,,,,,,,,,,,,,
1577808120.402959,94.000000,0.000000,4375.897461,4320.512695,4198.461426,4136.922852,4283.589844,450.000000,2.000000,,,,0.000000,4.000000,4.000000,4.000000,4.000000,4.000000,2.710328,3.249135,0.685813,0.675169,0.734483,1.010808,0.312973,0.585788,1.139540,0.882219,7.533187,3.111608,0.587115,0.488536,0.466602,8.316749,3.879161,1.327998,1.080557,0.766732,4.155973,4.040758,1.000962,0.869587,0.677631
1577808120.410865,95.000000,0.000000,4399.487305,4333.333496,4214.358887,4153.333496,4308.205078,16186.000000,2.000000,,,,0.000000,4.000000,4.000000,4.000000,4.000000,4.000000,,,,,,,,,,,,,,,,,,,,,,,,,
