title:voltage_measure, start timestamp:2019-12-31T18:37:42.745999+03:00, stop timestamp:2019-12-31T18:37:58.963848+03:00, headset type:INSIGHT, headset serial:A2D200FB, headset firmware:930, subject name:Usman, channels:44, sampling rate:eeg_128;pow_8, samples:2072      , version:2.0
Timestamp,EEG.Counter,EEG.Interpolated,EEG.AF3,EEG.T7,EEG.Pz,EEG.T8,EEG.AF4,EEG.RawCq,EEG.Battery,MarkerIndex,MarkerType,MarkerValueInt,EEG.MarkerHardware,CQ.AF3,CQ.T7,CQ.Pz,CQ.T8,CQ.AF4,POW.AF3.Theta,POW.AF3.Alpha,POW.AF3.BetaL,POW.AF3.BetaH,POW.AF3.Gamma,POW.T7.Theta,POW.T7.Alpha,POW.T7.BetaL,POW.T7.BetaH,POW.T7.Gamma,POW.Pz.Theta,POW.Pz.Alpha,POW.Pz.BetaL,POW.Pz.BetaH,POW.Pz.Gamma,POW.T8.Theta,POW.T8.Alpha,POW.T8.BetaL,POW.T8.BetaH,POW.T8.Gamma,POW.AF4.Theta,POW.AF4.Alpha,POW.AF4.BetaL,POW.AF4.BetaH,POW.AF4.Gamma
1577806662.745999,9.000000,0.000000,4637.436035,4711.282227,4363.077148,4558.461426,4595.384766,43.000000,2.000000,,,,0.000000,0.000000,0.000000,0.000000,1.000000,0.000000,,,,,,,,,,,,,,,,,,,,,,,,,
1577806662.753908,10.000000,0.000000,4724.615234,4803.077148,4263.589844,4568.205078,4490.256348,450.000000,2.000000,,,,0.000000,0.000000,0.000000,0.000000,1.000000,0.000000,,,,,,,,,,,,,,,,,,,,,,,,,
1577806662.761717,11.000000,0.000000,4747.692383,4797.436035,4351.794922,4611.794922,4570.256348,11.000000,2.000000,,,,0.000000,0.000000,0.000000,0.000000,1.000000,0.000000,,,,,,,,,,,,,,,,,,,,,,,,,
1577806662.769626,12.000000,0.000000,4729.230957,4729.230957,4404.102539,4573.333496,4654.871582,450.000000,2.000000,,,,0.000000,0.000000,0.000000,0.000000,1.000000,0.000000,,,,,,,,,,,,,,,,,,,,,,,,,
1577806662.777435,13.000000,0.000000,4768.205078,4779.487305,4321.025879,4535.384766,4579.487305,450.000000,2.000000,,,,0.000000,0.000000,0.000000,0.000000,1.000000,0.000000,,,,,,,,,,,,,,,,,,,,,,,,,
1577806662.785344,14.000000,0.000000,4767.692383,4716.410156,4346.666504,4594.358887,4482.563965,450.000000,2.000000,,,,0.000000,0.000000,0.000000,0.000000,1.000000,0.000000,,,,,,,,,,,,,,,,,,,,,,,,,
1577806662.793154,15.000000,0.000000,4829.743652,4681.025879,4328.717773,4603.077148,4548.205078,11.000000,2.000000,,,,0.000000,0.000000,0.000000,0.000000,1.000000,0.000000,,,,,,,,,,,,,,,,,,,,,,,,,
1577806662.801063,16.000000,0.000000,4865.128418,4784.102539,4331.282227,4610.769043,4628.205078,0.000000,2.000000,,,,0.000000,0.000000,0.000000,0.000000,1.000000,0.000000,,,,,,,,,,,,,,,,,,,,,,,,,
1577806662.808872,17.000000,0.000000,4774.358887,4747.179688,4378.974121,4558.974121,4669.230957,0.000000,2.000000,,,,0.000000,0.000000,0.000000,0.000000,1.000000,0.000000,,,,,,,,,,,,,,,,,,,,,,,,,
1577806662.816781,18.000000,0.000000,4806.666504,4669.743652,4354.358887,4507.692383,4682.563965,0.000000,2.000000,,,,0.000000,0.000000,0.000000,0.000000,1.000000,0.000000,,,,,,,,,,,,,,,,,,,,,,,,,
1577806662.824690,19.000000,0.000000,4818.461426,4629.230957,4331.282227,4564.615234,4593.333496,0.000000,2.000000,,,,0.000000,0.000000,0.000000,0.000000,1.000000,0.000000,,,,,,,,,,,,,,,,,,,,,,,,,
1577806662.832500,20.000000,0.000000,4769.743652,4652.307617,4326.666504,4542.051270,4641.025879,0.000000,2.000000,,,,0.000000,0.000000,0.000000,0.000000,1.000000,0.000000,,,,,,,,,,,,,,,,,,,,,,,,,
1577806662.840409,21.000000,0.000000,4782.563965,4715.897461,4354.358887,4534.358887,4784.615234,0.000000,2.000000,,,,0.000000,0.000000,0.000000,0.000000,1.000000,0.000000,,,,,,,,,,,,,,,,,,,,,,,,,
1577806662.848218,22.000000,0.000000,4697.948730,4672.820313,4364.102539,4577.948730,4727.692383,0.000000,2.000000,,,,0.000000,0.000000,0.000000,0.000000,1.000000,0.000000,,,,,,,,,,,,,,,,,,,,,,,,,
1577806662.856128,23.000000,0.000000,4664.102539,4609.743652,4332.307617,4545.128418,4695.897461,0.000000,2.000000,,,,0.000000,0.000000,0.000000,0.000000,1.000000,0.000000,198.987930,4.265166,6.935037,5.167819,14.575317,111.953094,1.906197,1.097108,15.134473,16.400682,1.508165,0.952219,1.735563,4.058141,7.945488,14.248193,1.250968,0.835077,8.718822,6.898431,210.209473,15.293139,6.172787,12.456190,36.486217
1577806662.863937,24.000000,0.000000,4704.102539,4627.179688,4348.717773,4554.358887,4693.333496,0.000000,2.000000,,,,0.000000,0.000000,0.000000,0.000000,1.000000,0.000000,,,,,,,,,,,,,,,,,,,,,,,,,
1577806662.871846,25.000000,0.000000,4687.179688,4705.641113,4365.128418,4549.743652,4684.615234,0.000000,2.000000,,,,0.000000,0.000000,0.000000,0.000000,1.000000,0.000000,,,,,,,,,,,,,,,,,,,,,,,,,
1577806662.879656,26.000000,0.000000,4694.358887,4717.436035,4412.307617,4545.641113,4728.717773,0.000000,2.000000,,,,0.000000,0.000000,0.000000,0.000000,1.000000,0.000000,,,,,,,,,,,,,,,,,,,,,,,,,
1577806662.887565,27.000000,0.000000,4689.230957,4686.666504,4364.102539,4572.307617,4568.717773,0.000000,2.000000,,,,0.000000,0.000000,0.000000,0.000000,1.000000,0.000000,,,,,,,,,,,,,,,,,,,,,,,,,
1577806662.895374,28.000000,0.000000,4666.666504,4751.794922,4269.230957,4566.153809,4501.538574,0.000000,2.000000,,,,0.000000,0.000000,0.000000,0.000000,1.000000,0.000000,,,,,,,,,,,,,,,,,,,,,,,,,
1577806662.903283,29.000000,0.000000,4697.436035,4744.615234,4353.846191,4584.615234,4635.897461,0.000000,2.000000,,,,0.000000,0.000000,0.000000,0.000000,1.000000,0.000000,,,,,,,,,,,,,,,,,,,,,,,,,
1577806662.911092,30.000000,0.000000,4755.897461,4727.179688,4381.025879,4578.461426,4609.230957,0.000000,2.000000,,,,0.000000,0.000000,0.000000,0.000000,1.000000,0.000000,,,,,,,,,,,,,,,,,,,,,,,,,
1577806662.919001,31.000000,0.000000,4698.974121,4763.077148,4329.230957,4563.589844,4566.153809,0.000000,2.000000,,,,0.000000,0.000000,0.000000,0.000000,1.000000,0.000000,,,,,,,,,,,,,,,,,,,,,,,,,
1577806662.926810,32.000000,0.000000,4645.128418,4713.846191,4349.230957,4575.897461,4590.256348,0.000000,2.000000,,,,0.000000,0.000000,0.000000,0.000000,1.000000,0.000000,,,,,,,,,,,,,,,,,,,,,,,,,
1577806662.934719,33.000000,0.000000,4757.948730,4736.922852,4325.128418,4594.871582,4534.871582,0.000000,2.000000,,,,0.000000,0.000000,0.000000,0.000000,1.000000,0.000000,,,,,,,,,,,,,,,,,,,,,,,,,
1577806662.942629,34.000000,0.000000,4801.538574,4809.230957,4358.461426,4629.230957,4528.717773,0.000000,2.000000,,,,0.000000,0.000000,0.000000,0.000000,1.000000,0.000000,,,,,,,,,,,,,,,,,,,,,,,,,
1577806662.950438,35.000000,0.000000,4757.436035,4777.948730,4393.846191,4587.179688,4637.436035,0.000000,2.000000,,,,0.000000,0.000000,0.000000,0.000000,1.000000,0.000000,,,,,,,,,,,,,,,,,,,,,,,,,
1577806662.958247,36.000000,0.000000,4777.948730,4728.205078,4351.282227,4525.641113,4600.512695,0.000000,2.000000,,,,0.000000,0.000000,0.000000,0.000000,1.000000,0.000000,,,,,,,,,,,,,,,,,,,,,,,,,
1577806662.966157,37.000000,0.000000,4784.102539,4669.230957,4343.589844,4571.794922,4492.307617,0.000000,2.000000,,,,0.000000,0.000000,0.000000,0.000000,1.000000,0.000000,,,,,,,,,,,,,,,,,,,,,,,,,
1577806662.974066,38.000000,0.000000,4835.897461,4689.743652,4325.128418,4625.641113,4547.692383,0.000000,2.000000,,,,0.000000,0.000000,0.000000,0.000000,1.000000,0.000000,,,,,,,,,,,,,,,,,,,,,,,,,
1577806662.981875,39.000000,0.000000,4869.230957,4785.128418,4331.282227,4622.051270,4645.641113,0.000000,2.000000,,,,0.000000,0.000000,0.000000,0.000000,1.000000,0.000000,200.749390,4.419425,6.078389,4.946199,14.805895,112.076576,2.052732,1.042806,15.043816,16.804401,1.445097,0.968296,1.690290,3.878535,7.924656,14.213031,1.154387,0.728468,8.251865,6.594918,213.366547,15.510965,6.182343,12.396326,36.886055
1577806662.989785,40.000000,0.000000,4785.641113,4744.615234,4384.615234,4548.717773,4683.077148,0.000000,2.000000,,,,0.000000,0.000000,0.000000,0.000000,1.000000,0.000000,,,,,,,,,,,,,,,,,,,,,,,,,
1577806662.997594,41.000000,0.000000,4770.769043,4652.820313,4365.641113,4514.358887,4658.974121,0.000000,2.000000,,,,0.000000,0.000000,0.000000,0.000000,1.000000,0.000000,,,,,,,,,,,,,,,,,,,,,,,,,
1577806663.005503,42.000000,0.000000,4811.794922,4618.974121,4328.717773,4567.692383,4567.692383,0.000000,2.000000,,,,0.000000,0.000000,0.000000,0.000000,1.000000,0.000000,,,,,,,,,,,,,,,,,,,,,,,,,
1577806663.013313,43.000000,0.000000,4816.922852,4674.358887,4330.769043,4558.461426,4604.615234,0.000000,2.000000,,,,0.000000,0.000000,0.000000,0.000000,1.000000,0.000000,,,,,,,,,,,,,,,,,,,,,,,,,
1577806663.021222,44.000000,0.000000,4834.871582,4732.307617,4354.871582,4552.307617,4700.512695,0.000000,2.000000,,,,0.000000,0.000000,0.000000,0.000000,1.000000,0.000000,,,,,,,,,,,,,,,,,,,,,,,,,
1577806663.029031,45.000000,0.000000,4780.512695,4663.077148,4345.128418,4567.692383,4683.077148,0.000000,2.000000,,,,0.000000,0.000000,0.000000,0.000000,1.000000,0.000000,,,,,,,,,,,,,,,,,,,,,,,,,
1577806663.036941,46.000000,0.000000,4757.436035,4611.282227,4321.538574,4538.974121,4708.205078,0.000000,2.000000,,,,0.000000,0.000000,0.000000,0.000000,1.000000,0.000000,,,,,,,,,,,,,,,,,,,,,,,,,
1577806663.044750,47.000000,0.000000,4747.179688,4650.769043,4340.000000,4561.025879,4726.153809,0.000000,2.000000,,,,0.000000,0.000000,0.000000,0.000000,1.000000,0.000000,,,,,,,,,,,,,,,,,,,,,,,,,
1577806663.052659,48.000000,0.000000,4711.282227,4685.641113,4357.948730,4547.692383,4702.051270,0.000000,2.000000,,,,0.000000,0.000000,0.000000,0.000000,1.000000,0.000000,,,,,,,,,,,,,,,,,,,,,,,,,
1577806663.060469,49.000000,0.000000,4722.051270,4667.692383,4391.282227,4538.461426,4749.230957,0.000000,2.000000,,,,0.000000,0.000000,0.000000,0.000000,1.000000,0.000000,,,,,,,,,,,,,,,,,,,,,,,,,
1577806663.068378,50.000000,0.000000,4674.871582,4661.538574,4369.743652,4580.000000,4677.948730,0.000000,2.000000,,,,0.000000,0.000000,0.000000,0.000000,1.000000,0.000000,,,,,,,,,,,,,,,,,,,,,,,,,
1577806663.076187,51.000000,0.000000,4645.641113,4700.000000,4311.794922,4564.102539,4642.563965,0.000000,2.000000,,,,0.000000,0.000000,0.000000,0.000000,1.000000,0.000000,,,,,,,,,,,,,,,,,,,,,,,,,
1577806663.083997,52.000000,0.000000,4715.897461,4691.794922,4362.563965,4570.769043,4656.410156,0.000000,2.000000,,,,0.000000,0.000000,0.000000,0.000000,1.000000,0.000000,,,,,,,,,,,,,,,,,,,,,,,,,
1577806663.091906,53.000000,0.000000,4760.000000,4711.282227,4375.384766,4578.461426,4603.077148,0.000000,2.000000,,,,0.000000,0.000000,0.000000,0.000000,1.000000,0.000000,,,,,,,,,,,,,,,,,,,,,,,,,
1577806663.099715,54.000000,0.000000,4686.666504,4742.051270,4374.358887,4578.974121,4617.948730,0.000000,2.000000,,,,0.000000,0.000000,0.000000,0.000000,1.000000,0.000000,,,,,,,,,,,,,,,,,,,,,,,,,
1577806663.107623,55.000000,0.000000,4617.948730,4705.128418,4366.153809,4570.769043,4561.538574,0.000000,2.000000,,,,0.000000,0.000000,0.000000,0.000000,1.000000,0.000000,201.888596,4.438562,5.077739,4.688791,15.162925,112.319649,2.054461,1.094647,14.555108,17.497829,1.356722,1.047136,1.731532,3.756884,8.269592,14.334768,1.021218,0.659235,7.649841,6.228501,217.741135,15.431953,6.208625,12.405842,37.640701
1577806663.115532,56.000000,0.000000,4725.128418,4762.051270,4283.077148,4548.717773,4472.307617,0.000000,2.000000,,,,0.000000,0.000000,0.000000,0.000000,1.000000,0.000000,,,,,,,,,,,,,,,,,,,,,,,,,
1577806663.123442,57.000000,0.000000,4771.282227,4810.256348,4347.179688,4596.410156,4564.615234,0.000000,2.000000,,,,0.000000,0.000000,0.000000,0.000000,1.000000,0.000000,,,,,,,,,,,,,,,,,,,,,,,,,
1577806663.131251,58.000000,0.000000,4730.769043,4769.743652,4402.563965,4604.102539,4650.769043,0.000000,2.000000,,,,0.000000,0.000000,0.000000,0.000000,1.000000,0.000000,,,,,,,,,,,,,,,,,,,,,,,,,
1577806663.139160,59.000000,0.000000,4737.436035,4748.717773,4337.948730,4561.025879,4589.743652,0.000000,2.000000,,,,0.000000,0.000000,0.000000,0.000000,1.000000,0.000000,,,,,,,,,,,,,,,,,,,,,,,,,
1577806663.146970,60.000000,0.000000,4742.563965,4687.692383,4340.000000,4584.615234,4517.436035,0.000000,2.000000,,,,0.000000,0.000000,0.000000,0.000000,1.000000,0.000000,,,,,,,,,,,,,,,,,,,,,,,,,
1577806663.154879,61.000000,0.000000,4822.563965,4709.743652,4319.487305,4608.205078,4539.487305,0.000000,2.000000,,,,0.000000,0.000000,0.000000,0.000000,1.000000,0.000000,,,,,,,,,,,,,,,,,,,,,,,,,
1577806663.162689,62.000000,0.000000,4871.282227,4801.538574,4331.282227,4613.333496,4597.436035,0.000000,2.000000,,,,0.000000,0.000000,0.000000,0.000000,1.000000,0.000000,,,,,,,,,,,,,,,,,,,,,,,,,
1577806663.170498,63.000000,0.000000,4801.538574,4752.820313,4389.743652,4559.487305,4677.948730,0.000000,2.000000,,,,0.000000,0.000000,0.000000,0.000000,1.000000,0.000000,,,,,,,,,,,,,,,,,,,,,,,,,
1577806663.178407,64.000000,0.000000,4792.820313,4674.871582,4363.077148,4517.436035,4654.358887,450.000000,2.000000,,,,0.000000,0.000000,0.000000,0.000000,1.000000,0.000000,,,,,,,,,,,,,,,,,,,,,,,,,
1577806663.186216,65.000000,0.000000,4826.153809,4643.589844,4327.179688,4563.589844,4527.692383,450.000000,2.000000,,,,0.000000,0.000000,0.000000,0.000000,1.000000,0.000000,,,,,,,,,,,,,,,,,,,,,,,,,
1577806663.194125,66.000000,0.000000,4834.358887,4700.512695,4329.230957,4576.410156,4571.794922,0.000000,2.000000,,,,0.000000,0.000000,0.000000,0.000000,1.000000,0.000000,,,,,,,,,,,,,,,,,,,,,,,,,
1577806663.202035,67.000000,0.000000,4850.256348,4758.974121,4345.128418,4575.384766,4681.025879,450.000000,2.000000,,,,0.000000,0.000000,0.000000,0.000000,1.000000,0.000000,,,,,,,,,,,,,,,,,,,,,,,,,
1577806663.209844,68.000000,0.000000,4797.436035,4663.077148,4351.794922,4560.000000,4661.538574,0.000000,2.000000,,,,0.000000,0.000000,0.000000,0.000000,1.000000,0.000000,,,,,,,,,,,,,,,,,,,,,,,,,
1577806663.217653,69.000000,0.000000,4791.794922,4608.205078,4346.666504,4525.641113,4692.820313,450.000000,2.000000,,,,0.000000,0.000000,0.000000,0.000000,1.000000,0.000000,,,,,,,,,,,,,,,,,,,,,,,,,
1577806663.225562,70.000000,0.000000,4764.615234,4653.846191,4344.615234,4563.077148,4712.307617,12.000000,2.000000,,,,0.000000,0.000000,0.000000,0.000000,1.000000,0.000000,,,,,,,,,,,,,,,,,,,,,,,,,
1577806663.233372,71.000000,0.000000,4697.948730,4670.256348,4330.769043,4548.717773,4688.205078,450.000000,2.000000,,,,0.000000,0.000000,0.000000,0.000000,1.000000,0.000000,201.733231,4.347445,4.244602,4.472625,15.546906,112.344025,1.954810,1.200255,13.732989,18.360632,1.265649,1.184651,1.801432,3.704395,8.889434,14.601046,0.889373,0.646590,6.994316,5.850924,221.892807,15.184862,6.181441,12.542545,38.412918
1577806663.241280,72.000000,0.000000,4720.512695,4670.769043,4364.615234,4532.307617,4749.743652,450.000000,2.000000,,,,0.000000,0.000000,0.000000,0.000000,1.000000,0.000000,,,,,,,,,,,,,,,,,,,,,,,,,
1577806663.249190,73.000000,0.000000,4675.897461,4673.333496,4373.846191,4574.871582,4710.256348,33.000000,2.000000,,,,0.000000,0.000000,0.000000,0.000000,1.000000,0.000000,,,,,,,,,,,,,,,,,,,,,,,,,
1577806663.256999,74.000000,0.000000,4639.487305,4672.307617,4327.179688,4557.948730,4673.333496,450.000000,2.000000,,,,0.000000,0.000000,0.000000,0.000000,1.000000,0.000000,,,,,,,,,,,,,,,,,,,,,,,,,
1577806663.264908,75.000000,0.000000,4718.974121,4666.153809,4362.563965,4573.846191,4668.717773,0.000000,2.000000,,,,0.000000,0.000000,0.000000,0.000000,1.000000,0.000000,,,,,,,,,,,,,,,,,,,,,,,,,
1577806663.272718,76.000000,0.000000,4752.307617,4692.820313,4381.538574,4588.717773,4625.128418,450.000000,2.000000,,,,0.000000,0.000000,0.000000,0.000000,1.000000,0.000000,,,,,,,,,,,,,,,,,,,,,,,,,
1577806663.280627,77.000000,0.000000,4683.589844,4705.128418,4397.436035,4569.743652,4663.589844,450.000000,2.000000,,,,0.000000,0.000000,0.000000,0.000000,1.000000,0.000000,,,,,,,,,,,,,,,,,,,,,,,,,
1577806663.288436,78.000000,0.000000,4632.820313,4707.692383,4362.563965,4564.615234,4597.948730,450.000000,2.000000,,,,0.000000,0.000000,0.000000,0.000000,1.000000,0.000000,,,,,,,,,,,,,,,,,,,,,,,,,
1577806663.296345,79.000000,0.000000,4716.410156,4806.666504,4261.538574,4572.820313,4484.615234,0.000000,2.000000,,,,0.000000,0.000000,0.000000,0.000000,1.000000,0.000000,,,,,,,,,,,,,,,,,,,,,,,,,
1577806663.304154,80.000000,0.000000,4737.948730,4794.871582,4352.820313,4614.871582,4581.025879,450.000000,2.000000,,,,0.000000,0.000000,0.000000,0.000000,1.000000,0.000000,,,,,,,,,,,,,,,,,,,,,,,,,
1577806663.312063,81.000000,0.000000,4725.641113,4728.205078,4402.563965,4574.358887,4659.487305,450.000000,2.000000,,,,0.000000,0.000000,0.000000,0.000000,1.000000,0.000000,,,,,,,,,,,,,,,,,,,,,,,,,
1577806663.319872,82.000000,0.000000,4752.820313,4774.358887,4314.358887,4523.589844,4578.974121,450.000000,2.000000,,,,0.000000,0.000000,0.000000,0.000000,1.000000,0.000000,,,,,,,,,,,,,,,,,,,,,,,,,
1577806663.327781,83.000000,0.000000,4742.051270,4714.358887,4342.051270,4591.282227,4497.436035,0.000000,2.000000,,,,0.000000,0.000000,0.000000,0.000000,1.000000,0.000000,,,,,,,,,,,,,,,,,,,,,,,,,
1577806663.335591,84.000000,0.000000,4823.077148,4695.384766,4327.692383,4627.179688,4548.205078,450.000000,2.000000,,,,0.000000,0.000000,0.000000,0.000000,1.000000,0.000000,,,,,,,,,,,,,,,,,,,,,,,,,
1577806663.343500,85.000000,0.000000,4871.282227,4795.384766,4331.794922,4630.256348,4611.794922,450.000000,2.000000,,,,0.000000,0.000000,0.000000,0.000000,1.000000,0.000000,,,,,,,,,,,,,,,,,,,,,,,,,
1577806663.351309,86.000000,0.000000,4781.538574,4752.307617,4384.102539,4551.794922,4670.256348,450.000000,2.000000,,,,0.000000,0.000000,0.000000,0.000000,1.000000,0.000000,,,,,,,,,,,,,,,,,,,,,,,,,
1577806663.359218,87.000000,0.000000,4813.333496,4688.205078,4350.769043,4502.563965,4685.128418,0.000000,2.000000,,,,0.000000,0.000000,0.000000,0.000000,1.000000,0.000000,200.422302,4.266171,3.798136,4.303014,15.851838,111.699760,1.848278,1.285039,12.774273,19.142376,1.193962,1.360299,1.838435,3.707493,9.582549,14.884664,0.787172,0.684716,6.432309,5.547743,224.232773,15.177200,6.081380,12.767994,38.757584
1577806663.367027,88.000000,0.000000,4825.641113,4640.512695,4325.128418,4574.358887,4579.487305,450.000000,2.000000,,,,0.000000,0.000000,0.000000,0.000000,1.000000,0.000000,,,,,,,,,,,,,,,,,,,,,,,,,
1577806663.374936,89.000000,0.000000,4772.307617,4643.589844,4336.410156,4551.282227,4627.179688,450.000000,2.000000,,,,0.000000,0.000000,0.000000,0.000000,1.000000,0.000000,,,,,,,,,,,,,,,,,,,,,,,,,
1577806663.382845,90.000000,0.000000,4789.743652,4712.307617,4364.615234,4536.410156,4773.846191,450.000000,2.000000,,,,0.000000,0.000000,0.000000,0.000000,1.000000,0.000000,,,,,,,,,,,,,,,,,,,,,,,,,
1577806663.390655,91.000000,0.000000,4728.205078,4673.846191,4355.384766,4580.512695,4728.205078,0.000000,2.000000,,,,0.000000,0.000000,0.000000,0.000000,1.000000,0.000000,,,,,,,,,,,,,,,,,,,,,,,,,
1577806663.398564,92.000000,0.000000,4696.922852,4609.230957,4317.948730,4549.230957,4704.102539,450.000000,2.000000,,,,0.000000,0.000000,0.000000,0.000000,1.000000,0.000000,,,,,,,,,,,,,,,,,,,,,,,,,
1577806663.406374,93.000000,0.000000,4694.358887,4631.282227,4342.051270,4562.051270,4702.051270,450.000000,2.000000,,,,0.000000,0.000000,0.000000,0.000000,1.000000,0.000000,,,,,,,,,,,,,,,,,,,,,,,,,
1577806663.414283,94.000000,0.000000,4657.436035,4690.256348,4365.128418,4557.436035,4698.974121,450.000000,2.000000,,,,0.000000,0.000000,0.000000,0.000000,1.000000,0.000000,,,,,,,,,,,,,,,,,,,,,,,,,
1577806663.422092,95.000000,0.000000,4698.974121,4692.820313,4407.179688,4551.282227,4744.102539,0.000000,2.000000,,,,0.000000,0.000000,0.000000,0.000000,1.000000,0.000000,,,,,,,,,,,,,,,,,,,,,,,,,
1577806663.430002,96.000000,0.000000,4700.512695,4674.358887,4361.538574,4579.487305,4582.051270,450.000000,2.000000,,,,0.000000,0.000000,0.000000,0.000000,1.000000,0.000000,,,,,,,,,,,,,,,,,,,,,,,,,
1577806663.437811,97.000000,0.000000,4653.846191,4733.846191,4282.051270,4568.717773,4523.077148,450.000000,2.000000,,,,0.000000,0.000000,0.000000,0.000000,1.000000,0.000000,,,,,,,,,,,,,,,,,,,,,,,,,
1577806663.445720,98.000000,0.000000,4694.358887,4739.487305,4364.102539,4582.051270,4655.897461,450.000000,2.000000,,,,0.000000,0.000000,0.000000,0.000000,1.000000,0.000000,,,,,,,,,,,,,,,,,,,,,,,,,
1577806663.453530,99.000000,0.000000,4764.615234,4744.615234,4367.692383,4584.615234,4622.051270,0.000000,2.000000,,,,0.000000,0.000000,0.000000,0.000000,1.000000,0.000000,,,,,,,,,,,,,,,,,,,,,,,,,
1577806663.461439,100.000000,0.000000,4689.230957,4750.769043,4316.410156,4572.820313,4580.512695,450.000000,2.000000,,,,0.000000,0.000000,0.000000,0.000000,1.000000,0.000000,,,,,,,,,,,,,,,,,,,,,,,,,
1577806663.469248,101.000000,0.000000,4626.153809,4677.948730,4348.717773,4574.358887,4594.871582,450.000000,2.000000,,,,0.000000,0.000000,0.000000,0.000000,1.000000,0.000000,,,,,,,,,,,,,,,,,,,,,,,,,
1577806663.477157,102.000000,0.000000,4746.153809,4729.743652,4324.102539,4577.436035,4533.333496,450.000000,2.000000,,,,0.000000,0.000000,0.000000,0.000000,1.000000,0.000000,,,,,,,,,,,,,,,,,,,,,,,,,
1577806663.484966,103.000000,0.000000,4779.487305,4808.205078,4363.077148,4616.922852,4532.307617,0.000000,2.000000,,,,0.000000,0.000000,0.000000,0.000000,1.000000,0.000000,199.053680,4.309349,3.779805,4.137195,16.029724,110.389130,1.859148,1.297829,11.965826,19.615942,1.169365,1.537737,1.828088,3.715715,10.131511,15.045224,0.725481,0.742908,6.001511,5.344689,224.377960,15.745076,5.939938,13.019538,38.399292
1577806663.492875,104.000000,0.000000,4741.025879,4773.333496,4386.153809,4589.230957,4640.000000,450.000000,2.000000,,,,0.000000,0.000000,0.000000,0.000000,1.000000,0.000000,,,,,,,,,,,,,,,,,,,,,,,,,
1577806663.500684,105.000000,0.000000,4798.974121,4752.820313,4331.282227,4552.820313,4607.179688,450.000000,2.000000,,,,0.000000,0.000000,0.000000,0.000000,1.000000,0.000000,,,,,,,,,,,,,,,,,,,,,,,,,
1577806663.508593,106.000000,0.000000,4795.897461,4675.384766,4346.666504,4586.666504,4494.358887,450.000000,2.000000,,,,0.000000,0.000000,0.000000,0.000000,1.000000,0.000000,,,,,,,,,,,,,,,,,,,,,,,,,
1577806663.516403,107.000000,0.000000,4822.051270,4668.717773,4333.846191,4575.897461,4564.615234,0.000000,2.000000,,,,0.000000,0.000000,0.000000,0.000000,1.000000,0.000000,,,,,,,,,,,,,,,,,,,,,,,,,
1577806663.524312,108.000000,0.000000,4860.000000,4776.922852,4326.666504,4582.563965,4661.025879,450.000000,2.000000,,,,0.000000,0.000000,0.000000,0.000000,1.000000,0.000000,,,,,,,,,,,,,,,,,,,,,,,,,
1577806663.532221,109.000000,0.000000,4770.256348,4733.333496,4367.692383,4558.461426,4686.153809,450.000000,2.000000,,,,0.000000,0.000000,0.000000,0.000000,1.000000,0.000000,,,,,,,,,,,,,,,,,,,,,,,,,
1577806663.540030,110.000000,0.000000,4768.717773,4635.897461,4356.922852,4514.358887,4700.512695,450.000000,2.000000,,,,0.000000,0.000000,0.000000,0.000000,1.000000,0.000000,,,,,,,,,,,,,,,,,,,,,,,,,
1577806663.547840,111.000000,0.000000,4799.487305,4616.410156,4331.282227,4551.794922,4635.897461,0.000000,2.000000,,,,0.000000,0.000000,0.000000,0.000000,1.000000,0.000000,,,,,,,,,,,,,,,,,,,,,,,,,
1577806663.555749,112.000000,0.000000,4787.179688,4664.102539,4322.051270,4536.922852,4658.974121,450.000000,2.000000,,,,0.000000,0.000000,0.000000,0.000000,1.000000,0.000000,,,,,,,,,,,,,,,,,,,,,,,,,
1577806663.563658,113.000000,0.000000,4791.282227,4711.282227,4344.102539,4537.948730,4769.743652,450.000000,2.000000,,,,0.000000,0.000000,0.000000,0.000000,1.000000,0.000000,,,,,,,,,,,,,,,,,,,,,,,,,
1577806663.571467,114.000000,0.000000,4715.384766,4657.948730,4356.410156,4577.436035,4736.410156,450.000000,2.000000,,,,0.000000,0.000000,0.000000,0.000000,1.000000,0.000000,,,,,,,,,,,,,,,,,,,,,,,,,
1577806663.579377,115.000000,0.000000,4693.333496,4605.128418,4355.384766,4552.307617,4707.179688,0.000000,2.000000,,,,0.000000,0.000000,0.000000,0.000000,1.000000,0.000000,,,,,,,,,,,,,,,,,,,,,,,,,
1577806663.587186,116.000000,0.000000,4689.743652,4630.256348,4360.512695,4556.410156,4693.333496,450.000000,2.000000,,,,0.000000,0.000000,0.000000,0.000000,1.000000,0.000000,,,,,,,,,,,,,,,,,,,,,,,,,
1577806663.595095,117.000000,0.000000,4652.820313,4681.025879,4340.000000,4560.000000,4691.282227,450.000000,2.000000,,,,0.000000,0.000000,0.000000,0.000000,1.000000,0.000000,,,,,,,,,,,,,,,,,,,,,,,,,
1577806663.602905,118.000000,0.000000,4707.179688,4670.256348,4362.051270,4558.461426,4719.487305,450.000000,2.000000,,,,0.000000,0.000000,0.000000,0.000000,1.000000,0.000000,,,,,,,,,,,,,,,,,,,,,,,,,
1577806663.610814,119.000000,0.000000,4717.948730,4651.282227,4369.743652,4573.846191,4580.512695,0.000000,2.000000,,,,0.000000,0.000000,0.000000,0.000000,1.000000,0.000000,198.876434,4.422540,4.099664,3.943036,16.099171,108.832619,2.030606,1.244669,11.475026,19.665813,1.211794,1.676241,1.781992,3.685813,10.426428,15.007218,0.700695,0.791426,5.704002,5.247333,223.052399,16.809898,5.798094,13.230109,37.378185
1577806663.618624,120.000000,0.000000,4659.487305,4699.487305,4357.948730,4558.461426,4551.794922,450.000000,2.000000,,,,0.000000,0.000000,0.000000,0.000000,1.000000,0.000000,,,,,,,,,,,,,,,,,,,,,,,,,
1577806663.626533,121.000000,0.000000,4700.000000,4722.051270,4393.846191,4576.410156,4669.230957,450.000000,2.000000,,,,0.000000,0.000000,0.000000,0.000000,1.000000,0.000000,,,,,,,,,,,,,,,,,,,,,,,,,
1577806663.634342,122.000000,0.000000,4774.871582,4712.307617,4336.922852,4597.436035,4627.179688,450.000000,2.000000,,,,0.000000,0.000000,0.000000,0.000000,1.000000,0.000000,,,,,,,,,,,,,,,,,,,,,,,,,
1577806663.642252,123.000000,0.000000,4690.256348,4698.974121,4295.897461,4592.307617,4595.897461,0.000000,2.000000,,,,0.000000,0.000000,0.000000,0.000000,1.000000,0.000000,,,,,,,,,,,,,,,,,,,,,,,,,
1577806663.650061,124.000000,0.000000,4616.922852,4702.051270,4361.025879,4561.538574,4590.256348,450.000000,2.000000,,,,0.000000,0.000000,0.000000,0.000000,1.000000,0.000000,,,,,,,,,,,,,,,,,,,,,,,,,
1577806663.657870,125.000000,0.000000,4709.230957,4792.820313,4364.615234,4551.794922,4528.205078,450.000000,2.000000,,,,0.000000,0.000000,0.000000,0.000000,1.000000,0.000000,,,,,,,,,,,,,,,,,,,,,,,,,
1577806663.665579,126.000000,0.000000,4750.769043,4791.282227,4380.000000,4610.256348,4562.051270,450.000000,2.000000,,,,0.000000,0.000000,0.000000,0.000000,1.000000,0.000000,,,,,,,,,,,,,,,,,,,,,,,,,
1577806663.673488,127.000000,0.000000,4725.128418,4731.282227,4371.282227,4595.897461,4649.230957,230.000000,2.000000,,,,0.000000,0.000000,0.000000,0.000000,1.000000,0.000000,,,,,,,,,,,,,,,,,,,,,,,,,
1577806663.681298,0.000000,0.000000,4727.179688,4747.692383,4332.307617,4542.563965,4604.102539,450.000000,2.000000,,,,0.000000,0.000000,0.000000,0.000000,1.000000,0.000000,,,,,,,,,,,,,,,,,,,,,,,,,
1577806663.689207,1.000000,0.000000,4722.051270,4705.641113,4353.333496,4586.666504,4531.794922,450.000000,2.000000,,,,0.000000,0.000000,0.000000,0.000000,1.000000,0.000000,,,,,,,,,,,,,,,,,,,,,,,,,
1577806663.697016,2.000000,0.000000,4807.692383,4715.384766,4321.025879,4630.769043,4531.794922,0.000000,2.000000,,,,0.000000,0.000000,0.000000,0.000000,1.000000,0.000000,,,,,,,,,,,,,,,,,,,,,,,,,
1577806663.704925,3.000000,0.000000,4864.102539,4799.487305,4322.051270,4629.230957,4580.000000,450.000000,2.000000,,,,0.000000,0.000000,0.000000,0.000000,1.000000,0.000000,,,,,,,,,,,,,,,,,,,,,,,,,
1577806663.712834,4.000000,0.000000,4805.641113,4758.974121,4387.179688,4561.538574,4665.128418,5.000000,2.000000,,,,0.000000,0.000000,0.000000,0.000000,1.000000,0.000000,,,,,,,,,,,,,,,,,,,,,,,,,
1577806663.720644,5.000000,0.000000,4799.487305,4689.743652,4364.615234,4521.538574,4646.666504,450.000000,2.000000,,,,0.000000,0.000000,0.000000,0.000000,1.000000,0.000000,,,,,,,,,,,,,,,,,,,,,,,,,
1577806663.728553,6.000000,0.000000,4828.205078,4662.563965,4329.230957,4575.384766,4510.256348,5.000000,2.000000,,,,0.000000,0.000000,0.000000,0.000000,1.000000,0.000000,,,,,,,,,,,,,,,,,,,,,,,,,
1577806663.736362,7.000000,0.000000,4842.051270,4703.589844,4323.589844,4589.743652,4554.358887,450.000000,2.000000,,,,0.000000,0.000000,0.000000,0.000000,1.000000,0.000000,200.396286,4.495573,4.548136,3.752376,16.101978,107.582184,2.290693,1.196721,11.293447,19.327555,1.313599,1.753314,1.716723,3.598856,10.508568,14.781777,0.694710,0.839273,5.527352,5.240254,221.388687,17.873407,5.733764,13.342381,36.029480
1577806663.744272,8.000000,0.000000,4856.410156,4770.256348,4344.102539,4579.487305,4667.179688,450.000000,2.000000,,,,0.000000,0.000000,0.000000,0.000000,1.000000,0.000000,,,,,,,,,,,,,,,,,,,,,,,,,
1577806663.752081,9.000000,0.000000,4802.563965,4709.230957,4360.512695,4558.461426,4653.333496,49.000000,2.000000,,,,0.000000,0.000000,0.000000,0.000000,1.000000,0.000000,,,,,,,,,,,,,,,,,,,,,,,,,
1577806663.759990,10.000000,0.000000,4798.974121,4633.846191,4357.436035,4525.128418,4679.487305,450.000000,2.000000,,,,0.000000,0.000000,0.000000,0.000000,1.000000,0.000000,,,,,,,,,,,,,,,,,,,,,,,,,
1577806663.767800,11.000000,0.000000,4762.051270,4620.000000,4351.794922,4565.641113,4690.256348,0.000000,2.000000,,,,0.000000,0.000000,0.000000,0.000000,1.000000,0.000000,,,,,,,,,,,,,,,,,,,,,,,,,
1577806663.775709,12.000000,0.000000,4703.077148,4637.948730,4318.974121,4550.769043,4686.153809,450.000000,2.000000,,,,0.000000,0.000000,0.000000,0.000000,1.000000,0.000000,,,,,,,,,,,,,,,,,,,,,,,,,
1577806663.783518,13.000000,0.000000,4748.717773,4684.102539,4334.871582,4533.333496,4763.077148,450.000000,2.000000,,,,0.000000,0.000000,0.000000,0.000000,1.000000,0.000000,,,,,,,,,,,,,,,,,,,,,,,,,
1577806663.791428,14.000000,0.000000,4686.153809,4677.948730,4369.230957,4572.820313,4718.974121,450.000000,2.000000,,,,0.000000,0.000000,0.000000,0.000000,1.000000,0.000000,,,,,,,,,,,,,,,,,,,,,,,,,
1577806663.799237,15.000000,0.000000,4628.717773,4649.230957,4358.974121,4554.358887,4679.487305,0.000000,2.000000,,,,0.000000,0.000000,0.000000,0.000000,1.000000,0.000000,,,,,,,,,,,,,,,,,,,,,,,,,
1577806663.807146,16.000000,0.000000,4724.102539,4648.717773,4376.410156,4572.820313,4675.384766,0.000000,2.000000,,,,0.000000,0.000000,0.000000,0.000000,1.000000,0.000000,,,,,,,,,,,,,,,,,,,,,,,,,
1577806663.814956,17.000000,0.000000,4761.025879,4679.487305,4354.358887,4583.589844,4642.051270,0.000000,2.000000,,,,0.000000,0.000000,0.000000,0.000000,1.000000,0.000000,,,,,,,,,,,,,,,,,,,,,,,,,
1577806663.822865,18.000000,0.000000,4689.743652,4688.717773,4368.205078,4564.615234,4686.153809,0.000000,2.000000,,,,0.000000,0.000000,0.000000,0.000000,1.000000,0.000000,,,,,,,,,,,,,,,,,,,,,,,,,
1577806663.830674,19.000000,0.000000,4638.461426,4691.282227,4365.128418,4569.743652,4592.820313,0.000000,2.000000,,,,0.000000,0.000000,0.000000,0.000000,1.000000,0.000000,,,,,,,,,,,,,,,,,,,,,,,,,
1577806663.838584,20.000000,0.000000,4698.974121,4793.846191,4288.205078,4574.871582,4471.282227,0.000000,2.000000,,,,0.000000,0.000000,0.000000,0.000000,1.000000,0.000000,,,,,,,,,,,,,,,,,,,,,,,,,
1577806663.846393,21.000000,0.000000,4721.538574,4789.743652,4364.615234,4603.077148,4592.820313,0.000000,2.000000,,,,0.000000,0.000000,0.000000,0.000000,1.000000,0.000000,,,,,,,,,,,,,,,,,,,,,,,,,
1577806663.854302,22.000000,0.000000,4729.230957,4730.256348,4393.846191,4566.666504,4666.153809,0.000000,2.000000,,,,0.000000,0.000000,0.000000,0.000000,1.000000,0.000000,,,,,,,,,,,,,,,,,,,,,,,,,
1577806663.862212,23.000000,0.000000,4741.025879,4763.589844,4313.846191,4529.743652,4574.358887,0.000000,2.000000,,,,0.000000,0.000000,0.000000,0.000000,1.000000,0.000000,203.052917,4.483212,4.937779,3.638645,16.074478,106.999596,2.508627,1.217813,11.360116,18.767830,1.437619,1.771276,1.659902,3.478647,10.464481,14.455063,0.697054,0.891467,5.437660,5.281277,220.435486,18.263311,5.814013,13.340728,34.797237
1577806663.870021,24.000000,0.000000,4711.282227,4705.641113,4348.717773,4595.384766,4508.205078,0.000000,2.000000,,,,0.000000,0.000000,0.000000,0.000000,1.000000,0.000000,,,,,,,,,,,,,,,,,,,,,,,,,
1577806663.877831,25.000000,0.000000,4803.589844,4707.692383,4327.179688,4625.128418,4540.512695,0.000000,2.000000,,,,0.000000,0.000000,0.000000,0.000000,1.000000,0.000000,,,,,,,,,,,,,,,,,,,,,,,,,
1577806663.885740,26.000000,0.000000,4861.538574,4802.051270,4329.230957,4631.282227,4590.769043,0.000000,2.000000,,,,0.000000,0.000000,0.000000,0.000000,1.000000,0.000000,,,,,,,,,,,,,,,,,,,,,,,,,
1577806663.893549,27.000000,0.000000,4784.102539,4752.307617,4385.128418,4567.692383,4670.256348,0.000000,2.000000,,,,0.000000,0.000000,0.000000,0.000000,1.000000,0.000000,,,,,,,,,,,,,,,,,,,,,,,,,
1577806663.901458,28.000000,0.000000,4825.641113,4704.102539,4349.743652,4510.256348,4675.384766,0.000000,2.000000,,,,0.000000,0.000000,0.000000,0.000000,1.000000,0.000000,,,,,,,,,,,,,,,,,,,,,,,,,
1577806663.909267,29.000000,0.000000,4836.922852,4646.153809,4328.717773,4571.282227,4542.563965,0.000000,2.000000,,,,0.000000,0.000000,0.000000,0.000000,1.000000,0.000000,,,,,,,,,,,,,,,,,,,,,,,,,
1577806663.917177,30.000000,0.000000,4781.538574,4632.307617,4337.948730,4570.256348,4598.974121,0.000000,2.000000,,,,0.000000,0.000000,0.000000,0.000000,1.000000,0.000000,,,,,,,,,,,,,,,,,,,,,,,,,
1577806663.925086,31.000000,0.000000,4807.692383,4708.717773,4360.512695,4557.948730,4754.871582,0.000000,2.000000,,,,0.000000,0.000000,0.000000,0.000000,1.000000,0.000000,,,,,,,,,,,,,,,,,,,,,,,,,
1577806663.932895,32.000000,0.000000,4756.922852,4667.179688,4353.846191,4567.692383,4716.922852,0.000000,2.000000,,,,0.000000,0.000000,0.000000,0.000000,1.000000,0.000000,,,,,,,,,,,,,,,,,,,,,,,,,
1577806663.940705,33.000000,0.000000,4728.717773,4601.025879,4312.820313,4531.794922,4708.717773,0.000000,2.000000,,,,0.000000,0.000000,0.000000,0.000000,1.000000,0.000000,,,,,,,,,,,,,,,,,,,,,,,,,
1577806663.948614,34.000000,0.000000,4720.512695,4636.410156,4334.871582,4560.512695,4721.025879,0.000000,2.000000,,,,0.000000,0.000000,0.000000,0.000000,1.000000,0.000000,,,,,,,,,,,,,,,,,,,,,,,,,
1577806663.956523,35.000000,0.000000,4674.358887,4682.051270,4376.410156,4550.256348,4715.897461,0.000000,2.000000,,,,0.000000,0.000000,0.000000,0.000000,1.000000,0.000000,,,,,,,,,,,,,,,,,,,,,,,,,
1577806663.964433,36.000000,0.000000,4710.256348,4668.717773,4417.436035,4537.948730,4755.384766,0.000000,2.000000,,,,0.000000,0.000000,0.000000,0.000000,1.000000,0.000000,,,,,,,,,,,,,,,,,,,,,,,,,
1577806663.972242,37.000000,0.000000,4696.922852,4660.000000,4367.179688,4583.589844,4606.153809,0.000000,2.000000,,,,0.000000,0.000000,0.000000,0.000000,1.000000,0.000000,,,,,,,,,,,,,,,,,,,,,,,,,
1577806663.980052,38.000000,0.000000,4642.051270,4717.948730,4290.256348,4569.230957,4549.230957,0.000000,2.000000,,,,0.000000,0.000000,0.000000,0.000000,1.000000,0.000000,,,,,,,,,,,,,,,,,,,,,,,,,
1577806663.987961,39.000000,0.000000,4696.922852,4705.128418,4366.153809,4575.384766,4668.717773,0.000000,2.000000,,,,0.000000,0.000000,0.000000,0.000000,1.000000,0.000000,205.730621,4.580703,5.160081,3.637525,16.059715,107.142296,2.552034,1.305607,11.596478,18.153589,1.543695,1.733878,1.642437,3.401952,10.307806,14.117021,0.729573,0.946220,5.387696,5.337539,220.448807,17.693869,5.999501,13.229083,33.961926
1577806663.995871,40.000000,1.000000,4709.743652,4699.373047,4362.678223,4569.743652,4657.492676,0.000000,2.000000,,,,0.000000,0.000000,0.000000,0.000000,1.000000,0.000000,,,,,,,,,,,,,,,,,,,,,,,,,
1577806664.003681,41.000000,1.000000,4722.563965,4693.618164,4359.202148,4564.102539,4646.267578,0.000000,2.000000,,,,0.000000,0.000000,0.000000,0.000000,1.000000,0.000000,,,,,,,,,,,,,,,,,,,,,,,,,
1577806664.011491,42.000000,1.000000,4735.384766,4687.863281,4355.726563,4558.461426,4635.042969,0.000000,2.000000,,,,0.000000,0.000000,0.000000,0.000000,1.000000,0.000000,,,,,,,,,,,,,,,,,,,,,,,,,
1577806664.019301,43.000000,1.000000,4748.205078,4682.108398,4352.250488,4552.820313,4623.817871,0.000000,2.000000,,,,0.000000,0.000000,0.000000,0.000000,1.000000,0.000000,,,,,,,,,,,,,,,,,,,,,,,,,
1577806664.027112,44.000000,1.000000,4761.025879,4676.353516,4348.774902,4547.179688,4612.592773,0.000000,2.000000,,,,0.000000,0.000000,0.000000,0.000000,1.000000,0.000000,,,,,,,,,,,,,,,,,,,,,,,,,
1577806664.034922,45.000000,1.000000,4773.846191,4670.598145,4345.299316,4541.538574,4601.367676,0.000000,2.000000,,,,0.000000,0.000000,0.000000,0.000000,1.000000,0.000000,,,,,,,,,,,,,,,,,,,,,,,,,
1577806664.042732,46.000000,1.000000,4786.666504,4664.843262,4341.823242,4535.897461,4590.142578,0.000000,2.000000,,,,0.000000,0.000000,0.000000,0.000000,1.000000,0.000000,,,,,,,,,,,,,,,,,,,,,,,,,
1577806664.050542,47.000000,1.000000,4799.487305,4659.088379,4338.347656,4530.256348,4578.917480,0.000000,2.000000,,,,0.000000,0.000000,0.000000,0.000000,1.000000,0.000000,,,,,,,,,,,,,,,,,,,,,,,,,
1577806664.058352,48.000000,0.000000,4812.307617,4653.333496,4334.871582,4524.615234,4567.692383,0.000000,2.000000,,,,0.000000,0.000000,0.000000,0.000000,1.000000,0.000000,,,,,,,,,,,,,,,,,,,,,,,,,
1577806664.066060,49.000000,0.000000,4837.436035,4759.487305,4327.692383,4549.230957,4680.000000,0.000000,2.000000,,,,0.000000,0.000000,0.000000,0.000000,1.000000,0.000000,,,,,,,,,,,,,,,,,,,,,,,,,
1577806664.073868,50.000000,0.000000,4761.538574,4735.384766,4366.666504,4581.538574,4692.307617,0.000000,2.000000,,,,0.000000,0.000000,0.000000,0.000000,1.000000,0.000000,,,,,,,,,,,,,,,,,,,,,,,,,
1577806664.081676,51.000000,0.000000,4761.538574,4637.436035,4351.282227,4547.692383,4666.666504,0.000000,2.000000,,,,0.000000,0.000000,0.000000,0.000000,1.000000,0.000000,,,,,,,,,,,,,,,,,,,,,,,,,
1577806664.089484,52.000000,0.000000,4769.230957,4606.153809,4327.179688,4560.512695,4598.974121,0.000000,2.000000,,,,0.000000,0.000000,0.000000,0.000000,1.000000,0.000000,,,,,,,,,,,,,,,,,,,,,,,,,
1577806664.097192,53.000000,0.000000,4752.307617,4658.974121,4333.333496,4536.922852,4654.358887,0.000000,2.000000,,,,0.000000,0.000000,0.000000,0.000000,1.000000,0.000000,,,,,,,,,,,,,,,,,,,,,,,,,
1577806664.104999,54.000000,0.000000,4782.563965,4709.230957,4365.128418,4541.538574,4778.461426,0.000000,2.000000,,,,0.000000,0.000000,0.000000,0.000000,1.000000,0.000000,,,,,,,,,,,,,,,,,,,,,,,,,
1577806664.112707,55.000000,0.000000,4720.000000,4661.538574,4356.922852,4576.922852,4727.692383,0.000000,2.000000,,,,0.000000,0.000000,0.000000,0.000000,1.000000,0.000000,207.471771,5.017880,5.198402,3.719133,16.101490,107.755684,2.409234,1.409841,12.010311,17.568245,1.608641,1.647468,1.683093,3.466419,9.980440,13.828003,0.812902,1.002007,5.316425,5.382746,220.776764,16.449837,6.148258,13.050532,33.618576
1577806664.120514,56.000000,0.000000,4685.641113,4612.307617,4331.282227,4552.307617,4697.436035,0.000000,2.000000,,,,0.000000,0.000000,0.000000,0.000000,1.000000,0.000000,,,,,,,,,,,,,,,,,,,,,,,,,
1577806664.128222,57.000000,0.000000,4686.666504,4625.641113,4356.922852,4557.436035,4689.743652,0.000000,2.000000,,,,0.000000,0.000000,0.000000,0.000000,1.000000,0.000000,,,,,,,,,,,,,,,,,,,,,,,,,
1577806664.136029,58.000000,0.000000,4659.487305,4704.615234,4363.077148,4552.307617,4676.410156,0.000000,2.000000,,,,0.000000,0.000000,0.000000,0.000000,1.000000,0.000000,,,,,,,,,,,,,,,,,,,,,,,,,
1577806664.143737,59.000000,0.000000,4691.794922,4718.461426,4406.666504,4556.922852,4721.025879,0.000000,2.000000,,,,0.000000,0.000000,0.000000,0.000000,1.000000,0.000000,,,,,,,,,,,,,,,,,,,,,,,,,
1577806664.151544,60.000000,0.000000,4699.487305,4683.077148,4364.615234,4580.000000,4576.922852,0.000000,2.000000,,,,0.000000,0.000000,0.000000,0.000000,1.000000,0.000000,,,,,,,,,,,,,,,,,,,,,,,,,
1577806664.159251,61.000000,0.000000,4655.897461,4746.666504,4265.128418,4572.307617,4512.307617,0.000000,2.000000,,,,0.000000,0.000000,0.000000,0.000000,1.000000,0.000000,,,,,,,,,,,,,,,,,,,,,,,,,
1577806664.166959,62.000000,0.000000,4696.922852,4741.538574,4350.256348,4593.333496,4626.153809,0.000000,2.000000,,,,0.000000,0.000000,0.000000,0.000000,1.000000,0.000000,,,,,,,,,,,,,,,,,,,,,,,,,
1577806664.174767,63.000000,0.000000,4780.512695,4727.692383,4380.512695,4575.897461,4593.333496,0.000000,2.000000,,,,0.000000,0.000000,0.000000,0.000000,1.000000,0.000000,,,,,,,,,,,,,,,,,,,,,,,,,
1577806664.182474,64.000000,0.000000,4700.000000,4765.128418,4325.641113,4546.153809,4557.948730,450.000000,2.000000,,,,0.000000,0.000000,0.000000,0.000000,1.000000,0.000000,,,,,,,,,,,,,,,,,,,,,,,,,
1577806664.190282,65.000000,0.000000,4621.025879,4709.743652,4348.205078,4575.897461,4584.615234,450.000000,2.000000,,,,0.000000,0.000000,0.000000,0.000000,1.000000,0.000000,,,,,,,,,,,,,,,,,,,,,,,,,
1577806664.197990,66.000000,0.000000,4750.256348,4727.692383,4329.230957,4622.051270,4527.179688,3.000000,2.000000,,,,0.000000,0.000000,0.000000,0.000000,1.000000,0.000000,,,,,,,,,,,,,,,,,,,,,,,,,
1577806664.205697,67.000000,0.000000,4805.641113,4806.153809,4355.384766,4644.615234,4515.897461,450.000000,2.000000,,,,0.000000,0.000000,0.000000,0.000000,1.000000,0.000000,,,,,,,,,,,,,,,,,,,,,,,,,
1577806664.213505,68.000000,0.000000,4746.153809,4777.436035,4388.717773,4575.384766,4625.128418,12.000000,2.000000,,,,0.000000,0.000000,0.000000,0.000000,1.000000,0.000000,,,,,,,,,,,,,,,,,,,,,,,,,
1577806664.221213,69.000000,0.000000,4765.128418,4722.051270,4351.794922,4515.384766,4600.512695,450.000000,2.000000,,,,0.000000,0.000000,0.000000,0.000000,1.000000,0.000000,,,,,,,,,,,,,,,,,,,,,,,,,
1577806664.229021,70.000000,0.000000,4776.410156,4667.179688,4341.025879,4577.948730,4497.436035,0.000000,2.000000,,,,0.000000,0.000000,0.000000,0.000000,1.000000,0.000000,,,,,,,,,,,,,,,,,,,,,,,,,
1577806664.236728,71.000000,0.000000,4825.641113,4692.307617,4321.025879,4635.897461,4538.974121,450.000000,2.000000,,,,0.000000,0.000000,0.000000,0.000000,1.000000,0.000000,208.091431,5.980424,5.081219,3.820516,16.174286,108.502907,2.346138,1.519991,12.647507,16.985634,1.636216,1.514943,1.772991,3.722045,9.427158,13.613917,0.970525,1.058535,5.204049,5.396818,220.718277,15.162089,6.190976,12.887803,33.707939
1577806664.244536,72.000000,0.000000,4856.922852,4777.436035,4331.282227,4622.563965,4635.897461,450.000000,2.000000,,,,0.000000,0.000000,0.000000,0.000000,1.000000,0.000000,,,,,,,,,,,,,,,,,,,,,,,,,
1577806664.252244,73.000000,0.000000,4775.897461,4732.820313,4383.589844,4544.615234,4693.846191,37.000000,2.000000,,,,0.000000,0.000000,0.000000,0.000000,1.000000,0.000000,,,,,,,,,,,,,,,,,,,,,,,,,
1577806664.260052,74.000000,0.000000,4765.641113,4651.282227,4363.077148,4516.922852,4667.692383,450.000000,2.000000,,,,0.000000,0.000000,0.000000,0.000000,1.000000,0.000000,,,,,,,,,,,,,,,,,,,,,,,,,
1577806664.267761,75.000000,0.000000,4808.717773,4624.102539,4326.666504,4572.820313,4554.871582,0.000000,2.000000,,,,0.000000,0.000000,0.000000,0.000000,1.000000,0.000000,,,,,,,,,,,,,,,,,,,,,,,,,
1577806664.275671,76.000000,0.000000,4807.179688,4672.307617,4328.205078,4550.256348,4595.897461,450.000000,2.000000,,,,0.000000,0.000000,0.000000,0.000000,1.000000,0.000000,,,,,,,,,,,,,,,,,,,,,,,,,
1577806664.283480,77.000000,0.000000,4819.487305,4722.051270,4356.410156,4540.000000,4712.307617,450.000000,2.000000,,,,0.000000,0.000000,0.000000,0.000000,1.000000,0.000000,,,,,,,,,,,,,,,,,,,,,,,,,
1577806664.291290,78.000000,0.000000,4770.256348,4651.282227,4347.692383,4572.820313,4689.743652,450.000000,2.000000,,,,0.000000,0.000000,0.000000,0.000000,1.000000,0.000000,,,,,,,,,,,,,,,,,,,,,,,,,
1577806664.299100,79.000000,0.000000,4752.307617,4600.512695,4316.410156,4548.717773,4699.487305,0.000000,2.000000,,,,0.000000,0.000000,0.000000,0.000000,1.000000,0.000000,,,,,,,,,,,,,,,,,,,,,,,,,
1577806664.307009,80.000000,0.000000,4742.563965,4641.538574,4336.922852,4560.000000,4727.179688,450.000000,2.000000,,,,0.000000,0.000000,0.000000,0.000000,1.000000,0.000000,,,,,,,,,,,,,,,,,,,,,,,,,
1577806664.314818,81.000000,0.000000,4709.743652,4681.538574,4366.153809,4547.692383,4710.769043,450.000000,2.000000,,,,0.000000,0.000000,0.000000,0.000000,1.000000,0.000000,,,,,,,,,,,,,,,,,,,,,,,,,
1577806664.322727,82.000000,0.000000,4723.589844,4669.743652,4394.871582,4544.102539,4745.128418,450.000000,2.000000,,,,0.000000,0.000000,0.000000,0.000000,1.000000,0.000000,,,,,,,,,,,,,,,,,,,,,,,,,
1577806664.330536,83.000000,0.000000,4673.846191,4661.538574,4363.077148,4582.051270,4668.205078,0.000000,2.000000,,,,0.000000,0.000000,0.000000,0.000000,1.000000,0.000000,,,,,,,,,,,,,,,,,,,,,,,,,
1577806664.338245,84.000000,0.000000,4638.461426,4698.974121,4312.820313,4566.153809,4633.333496,450.000000,2.000000,,,,0.000000,0.000000,0.000000,0.000000,1.000000,0.000000,,,,,,,,,,,,,,,,,,,,,,,,,
1577806664.346055,85.000000,0.000000,4712.820313,4691.282227,4369.743652,4576.410156,4656.410156,450.000000,2.000000,,,,0.000000,0.000000,0.000000,0.000000,1.000000,0.000000,,,,,,,,,,,,,,,,,,,,,,,,,
1577806664.353864,86.000000,0.000000,4766.666504,4711.794922,4370.256348,4588.205078,4595.897461,450.000000,2.000000,,,,0.000000,0.000000,0.000000,0.000000,1.000000,0.000000,,,,,,,,,,,,,,,,,,,,,,,,,
1577806664.361673,87.000000,0.000000,4688.205078,4739.487305,4363.589844,4585.641113,4610.256348,0.000000,2.000000,,,,0.000000,0.000000,0.000000,0.000000,1.000000,0.000000,207.696884,7.360244,4.843214,3.871754,16.146112,108.505943,2.766104,1.664991,13.430911,16.346308,1.660159,1.336218,1.861845,4.138371,8.679481,13.389754,1.243752,1.115466,5.073712,5.356283,219.343918,14.272658,6.224982,12.807228,34.020374
1577806664.369482,88.000000,0.000000,4613.333496,4697.436035,4364.615234,4567.692383,4584.615234,450.000000,2.000000,,,,0.000000,0.000000,0.000000,0.000000,1.000000,0.000000,,,,,,,,,,,,,,,,,,,,,,,,,
1577806664.377192,89.000000,0.000000,4729.230957,4755.897461,4285.128418,4544.615234,4498.974121,450.000000,2.000000,,,,0.000000,0.000000,0.000000,0.000000,1.000000,0.000000,,,,,,,,,,,,,,,,,,,,,,,,,
1577806664.385101,90.000000,0.000000,4778.974121,4807.179688,4348.717773,4601.025879,4555.897461,450.000000,2.000000,,,,0.000000,0.000000,0.000000,0.000000,1.000000,0.000000,,,,,,,,,,,,,,,,,,,,,,,,,
1577806664.393011,91.000000,1.000000,4784.672363,4795.555664,4346.438965,4597.948730,4557.265137,400.000000,2.000000,,,,0.000000,0.000000,0.000000,0.000000,1.000000,0.000000,,,,,,,,,,,,,,,,,,,,,,,,,
1577806664.400821,92.000000,1.000000,4790.370605,4783.931641,4344.159668,4594.871582,4558.632324,350.000000,2.000000,,,,0.000000,0.000000,0.000000,0.000000,1.000000,0.000000,,,,,,,,,,,,,,,,,,,,,,,,,
1577806664.408631,93.000000,1.000000,4796.068359,4772.307617,4341.880371,4591.794922,4560.000000,300.000000,2.000000,,,,0.000000,0.000000,0.000000,0.000000,1.000000,0.000000,,,,,,,,,,,,,,,,,,,,,,,,,
1577806664.416441,94.000000,1.000000,4801.766602,4760.683594,4339.601074,4588.717773,4561.367676,250.000000,2.000000,,,,0.000000,0.000000,0.000000,0.000000,1.000000,0.000000,,,,,,,,,,,,,,,,,,,,,,,,,
1577806664.424250,95.000000,1.000000,4807.464355,4749.060059,4337.321777,4585.641113,4562.734863,200.000000,2.000000,,,,0.000000,0.000000,0.000000,0.000000,1.000000,0.000000,,,,,,,,,,,,,,,,,,,,,,,,,
1577806664.432060,96.000000,1.000000,4813.162598,4737.436035,4335.042969,4582.563965,4564.102539,150.000000,2.000000,,,,0.000000,0.000000,0.000000,0.000000,1.000000,0.000000,,,,,,,,,,,,,,,,,,,,,,,,,
1577806664.439870,97.000000,1.000000,4818.860352,4725.812012,4332.763672,4579.487305,4565.470215,100.000000,2.000000,,,,0.000000,0.000000,0.000000,0.000000,1.000000,0.000000,,,,,,,,,,,,,,,,,,,,,,,,,
1577806664.447680,98.000000,1.000000,4824.558594,4714.187988,4330.484375,4576.410156,4566.837402,50.000000,2.000000,,,,0.000000,0.000000,0.000000,0.000000,1.000000,0.000000,,,,,,,,,,,,,,,,,,,,,,,,,
1577806664.455490,99.000000,0.000000,4830.256348,4702.563965,4328.205078,4573.333496,4568.205078,0.000000,2.000000,,,,0.000000,0.000000,0.000000,0.000000,1.000000,0.000000,,,,,,,,,,,,,,,,,,,,,,,,,
1577806664.463198,100.000000,0.000000,4847.692383,4760.512695,4341.538574,4569.230957,4677.436035,450.000000,2.000000,,,,0.000000,0.000000,0.000000,0.000000,1.000000,0.000000,,,,,,,,,,,,,,,,,,,,,,,,,
1577806664.471005,101.000000,0.000000,4796.410156,4673.846191,4348.717773,4564.615234,4664.102539,450.000000,2.000000,,,,0.000000,0.000000,0.000000,0.000000,1.000000,0.000000,,,,,,,,,,,,,,,,,,,,,,,,,
1577806664.478713,102.000000,0.000000,4787.179688,4609.743652,4355.897461,4534.871582,4688.205078,450.000000,2.000000,,,,0.000000,0.000000,0.000000,0.000000,1.000000,0.000000,,,,,,,,,,,,,,,,,,,,,,,,,
1577806664.486521,103.000000,0.000000,4757.436035,4633.333496,4355.384766,4566.666504,4709.230957,0.000000,2.000000,,,,0.000000,0.000000,0.000000,0.000000,1.000000,0.000000,206.046158,8.690569,4.496218,3.833754,15.893435,106.737572,3.864541,1.875700,14.156290,15.646202,1.705273,1.136088,1.906495,4.585660,7.881369,13.019694,1.651602,1.165066,5.025558,5.263452,215.820328,13.908248,6.439034,12.855076,34.309513
1577806664.494229,104.000000,0.000000,4695.384766,4650.256348,4317.948730,4550.769043,4702.563965,450.000000,2.000000,,,,0.000000,0.000000,0.000000,0.000000,1.000000,0.000000,,,,,,,,,,,,,,,,,,,,,,,,,
1577806664.502037,105.000000,0.000000,4723.077148,4661.025879,4335.384766,4539.487305,4753.846191,450.000000,2.000000,,,,0.000000,0.000000,0.000000,0.000000,1.000000,0.000000,,,,,,,,,,,,,,,,,,,,,,,,,
1577806664.509844,106.000000,0.000000,4677.948730,4668.205078,4372.820313,4582.563965,4695.384766,450.000000,2.000000,,,,0.000000,0.000000,0.000000,0.000000,1.000000,0.000000,,,,,,,,,,,,,,,,,,,,,,,,,
1577806664.517552,107.000000,0.000000,4636.410156,4674.358887,4358.974121,4561.025879,4663.589844,0.000000,2.000000,,,,0.000000,0.000000,0.000000,0.000000,1.000000,0.000000,,,,,,,,,,,,,,,,,,,,,,,,,
1577806664.525260,108.000000,0.000000,4720.512695,4669.230957,4376.922852,4572.307617,4668.205078,450.000000,2.000000,,,,0.000000,0.000000,0.000000,0.000000,1.000000,0.000000,,,,,,,,,,,,,,,,,,,,,,,,,
1577806664.533067,109.000000,0.000000,4762.563965,4688.717773,4356.922852,4588.205078,4625.128418,450.000000,2.000000,,,,0.000000,0.000000,0.000000,0.000000,1.000000,0.000000,,,,,,,,,,,,,,,,,,,,,,,,,
1577806664.540875,110.000000,0.000000,4688.717773,4702.051270,4375.897461,4571.794922,4666.666504,450.000000,2.000000,,,,0.000000,0.000000,0.000000,0.000000,1.000000,0.000000,,,,,,,,,,,,,,,,,,,,,,,,,
1577806664.548582,111.000000,0.000000,4626.153809,4704.102539,4366.666504,4562.051270,4596.410156,0.000000,2.000000,,,,0.000000,0.000000,0.000000,0.000000,1.000000,0.000000,,,,,,,,,,,,,,,,,,,,,,,,,
1577806664.556290,112.000000,0.000000,4701.538574,4797.948730,4268.205078,4570.769043,4476.410156,450.000000,2.000000,,,,0.000000,0.000000,0.000000,0.000000,1.000000,0.000000,,,,,,,,,,,,,,,,,,,,,,,,,
1577806664.564097,113.000000,0.000000,4730.769043,4783.589844,4349.743652,4621.538574,4572.820313,450.000000,2.000000,,,,0.000000,0.000000,0.000000,0.000000,1.000000,0.000000,,,,,,,,,,,,,,,,,,,,,,,,,
1577806664.571805,114.000000,0.000000,4730.769043,4717.948730,4402.051270,4573.846191,4651.794922,450.000000,2.000000,,,,0.000000,0.000000,0.000000,0.000000,1.000000,0.000000,,,,,,,,,,,,,,,,,,,,,,,,,
1577806664.579613,115.000000,0.000000,4755.384766,4763.077148,4317.436035,4509.230957,4575.897461,0.000000,2.000000,,,,0.000000,0.000000,0.000000,0.000000,1.000000,0.000000,,,,,,,,,,,,,,,,,,,,,,,,,
1577806664.587320,116.000000,0.000000,4733.333496,4710.256348,4343.589844,4586.153809,4501.538574,450.000000,2.000000,,,,0.000000,0.000000,0.000000,0.000000,1.000000,0.000000,,,,,,,,,,,,,,,,,,,,,,,,,
1577806664.595128,117.000000,0.000000,4812.820313,4697.948730,4330.769043,4636.922852,4536.922852,450.000000,2.000000,,,,0.000000,0.000000,0.000000,0.000000,1.000000,0.000000,,,,,,,,,,,,,,,,,,,,,,,,,
1577806664.602835,118.000000,0.000000,4863.589844,4790.256348,4333.846191,4633.333496,4597.948730,450.000000,2.000000,,,,0.000000,0.000000,0.000000,0.000000,1.000000,0.000000,,,,,,,,,,,,,,,,,,,,,,,,,
1577806664.610543,119.000000,0.000000,4775.384766,4741.538574,4382.563965,4551.794922,4675.897461,0.000000,2.000000,,,,0.000000,0.000000,0.000000,0.000000,1.000000,0.000000,202.894730,9.424832,4.061270,3.727450,15.419143,102.862686,5.461199,2.179383,14.562548,14.952127,1.778140,0.970470,1.901733,4.892989,7.226316,12.453573,2.150272,1.186709,5.169051,5.160475,210.436447,13.903660,6.965302,13.019773,34.324722
1577806664.618351,120.000000,0.000000,4806.153809,4682.051270,4349.743652,4507.179688,4685.641113,450.000000,2.000000,,,,0.000000,0.000000,0.000000,0.000000,1.000000,0.000000,,,,,,,,,,,,,,,,,,,,,,,,,
1577806664.626159,121.000000,0.000000,4813.846191,4635.897461,4325.641113,4576.410156,4555.384766,450.000000,2.000000,,,,0.000000,0.000000,0.000000,0.000000,1.000000,0.000000,,,,,,,,,,,,,,,,,,,,,,,,,
1577806664.633866,122.000000,0.000000,4767.179688,4634.871582,4338.461426,4553.846191,4608.205078,450.000000,2.000000,,,,0.000000,0.000000,0.000000,0.000000,1.000000,0.000000,,,,,,,,,,,,,,,,,,,,,,,,,
1577806664.641674,123.000000,0.000000,4799.487305,4702.563965,4366.153809,4537.436035,4771.794922,0.000000,2.000000,,,,0.000000,0.000000,0.000000,0.000000,1.000000,0.000000,,,,,,,,,,,,,,,,,,,,,,,,,
1577806664.649381,124.000000,0.000000,4732.820313,4664.102539,4353.846191,4575.897461,4727.179688,450.000000,2.000000,,,,0.000000,0.000000,0.000000,0.000000,1.000000,0.000000,,,,,,,,,,,,,,,,,,,,,,,,,
1577806664.657189,125.000000,0.000000,4692.820313,4601.025879,4313.846191,4544.615234,4698.974121,450.000000,2.000000,,,,0.000000,0.000000,0.000000,0.000000,1.000000,0.000000,,,,,,,,,,,,,,,,,,,,,,,,,
1577806664.664896,126.000000,0.000000,4706.666504,4627.692383,4340.512695,4562.051270,4704.615234,450.000000,2.000000,,,,0.000000,0.000000,0.000000,0.000000,1.000000,0.000000,,,,,,,,,,,,,,,,,,,,,,,,,
1577806664.672704,127.000000,0.000000,4673.846191,4690.256348,4370.256348,4556.922852,4690.769043,230.000000,2.000000,,,,0.000000,0.000000,0.000000,0.000000,1.000000,0.000000,,,,,,,,,,,,,,,,,,,,,,,,,
1577806664.680411,0.000000,0.000000,4695.897461,4693.333496,4409.743652,4548.205078,4728.205078,450.000000,2.000000,,,,0.000000,0.000000,0.000000,0.000000,1.000000,0.000000,,,,,,,,,,,,,,,,,,,,,,,,,
1577806664.688219,1.000000,0.000000,4689.743652,4672.820313,4361.025879,4580.512695,4597.948730,450.000000,2.000000,,,,0.000000,0.000000,0.000000,0.000000,1.000000,0.000000,,,,,,,,,,,,,,,,,,,,,,,,,
1577806664.695926,2.000000,0.000000,4645.128418,4724.615234,4286.666504,4570.769043,4558.461426,0.000000,2.000000,,,,0.000000,0.000000,0.000000,0.000000,1.000000,0.000000,,,,,,,,,,,,,,,,,,,,,,,,,
1577806664.703734,3.000000,0.000000,4699.487305,4731.794922,4368.205078,4582.563965,4648.717773,450.000000,2.000000,,,,0.000000,0.000000,0.000000,0.000000,1.000000,0.000000,,,,,,,,,,,,,,,,,,,,,,,,,
1577806664.711442,4.000000,0.000000,4781.025879,4740.000000,4368.717773,4590.769043,4587.692383,4.000000,2.000000,,,,0.000000,0.000000,0.000000,0.000000,1.000000,0.000000,,,,,,,,,,,,,,,,,,,,,,,,,
1577806664.719249,5.000000,0.000000,4694.871582,4745.641113,4320.512695,4583.589844,4574.358887,450.000000,2.000000,,,,0.000000,0.000000,0.000000,0.000000,1.000000,0.000000,,,,,,,,,,,,,,,,,,,,,,,,,
1577806664.726956,6.000000,0.000000,4606.666504,4682.563965,4355.384766,4571.794922,4600.512695,0.000000,2.000000,,,,0.000000,0.000000,0.000000,0.000000,1.000000,0.000000,,,,,,,,,,,,,,,,,,,,,,,,,
1577806664.734664,7.000000,0.000000,4717.436035,4735.897461,4329.230957,4569.230957,4527.692383,450.000000,2.000000,,,,0.000000,0.000000,0.000000,0.000000,1.000000,0.000000,198.568771,9.235490,3.614983,3.650469,14.853971,97.959312,7.083651,2.601159,14.431664,14.357780,1.884884,0.892013,1.869970,4.950569,6.839054,11.751991,2.636430,1.154672,5.519365,5.079004,204.995880,14.003497,7.695446,13.195265,33.794460
1577806664.742472,8.000000,0.000000,4772.307617,4810.256348,4357.436035,4612.307617,4532.820313,450.000000,2.000000,,,,0.000000,0.000000,0.000000,0.000000,1.000000,0.000000,,,,,,,,,,,,,,,,,,,,,,,,,
1577806664.750180,9.000000,0.000000,4738.974121,4776.410156,4389.230957,4594.358887,4633.846191,59.000000,2.000000,,,,0.000000,0.000000,0.000000,0.000000,1.000000,0.000000,,,,,,,,,,,,,,,,,,,,,,,,,
1577806664.757987,10.000000,0.000000,4753.846191,4738.974121,4350.769043,4555.897461,4603.077148,450.000000,2.000000,,,,0.000000,0.000000,0.000000,0.000000,1.000000,0.000000,,,,,,,,,,,,,,,,,,,,,,,,,
1577806664.765695,11.000000,0.000000,4751.282227,4682.563965,4345.128418,4590.769043,4509.230957,0.000000,2.000000,,,,0.000000,0.000000,0.000000,0.000000,1.000000,0.000000,,,,,,,,,,,,,,,,,,,,,,,,,
1577806664.773502,12.000000,0.000000,4820.512695,4702.051270,4320.000000,4611.282227,4530.256348,450.000000,2.000000,,,,0.000000,0.000000,0.000000,0.000000,1.000000,0.000000,,,,,,,,,,,,,,,,,,,,,,,,,
1577806664.781210,13.000000,0.000000,4862.051270,4784.615234,4332.307617,4617.948730,4605.128418,450.000000,2.000000,,,,0.000000,0.000000,0.000000,0.000000,1.000000,0.000000,,,,,,,,,,,,,,,,,,,,,,,,,
1577806664.789017,14.000000,0.000000,4785.641113,4746.666504,4394.358887,4564.615234,4674.358887,450.000000,2.000000,,,,0.000000,0.000000,0.000000,0.000000,1.000000,0.000000,,,,,,,,,,,,,,,,,,,,,,,,,
1577806664.796725,15.000000,0.000000,4781.025879,4668.717773,4368.717773,4530.256348,4652.307617,0.000000,2.000000,,,,0.000000,0.000000,0.000000,0.000000,1.000000,0.000000,,,,,,,,,,,,,,,,,,,,,,,,,
1577806664.804532,16.000000,0.000000,4817.948730,4636.922852,4327.692383,4577.436035,4529.230957,0.000000,2.000000,,,,0.000000,0.000000,0.000000,0.000000,1.000000,0.000000,,,,,,,,,,,,,,,,,,,,,,,,,
1577806664.812240,17.000000,0.000000,4825.128418,4693.333496,4327.179688,4560.000000,4576.410156,0.000000,2.000000,,,,0.000000,0.000000,0.000000,0.000000,1.000000,0.000000,,,,,,,,,,,,,,,,,,,,,,,,,
1577806664.820047,18.000000,0.000000,4842.563965,4758.974121,4351.794922,4554.358887,4690.769043,0.000000,2.000000,,,,0.000000,0.000000,0.000000,0.000000,1.000000,0.000000,,,,,,,,,,,,,,,,,,,,,,,,,
1577806664.827755,19.000000,0.000000,4787.179688,4676.410156,4352.307617,4583.077148,4670.769043,0.000000,2.000000,,,,0.000000,0.000000,0.000000,0.000000,1.000000,0.000000,,,,,,,,,,,,,,,,,,,,,,,,,
1577806664.835563,20.000000,0.000000,4779.487305,4613.333496,4340.000000,4557.436035,4701.025879,0.000000,2.000000,,,,0.000000,0.000000,0.000000,0.000000,1.000000,0.000000,,,,,,,,,,,,,,,,,,,,,,,,,
1577806664.843270,21.000000,0.000000,4756.410156,4640.512695,4350.769043,4562.051270,4719.487305,0.000000,2.000000,,,,0.000000,0.000000,0.000000,0.000000,1.000000,0.000000,,,,,,,,,,,,,,,,,,,,,,,,,
1577806664.850978,22.000000,0.000000,4693.846191,4662.563965,4339.487305,4545.641113,4689.743652,0.000000,2.000000,,,,0.000000,0.000000,0.000000,0.000000,1.000000,0.000000,,,,,,,,,,,,,,,,,,,,,,,,,
1577806664.858786,23.000000,0.000000,4721.538574,4670.769043,4356.410156,4547.179688,4749.743652,0.000000,2.000000,,,,0.000000,0.000000,0.000000,0.000000,1.000000,0.000000,194.085373,8.140971,3.342902,3.729368,14.367696,94.152512,8.200306,3.080871,13.717956,13.904282,2.031315,0.927674,1.837382,4.732171,6.738072,11.065545,2.995300,1.075098,5.996533,5.047997,202.272293,14.036339,8.309713,13.200484,32.576694
1577806664.866494,24.000000,0.000000,4680.000000,4669.743652,4368.205078,4589.230957,4708.205078,0.000000,2.000000,,,,0.000000,0.000000,0.000000,0.000000,1.000000,0.000000,,,,,,,,,,,,,,,,,,,,,,,,,
1577806664.874301,25.000000,0.000000,4635.897461,4675.384766,4343.589844,4568.717773,4665.128418,0.000000,2.000000,,,,0.000000,0.000000,0.000000,0.000000,1.000000,0.000000,,,,,,,,,,,,,,,,,,,,,,,,,
1577806664.882009,26.000000,0.000000,4718.461426,4671.794922,4376.410156,4577.436035,4665.641113,0.000000,2.000000,,,,0.000000,0.000000,0.000000,0.000000,1.000000,0.000000,,,,,,,,,,,,,,,,,,,,,,,,,
1577806664.889817,27.000000,0.000000,4763.077148,4689.230957,4370.769043,4589.743652,4628.717773,0.000000,2.000000,,,,0.000000,0.000000,0.000000,0.000000,1.000000,0.000000,,,,,,,,,,,,,,,,,,,,,,,,,
1577806664.897525,28.000000,0.000000,4685.128418,4706.153809,4381.025879,4578.974121,4662.051270,0.000000,2.000000,,,,0.000000,0.000000,0.000000,0.000000,1.000000,0.000000,,,,,,,,,,,,,,,,,,,,,,,,,
1577806664.905332,29.000000,0.000000,4622.563965,4706.153809,4367.179688,4568.205078,4598.974121,0.000000,2.000000,,,,0.000000,0.000000,0.000000,0.000000,1.000000,0.000000,,,,,,,,,,,,,,,,,,,,,,,,,
1577806664.913040,30.000000,0.000000,4706.666504,4784.615234,4275.897461,4563.077148,4492.820313,0.000000,2.000000,,,,0.000000,0.000000,0.000000,0.000000,1.000000,0.000000,,,,,,,,,,,,,,,,,,,,,,,,,
1577806664.920848,31.000000,0.000000,4738.974121,4781.025879,4354.358887,4615.384766,4582.563965,0.000000,2.000000,,,,0.000000,0.000000,0.000000,0.000000,1.000000,0.000000,,,,,,,,,,,,,,,,,,,,,,,,,
1577806664.928556,32.000000,0.000000,4737.436035,4738.461426,4403.077148,4587.179688,4657.948730,0.000000,2.000000,,,,0.000000,0.000000,0.000000,0.000000,1.000000,0.000000,,,,,,,,,,,,,,,,,,,,,,,,,
1577806664.936363,33.000000,0.000000,4759.487305,4773.333496,4322.051270,4530.769043,4583.077148,0.000000,2.000000,,,,0.000000,0.000000,0.000000,0.000000,1.000000,0.000000,,,,,,,,,,,,,,,,,,,,,,,,,
1577806664.944071,34.000000,0.000000,4734.358887,4694.871582,4344.615234,4593.333496,4503.077148,0.000000,2.000000,,,,0.000000,0.000000,0.000000,0.000000,1.000000,0.000000,,,,,,,,,,,,,,,,,,,,,,,,,
1577806664.951878,35.000000,0.000000,4817.948730,4685.128418,4327.692383,4630.256348,4546.153809,0.000000,2.000000,,,,0.000000,0.000000,0.000000,0.000000,1.000000,0.000000,,,,,,,,,,,,,,,,,,,,,,,,,
1577806664.959586,36.000000,0.000000,4871.794922,4790.769043,4334.871582,4629.743652,4610.256348,0.000000,2.000000,,,,0.000000,0.000000,0.000000,0.000000,1.000000,0.000000,,,,,,,,,,,,,,,,,,,,,,,,,
1577806664.967393,37.000000,0.000000,4775.384766,4742.051270,4388.205078,4555.384766,4676.410156,0.000000,2.000000,,,,0.000000,0.000000,0.000000,0.000000,1.000000,0.000000,,,,,,,,,,,,,,,,,,,,,,,,,
1577806664.975101,38.000000,0.000000,4809.230957,4680.512695,4356.410156,4515.384766,4689.230957,0.000000,2.000000,,,,0.000000,0.000000,0.000000,0.000000,1.000000,0.000000,,,,,,,,,,,,,,,,,,,,,,,,,
1577806664.982809,39.000000,0.000000,4825.128418,4635.384766,4328.205078,4581.025879,4574.358887,0.000000,2.000000,,,,0.000000,0.000000,0.000000,0.000000,1.000000,0.000000,190.404755,6.573058,3.340621,4.039259,14.118103,93.539795,8.453050,3.516872,12.584667,13.576623,2.206848,1.051822,1.828218,4.299592,6.866672,10.572353,3.142810,0.982831,6.435327,5.086333,204.187653,13.967516,8.436881,12.844924,30.832247
1577806664.990616,40.000000,0.000000,4763.589844,4635.897461,4332.820313,4549.230957,4625.641113,0.000000,2.000000,,,,0.000000,0.000000,0.000000,0.000000,1.000000,0.000000,,,,,,,,,,,,,,,,,,,,,,,,,
1577806664.998324,41.000000,0.000000,4783.077148,4704.615234,4369.743652,4536.410156,4777.436035,0.000000,2.000000,,,,0.000000,0.000000,0.000000,0.000000,1.000000,0.000000,,,,,,,,,,,,,,,,,,,,,,,,,
1577806665.006132,42.000000,0.000000,4730.769043,4668.717773,4361.538574,4591.282227,4728.205078,0.000000,2.000000,,,,0.000000,0.000000,0.000000,0.000000,1.000000,0.000000,,,,,,,,,,,,,,,,,,,,,,,,,
1577806665.013940,43.000000,0.000000,4697.436035,4604.615234,4308.717773,4560.512695,4705.641113,0.000000,2.000000,,,,0.000000,0.000000,0.000000,0.000000,1.000000,0.000000,,,,,,,,,,,,,,,,,,,,,,,,,
1577806665.021647,44.000000,0.000000,4699.487305,4623.077148,4338.974121,4565.128418,4709.230957,0.000000,2.000000,,,,0.000000,0.000000,0.000000,0.000000,1.000000,0.000000,,,,,,,,,,,,,,,,,,,,,,,,,
1577806665.029355,45.000000,0.000000,4672.820313,4692.307617,4381.538574,4564.615234,4698.461426,0.000000,2.000000,,,,0.000000,0.000000,0.000000,0.000000,1.000000,0.000000,,,,,,,,,,,,,,,,,,,,,,,,,
1577806665.037163,46.000000,0.000000,4710.256348,4708.205078,4416.410156,4562.051270,4740.512695,0.000000,2.000000,,,,0.000000,0.000000,0.000000,0.000000,1.000000,0.000000,,,,,,,,,,,,,,,,,,,,,,,,,
1577806665.044871,47.000000,0.000000,4699.487305,4683.589844,4357.948730,4579.487305,4588.717773,0.000000,2.000000,,,,0.000000,0.000000,0.000000,0.000000,1.000000,0.000000,,,,,,,,,,,,,,,,,,,,,,,,,
1577806665.052678,48.000000,0.000000,4645.128418,4727.692383,4284.615234,4570.769043,4529.230957,0.000000,2.000000,,,,0.000000,0.000000,0.000000,0.000000,1.000000,0.000000,,,,,,,,,,,,,,,,,,,,,,,,,
1577806665.060386,49.000000,0.000000,4695.384766,4733.333496,4367.179688,4591.794922,4653.333496,0.000000,2.000000,,,,0.000000,0.000000,0.000000,0.000000,1.000000,0.000000,,,,,,,,,,,,,,,,,,,,,,,,,
1577806665.068194,50.000000,0.000000,4781.025879,4742.563965,4366.153809,4580.000000,4621.538574,0.000000,2.000000,,,,0.000000,0.000000,0.000000,0.000000,1.000000,0.000000,,,,,,,,,,,,,,,,,,,,,,,,,
1577806665.076002,51.000000,0.000000,4697.948730,4751.282227,4316.922852,4566.153809,4586.153809,0.000000,2.000000,,,,0.000000,0.000000,0.000000,0.000000,1.000000,0.000000,,,,,,,,,,,,,,,,,,,,,,,,,
1577806665.083709,52.000000,0.000000,4610.769043,4686.153809,4355.384766,4583.589844,4596.410156,0.000000,2.000000,,,,0.000000,0.000000,0.000000,0.000000,1.000000,0.000000,,,,,,,,,,,,,,,,,,,,,,,,,
1577806665.091417,53.000000,0.000000,4734.358887,4731.282227,4334.358887,4591.282227,4531.282227,0.000000,2.000000,,,,0.000000,0.000000,0.000000,0.000000,1.000000,0.000000,,,,,,,,,,,,,,,,,,,,,,,,,
1577806665.099225,54.000000,0.000000,4787.179688,4805.128418,4360.512695,4618.974121,4538.974121,0.000000,2.000000,,,,0.000000,0.000000,0.000000,0.000000,1.000000,0.000000,,,,,,,,,,,,,,,,,,,,,,,,,
1577806665.106933,55.000000,0.000000,4734.871582,4774.358887,4392.307617,4590.256348,4639.487305,0.000000,2.000000,,,,0.000000,0.000000,0.000000,0.000000,1.000000,0.000000,188.119110,5.070265,3.685536,4.558013,14.212738,96.855583,7.769153,3.748908,11.367659,13.348096,2.370792,1.209831,1.860515,3.799666,7.110741,10.395976,3.042368,0.897380,6.724000,5.202390,210.574753,13.918894,7.955785,12.156704,29.007454
1577806665.114740,56.000000,0.000000,4750.769043,4736.410156,4353.333496,4552.307617,4599.487305,0.000000,2.000000,,,,0.000000,0.000000,0.000000,0.000000,1.000000,0.000000,,,,,,,,,,,,,,,,,,,,,,,,,
1577806665.122448,57.000000,0.000000,4761.025879,4682.563965,4344.615234,4592.820313,4503.077148,0.000000,2.000000,,,,0.000000,0.000000,0.000000,0.000000,1.000000,0.000000,,,,,,,,,,,,,,,,,,,,,,,,,
1577806665.130256,58.000000,0.000000,4825.128418,4706.666504,4320.512695,4620.512695,4536.922852,0.000000,2.000000,,,,0.000000,0.000000,0.000000,0.000000,1.000000,0.000000,,,,,,,,,,,,,,,,,,,,,,,,,
1577806665.137963,59.000000,0.000000,4857.948730,4788.717773,4333.333496,4618.461426,4618.461426,0.000000,2.000000,,,,0.000000,0.000000,0.000000,0.000000,1.000000,0.000000,,,,,,,,,,,,,,,,,,,,,,,,,
1577806665.145771,60.000000,0.000000,4781.538574,4743.589844,4393.846191,4569.743652,4682.563965,0.000000,2.000000,,,,0.000000,0.000000,0.000000,0.000000,1.000000,0.000000,,,,,,,,,,,,,,,,,,,,,,,,,
1577806665.153478,61.000000,0.000000,4777.948730,4662.051270,4370.256348,4536.922852,4665.128418,0.000000,2.000000,,,,0.000000,0.000000,0.000000,0.000000,1.000000,0.000000,,,,,,,,,,,,,,,,,,,,,,,,,
1577806665.161286,62.000000,0.000000,4817.948730,4629.743652,4328.205078,4571.794922,4548.717773,0.000000,2.000000,,,,0.000000,0.000000,0.000000,0.000000,1.000000,0.000000,,,,,,,,,,,,,,,,,,,,,,,,,
1577806665.168993,63.000000,0.000000,4827.692383,4693.846191,4324.615234,4557.436035,4588.205078,0.000000,2.000000,,,,0.000000,0.000000,0.000000,0.000000,1.000000,0.000000,,,,,,,,,,,,,,,,,,,,,,,,,
1577806665.176701,64.000000,0.000000,4849.743652,4756.410156,4354.358887,4554.358887,4694.358887,450.000000,2.000000,,,,0.000000,0.000000,0.000000,0.000000,1.000000,0.000000,,,,,,,,,,,,,,,,,,,,,,,,,
1577806665.184509,65.000000,0.000000,4795.384766,4656.410156,4356.922852,4575.897461,4673.846191,450.000000,2.000000,,,,0.000000,0.000000,0.000000,0.000000,1.000000,0.000000,,,,,,,,,,,,,,,,,,,,,,,,,
1577806665.192317,66.000000,0.000000,4778.461426,4596.410156,4329.230957,4552.820313,4701.025879,0.000000,2.000000,,,,0.000000,0.000000,0.000000,0.000000,1.000000,0.000000,,,,,,,,,,,,,,,,,,,,,,,,,
1577806665.200024,67.000000,0.000000,4753.846191,4649.743652,4337.948730,4566.153809,4716.410156,450.000000,2.000000,,,,0.000000,0.000000,0.000000,0.000000,1.000000,0.000000,,,,,,,,,,,,,,,,,,,,,,,,,
1577806665.207832,68.000000,0.000000,4695.384766,4671.794922,4354.871582,4551.794922,4689.743652,1.000000,2.000000,,,,0.000000,0.000000,0.000000,0.000000,1.000000,0.000000,,,,,,,,,,,,,,,,,,,,,,,,,
1577806665.215539,69.000000,0.000000,4713.846191,4655.384766,4379.487305,4547.692383,4749.743652,450.000000,2.000000,,,,0.000000,0.000000,0.000000,0.000000,1.000000,0.000000,,,,,,,,,,,,,,,,,,,,,,,,,
1577806665.223347,70.000000,0.000000,4672.820313,4660.000000,4363.077148,4586.666504,4706.153809,0.000000,2.000000,,,,0.000000,0.000000,0.000000,0.000000,1.000000,0.000000,,,,,,,,,,,,,,,,,,,,,,,,,
1577806665.231054,71.000000,0.000000,4643.589844,4684.615234,4323.077148,4570.256348,4670.256348,450.000000,2.000000,,,,0.000000,0.000000,0.000000,0.000000,1.000000,0.000000,187.403671,4.185603,4.325539,5.134676,14.666200,102.987778,6.543963,3.676665,10.426050,13.211586,2.477063,1.348992,1.914017,3.373647,7.374559,10.487169,2.748019,0.850047,6.791452,5.371578,219.221497,14.332447,6.959178,11.303479,27.625834
1577806665.238862,72.000000,0.000000,4723.589844,4681.538574,4370.769043,4582.051270,4675.897461,450.000000,2.000000,,,,0.000000,0.000000,0.000000,0.000000,1.000000,0.000000,,,,,,,,,,,,,,,,,,,,,,,,,
1577806665.246569,73.000000,0.000000,4759.487305,4699.487305,4385.641113,4589.230957,4629.743652,60.000000,2.000000,,,,0.000000,0.000000,0.000000,0.000000,1.000000,0.000000,,,,,,,,,,,,,,,,,,,,,,,,,
1577806665.254277,74.000000,0.000000,4690.256348,4721.025879,4394.358887,4583.077148,4657.948730,450.000000,2.000000,,,,0.000000,0.000000,0.000000,0.000000,1.000000,0.000000,,,,,,,,,,,,,,,,,,,,,,,,,
1577806665.262085,75.000000,0.000000,4635.897461,4717.436035,4363.589844,4576.410156,4604.615234,0.000000,2.000000,,,,0.000000,0.000000,0.000000,0.000000,1.000000,0.000000,,,,,,,,,,,,,,,,,,,,,,,,,
1577806665.269793,76.000000,0.000000,4708.205078,4788.205078,4267.179688,4554.871582,4494.871582,450.000000,2.000000,,,,0.000000,0.000000,0.000000,0.000000,1.000000,0.000000,,,,,,,,,,,,,,,,,,,,,,,,,
1577806665.277601,77.000000,0.000000,4733.333496,4782.051270,4355.897461,4602.051270,4567.179688,450.000000,2.000000,,,,0.000000,0.000000,0.000000,0.000000,1.000000,0.000000,,,,,,,,,,,,,,,,,,,,,,,,,
1577806665.285308,78.000000,0.000000,4743.589844,4735.897461,4405.128418,4596.922852,4647.692383,450.000000,2.000000,,,,0.000000,0.000000,0.000000,0.000000,1.000000,0.000000,,,,,,,,,,,,,,,,,,,,,,,,,
1577806665.293116,79.000000,0.000000,4776.922852,4769.230957,4318.461426,4558.461426,4588.717773,0.000000,2.000000,,,,0.000000,0.000000,0.000000,0.000000,1.000000,0.000000,,,,,,,,,,,,,,,,,,,,,,,,,
1577806665.300824,80.000000,0.000000,4749.230957,4698.461426,4345.128418,4597.436035,4510.769043,450.000000,2.000000,,,,0.000000,0.000000,0.000000,0.000000,1.000000,0.000000,,,,,,,,,,,,,,,,,,,,,,,,,
1577806665.308632,81.000000,0.000000,4819.487305,4690.256348,4329.230957,4601.025879,4548.205078,450.000000,2.000000,,,,0.000000,0.000000,0.000000,0.000000,1.000000,0.000000,,,,,,,,,,,,,,,,,,,,,,,,,
1577806665.316339,82.000000,0.000000,4868.717773,4789.743652,4332.307617,4608.717773,4612.307617,450.000000,2.000000,,,,0.000000,0.000000,0.000000,0.000000,1.000000,0.000000,,,,,,,,,,,,,,,,,,,,,,,,,
1577806665.324147,83.000000,0.000000,4778.974121,4741.025879,4390.256348,4571.282227,4678.974121,0.000000,2.000000,,,,0.000000,0.000000,0.000000,0.000000,1.000000,0.000000,,,,,,,,,,,,,,,,,,,,,,,,,
1577806665.331854,84.000000,0.000000,4801.025879,4683.589844,4354.358887,4527.179688,4692.307617,450.000000,2.000000,,,,0.000000,0.000000,0.000000,0.000000,1.000000,0.000000,,,,,,,,,,,,,,,,,,,,,,,,,
1577806665.339662,85.000000,0.000000,4832.307617,4645.641113,4318.461426,4565.128418,4580.512695,450.000000,2.000000,,,,0.000000,0.000000,0.000000,0.000000,1.000000,0.000000,,,,,,,,,,,,,,,,,,,,,,,,,
1577806665.347369,86.000000,0.000000,4795.384766,4651.282227,4333.333496,4549.743652,4607.692383,450.000000,2.000000,,,,0.000000,0.000000,0.000000,0.000000,1.000000,0.000000,,,,,,,,,,,,,,,,,,,,,,,,,
1577806665.355177,87.000000,0.000000,4817.436035,4707.692383,4361.538574,4548.717773,4734.871582,0.000000,2.000000,,,,0.000000,0.000000,0.000000,0.000000,1.000000,0.000000,188.068527,4.311312,5.005684,5.553638,15.397705,109.467110,5.425511,3.322906,9.979169,13.203958,2.493706,1.454432,1.959955,3.108118,7.640269,10.704352,2.391724,0.884736,6.608423,5.534047,226.782776,15.620910,5.739744,10.529426,27.107718
1577806665.362885,88.000000,0.000000,4775.897461,4653.333496,4348.717773,4582.051270,4715.897461,450.000000,2.000000,,,,0.000000,0.000000,0.000000,0.000000,1.000000,0.000000,,,,,,,,,,,,,,,,,,,,,,,,,
1577806665.370692,89.000000,0.000000,4746.153809,4597.436035,4313.846191,4554.871582,4708.717773,450.000000,2.000000,,,,0.000000,0.000000,0.000000,0.000000,1.000000,0.000000,,,,,,,,,,,,,,,,,,,,,,,,,
1577806665.378400,90.000000,0.000000,4722.051270,4635.384766,4334.358887,4566.153809,4722.051270,450.000000,2.000000,,,,0.000000,0.000000,0.000000,0.000000,1.000000,0.000000,,,,,,,,,,,,,,,,,,,,,,,,,
1577806665.386207,91.000000,0.000000,4685.641113,4680.512695,4368.717773,4556.922852,4720.000000,0.000000,2.000000,,,,0.000000,0.000000,0.000000,0.000000,1.000000,0.000000,,,,,,,,,,,,,,,,,,,,,,,,,
1577806665.393915,92.000000,0.000000,4722.563965,4675.384766,4412.820313,4547.692383,4756.410156,450.000000,2.000000,,,,0.000000,0.000000,0.000000,0.000000,1.000000,0.000000,,,,,,,,,,,,,,,,,,,,,,,,,
1577806665.401722,93.000000,0.000000,4692.307617,4669.230957,4370.256348,4580.512695,4634.871582,450.000000,2.000000,,,,0.000000,0.000000,0.000000,0.000000,1.000000,0.000000,,,,,,,,,,,,,,,,,,,,,,,,,
1577806665.409430,94.000000,0.000000,4647.692383,4709.230957,4291.794922,4570.256348,4591.282227,450.000000,2.000000,,,,0.000000,0.000000,0.000000,0.000000,1.000000,0.000000,,,,,,,,,,,,,,,,,,,,,,,,,
1577806665.417237,95.000000,0.000000,4707.179688,4697.436035,4356.922852,4578.974121,4667.179688,0.000000,2.000000,,,,0.000000,0.000000,0.000000,0.000000,1.000000,0.000000,,,,,,,,,,,,,,,,,,,,,,,,,
1577806665.424945,96.000000,0.000000,4761.538574,4716.410156,4382.051270,4585.641113,4615.384766,450.000000,2.000000,,,,0.000000,0.000000,0.000000,0.000000,1.000000,0.000000,,,,,,,,,,,,,,,,,,,,,,,,,
1577806665.432752,97.000000,0.000000,4683.589844,4748.717773,4368.205078,4606.666504,4596.410156,450.000000,2.000000,,,,0.000000,0.000000,0.000000,0.000000,1.000000,0.000000,,,,,,,,,,,,,,,,,,,,,,,,,
1577806665.440460,98.000000,0.000000,4616.410156,4699.487305,4361.025879,4591.794922,4578.461426,450.000000,2.000000,,,,0.000000,0.000000,0.000000,0.000000,1.000000,0.000000,,,,,,,,,,,,,,,,,,,,,,,,,
1577806665.448268,99.000000,0.000000,4735.897461,4748.205078,4286.666504,4527.692383,4508.205078,0.000000,2.000000,,,,0.000000,0.000000,0.000000,0.000000,1.000000,0.000000,,,,,,,,,,,,,,,,,,,,,,,,,
1577806665.455977,100.000000,0.000000,4783.589844,4801.538574,4350.769043,4581.025879,4549.743652,450.000000,2.000000,,,,0.000000,0.000000,0.000000,0.000000,1.000000,0.000000,,,,,,,,,,,,,,,,,,,,,,,,,
1577806665.463785,101.000000,0.000000,4736.410156,4756.922852,4404.615234,4630.256348,4634.358887,450.000000,2.000000,,,,0.000000,0.000000,0.000000,0.000000,1.000000,0.000000,,,,,,,,,,,,,,,,,,,,,,,,,
1577806665.471493,102.000000,0.000000,4745.641113,4733.846191,4340.000000,4599.487305,4590.769043,450.000000,2.000000,,,,0.000000,0.000000,0.000000,0.000000,1.000000,0.000000,,,,,,,,,,,,,,,,,,,,,,,,,
1577806665.479301,103.000000,0.000000,4748.717773,4678.461426,4345.128418,4586.153809,4499.487305,0.000000,2.000000,,,,0.000000,0.000000,0.000000,0.000000,1.000000,0.000000,189.483795,5.398545,5.424895,5.680078,16.257477,113.789864,4.895836,2.825320,10.022149,13.394198,2.404184,1.532721,1.995361,3.011566,7.954995,10.881367,2.082578,0.987077,6.269176,5.635869,230.551987,17.602539,4.682416,10.165275,27.641916
1577806665.487009,104.000000,0.000000,4821.538574,4694.871582,4328.205078,4573.333496,4534.358887,450.000000,2.000000,,,,0.000000,0.000000,0.000000,0.000000,1.000000,0.000000,,,,,,,,,,,,,,,,,,,,,,,,,
1577806665.494817,105.000000,0.000000,4869.230957,4784.615234,4329.230957,4595.384766,4620.512695,450.000000,2.000000,,,,0.000000,0.000000,0.000000,0.000000,1.000000,0.000000,,,,,,,,,,,,,,,,,,,,,,,,,
1577806665.502525,106.000000,0.000000,4789.230957,4741.538574,4380.512695,4577.948730,4685.128418,450.000000,2.000000,,,,0.000000,0.000000,0.000000,0.000000,1.000000,0.000000,,,,,,,,,,,,,,,,,,,,,,,,,
1577806665.510333,107.000000,0.000000,4778.461426,4662.051270,4361.538574,4543.077148,4665.128418,0.000000,2.000000,,,,0.000000,0.000000,0.000000,0.000000,1.000000,0.000000,,,,,,,,,,,,,,,,,,,,,,,,,
1577806665.518041,108.000000,0.000000,4822.051270,4634.358887,4327.179688,4567.692383,4550.256348,450.000000,2.000000,,,,0.000000,0.000000,0.000000,0.000000,1.000000,0.000000,,,,,,,,,,,,,,,,,,,,,,,,,
1577806665.525849,109.000000,0.000000,4825.641113,4688.205078,4324.615234,4556.922852,4588.717773,450.000000,2.000000,,,,0.000000,0.000000,0.000000,0.000000,1.000000,0.000000,,,,,,,,,,,,,,,,,,,,,,,,,
1577806665.533557,110.000000,0.000000,4836.410156,4746.666504,4340.000000,4560.000000,4688.717773,450.000000,2.000000,,,,0.000000,0.000000,0.000000,0.000000,1.000000,0.000000,,,,,,,,,,,,,,,,,,,,,,,,,
1577806665.541265,111.000000,0.000000,4785.128418,4663.589844,4345.641113,4579.487305,4668.717773,0.000000,2.000000,,,,0.000000,0.000000,0.000000,0.000000,1.000000,0.000000,,,,,,,,,,,,,,,,,,,,,,,,,
1577806665.549073,112.000000,0.000000,4776.922852,4601.025879,4340.512695,4555.384766,4706.153809,450.000000,2.000000,,,,0.000000,0.000000,0.000000,0.000000,1.000000,0.000000,,,,,,,,,,,,,,,,,,,,,,,,,
1577806665.556781,113.000000,0.000000,4754.871582,4631.282227,4343.077148,4571.282227,4723.077148,450.000000,2.000000,,,,0.000000,0.000000,0.000000,0.000000,1.000000,0.000000,,,,,,,,,,,,,,,,,,,,,,,,,
1577806665.564590,114.000000,0.000000,4698.974121,4658.461426,4336.410156,4557.948730,4688.717773,450.000000,2.000000,,,,0.000000,0.000000,0.000000,0.000000,1.000000,0.000000,,,,,,,,,,,,,,,,,,,,,,,,,
1577806665.572298,115.000000,0.000000,4718.461426,4658.461426,4366.666504,4547.179688,4750.769043,0.000000,2.000000,,,,0.000000,0.000000,0.000000,0.000000,1.000000,0.000000,,,,,,,,,,,,,,,,,,,,,,,,,
1577806665.580106,116.000000,0.000000,4676.410156,4657.436035,4368.717773,4583.589844,4711.794922,450.000000,2.000000,,,,0.000000,0.000000,0.000000,0.000000,1.000000,0.000000,,,,,,,,,,,,,,,,,,,,,,,,,
1577806665.587814,117.000000,0.000000,4644.615234,4677.436035,4331.794922,4567.692383,4667.692383,450.000000,2.000000,,,,0.000000,0.000000,0.000000,0.000000,1.000000,0.000000,,,,,,,,,,,,,,,,,,,,,,,,,
1577806665.595622,118.000000,0.000000,4719.487305,4674.871582,4374.358887,4577.948730,4666.666504,450.000000,2.000000,,,,0.000000,0.000000,0.000000,0.000000,1.000000,0.000000,,,,,,,,,,,,,,,,,,,,,,,,,
1577806665.603330,119.000000,0.000000,4757.436035,4694.358887,4373.846191,4585.641113,4623.589844,0.000000,2.000000,,,,0.000000,0.000000,0.000000,0.000000,1.000000,0.000000,190.884445,6.990838,5.452201,5.529554,17.066406,114.775116,5.106392,2.333430,10.326776,13.834639,2.223609,1.605606,2.029053,3.044554,8.387173,10.931404,1.885751,1.080189,5.881213,5.608383,229.846191,19.657726,4.057634,10.306024,28.999819
1577806665.611138,120.000000,0.000000,4685.641113,4717.436035,4377.436035,4581.538574,4655.897461,450.000000,2.000000,,,,0.000000,0.000000,0.000000,0.000000,1.000000,0.000000,,,,,,,,,,,,,,,,,,,,,,,,,
1577806665.618846,121.000000,0.000000,4627.692383,4710.256348,4360.512695,4572.307617,4604.615234,450.000000,2.000000,,,,0.000000,0.000000,0.000000,0.000000,1.000000,0.000000,,,,,,,,,,,,,,,,,,,,,,,,,
1577806665.626654,122.000000,0.000000,4723.077148,4781.538574,4269.230957,4548.717773,4493.846191,450.000000,2.000000,,,,0.000000,0.000000,0.000000,0.000000,1.000000,0.000000,,,,,,,,,,,,,,,,,,,,,,,,,
1577806665.634362,123.000000,0.000000,4750.256348,4786.666504,4353.846191,4601.538574,4568.717773,0.000000,2.000000,,,,0.000000,0.000000,0.000000,0.000000,1.000000,0.000000,,,,,,,,,,,,,,,,,,,,,,,,,
1577806665.642170,124.000000,0.000000,4727.692383,4747.179688,4404.615234,4601.025879,4650.256348,450.000000,2.000000,,,,0.000000,0.000000,0.000000,0.000000,1.000000,0.000000,,,,,,,,,,,,,,,,,,,,,,,,,
1577806665.649878,125.000000,0.000000,4763.589844,4771.282227,4320.000000,4560.000000,4579.487305,450.000000,2.000000,,,,0.000000,0.000000,0.000000,0.000000,1.000000,0.000000,,,,,,,,,,,,,,,,,,,,,,,,,
1577806665.657686,126.000000,0.000000,4762.051270,4688.717773,4343.589844,4592.307617,4493.333496,450.000000,2.000000,,,,0.000000,0.000000,0.000000,0.000000,1.000000,0.000000,,,,,,,,,,,,,,,,,,,,,,,,,
1577806665.665394,127.000000,0.000000,4826.153809,4681.025879,4328.717773,4595.897461,4546.153809,230.000000,2.000000,,,,0.000000,0.000000,0.000000,0.000000,1.000000,0.000000,,,,,,,,,,,,,,,,,,,,,,,,,
1577806665.673102,0.000000,0.000000,4865.128418,4789.743652,4330.256348,4608.717773,4622.563965,450.000000,2.000000,,,,0.000000,0.000000,0.000000,0.000000,1.000000,0.000000,,,,,,,,,,,,,,,,,,,,,,,,,
1577806665.680910,1.000000,0.000000,4783.589844,4741.025879,4379.487305,4565.128418,4687.179688,450.000000,2.000000,,,,0.000000,0.000000,0.000000,0.000000,1.000000,0.000000,,,,,,,,,,,,,,,,,,,,,,,,,
1577806665.688719,2.000000,0.000000,4810.256348,4673.333496,4347.692383,4521.025879,4696.922852,2.000000,2.000000,,,,0.000000,0.000000,0.000000,0.000000,1.000000,0.000000,,,,,,,,,,,,,,,,,,,,,,,,,
1577806665.696427,3.000000,0.000000,4814.358887,4626.153809,4321.025879,4572.820313,4579.487305,450.000000,2.000000,,,,0.000000,0.000000,0.000000,0.000000,1.000000,0.000000,,,,,,,,,,,,,,,,,,,,,,,,,
1577806665.704135,4.000000,0.000000,4771.282227,4632.820313,4334.871582,4548.205078,4629.743652,0.000000,2.000000,,,,0.000000,0.000000,0.000000,0.000000,1.000000,0.000000,,,,,,,,,,,,,,,,,,,,,,,,,
1577806665.711943,5.000000,0.000000,4796.922852,4704.615234,4368.205078,4540.000000,4789.230957,450.000000,2.000000,,,,0.000000,0.000000,0.000000,0.000000,1.000000,0.000000,,,,,,,,,,,,,,,,,,,,,,,,,
1577806665.719652,6.000000,0.000000,4722.051270,4668.205078,4354.358887,4586.666504,4737.436035,3.000000,2.000000,,,,0.000000,0.000000,0.000000,0.000000,1.000000,0.000000,,,,,,,,,,,,,,,,,,,,,,,,,
1577806665.727460,7.000000,0.000000,4685.641113,4602.563965,4309.230957,4560.000000,4702.563965,450.000000,2.000000,,,,0.000000,0.000000,0.000000,0.000000,1.000000,0.000000,191.710495,8.423449,5.132267,5.257022,17.690805,112.838646,5.752020,1.944411,10.605525,14.494673,2.003763,1.692913,2.056955,3.137008,8.958953,10.856661,1.806722,1.089657,5.500560,5.405979,225.872009,21.030230,3.873812,10.873716,30.625105
1577806665.735168,8.000000,0.000000,4703.589844,4623.077148,4342.051270,4567.179688,4699.487305,450.000000,2.000000,,,,0.000000,0.000000,0.000000,0.000000,1.000000,0.000000,,,,,,,,,,,,,,,,,,,,,,,,,
1577806665.742976,9.000000,0.000000,4671.794922,4694.358887,4376.922852,4560.512695,4695.897461,41.000000,2.000000,,,,0.000000,0.000000,0.000000,0.000000,1.000000,0.000000,,,,,,,,,,,,,,,,,,,,,,,,,
1577806665.750684,10.000000,0.000000,4697.436035,4708.205078,4415.897461,4560.000000,4741.538574,450.000000,2.000000,,,,0.000000,0.000000,0.000000,0.000000,1.000000,0.000000,,,,,,,,,,,,,,,,,,,,,,,,,
1577806665.758492,11.000000,0.000000,4695.897461,4684.102539,4359.487305,4583.077148,4580.000000,0.000000,2.000000,,,,0.000000,0.000000,0.000000,0.000000,1.000000,0.000000,,,,,,,,,,,,,,,,,,,,,,,,,
1577806665.766300,12.000000,0.000000,4653.333496,4735.897461,4270.256348,4574.871582,4520.000000,450.000000,2.000000,,,,0.000000,0.000000,0.000000,0.000000,1.000000,0.000000,,,,,,,,,,,,,,,,,,,,,,,,,
1577806665.774008,13.000000,0.000000,4697.436035,4737.436035,4353.846191,4595.384766,4657.948730,450.000000,2.000000,,,,0.000000,0.000000,0.000000,0.000000,1.000000,0.000000,,,,,,,,,,,,,,,,,,,,,,,,,
1577806665.781816,14.000000,0.000000,4775.384766,4745.641113,4377.436035,4580.512695,4625.128418,450.000000,2.000000,,,,0.000000,0.000000,0.000000,0.000000,1.000000,0.000000,,,,,,,,,,,,,,,,,,,,,,,,,
1577806665.789524,15.000000,0.000000,4696.410156,4755.384766,4333.846191,4553.846191,4576.922852,0.000000,2.000000,,,,0.000000,0.000000,0.000000,0.000000,1.000000,0.000000,,,,,,,,,,,,,,,,,,,,,,,,,
1577806665.797232,16.000000,0.000000,4619.487305,4676.410156,4348.205078,4576.410156,4591.794922,0.000000,2.000000,,,,0.000000,0.000000,0.000000,0.000000,1.000000,0.000000,,,,,,,,,,,,,,,,,,,,,,,,,
1577806665.805040,17.000000,0.000000,4743.077148,4722.563965,4313.846191,4608.717773,4535.384766,0.000000,2.000000,,,,0.000000,0.000000,0.000000,0.000000,1.000000,0.000000,,,,,,,,,,,,,,,,,,,,,,,,,
1577806665.812848,18.000000,0.000000,4798.461426,4815.897461,4354.871582,4633.846191,4536.410156,0.000000,2.000000,,,,0.000000,0.000000,0.000000,0.000000,1.000000,0.000000,,,,,,,,,,,,,,,,,,,,,,,,,
1577806665.820556,19.000000,0.000000,4748.205078,4775.897461,4393.846191,4580.512695,4637.436035,0.000000,2.000000,,,,0.000000,0.000000,0.000000,0.000000,1.000000,0.000000,,,,,,,,,,,,,,,,,,,,,,,,,
1577806665.828264,20.000000,0.000000,4757.948730,4720.512695,4348.717773,4529.743652,4604.102539,0.000000,2.000000,,,,0.000000,0.000000,0.000000,0.000000,1.000000,0.000000,,,,,,,,,,,,,,,,,,,,,,,,,
1577806665.836072,21.000000,0.000000,4763.589844,4673.846191,4344.102539,4588.717773,4507.179688,0.000000,2.000000,,,,0.000000,0.000000,0.000000,0.000000,1.000000,0.000000,,,,,,,,,,,,,,,,,,,,,,,,,
1577806665.843880,22.000000,0.000000,4829.230957,4704.615234,4323.589844,4637.948730,4541.538574,0.000000,2.000000,,,,0.000000,0.000000,0.000000,0.000000,1.000000,0.000000,,,,,,,,,,,,,,,,,,,,,,,,,
1577806665.851588,23.000000,0.000000,4867.692383,4781.538574,4327.692383,4622.563965,4626.153809,0.000000,2.000000,,,,0.000000,0.000000,0.000000,0.000000,1.000000,0.000000,191.965027,9.161461,4.618483,5.046558,18.072062,109.528069,6.286414,1.692058,10.664652,15.210794,1.818184,1.800376,2.057217,3.241752,9.614378,10.719183,1.789562,0.982493,5.148768,5.050867,220.844040,21.209232,3.930930,11.739420,31.889105
1577806665.859395,24.000000,0.000000,4787.179688,4735.384766,4381.025879,4550.769043,4687.179688,0.000000,2.000000,,,,0.000000,0.000000,0.000000,0.000000,1.000000,0.000000,,,,,,,,,,,,,,,,,,,,,,,,,
1577806665.867104,25.000000,0.000000,4774.871582,4658.461426,4361.538574,4527.692383,4663.077148,0.000000,2.000000,,,,0.000000,0.000000,0.000000,0.000000,1.000000,0.000000,,,,,,,,,,,,,,,,,,,,,,,,,
1577806665.874812,26.000000,0.000000,4814.358887,4628.205078,4324.615234,4576.410156,4545.128418,0.000000,2.000000,,,,0.000000,0.000000,0.000000,0.000000,1.000000,0.000000,,,,,,,,,,,,,,,,,,,,,,,,,
1577806665.882621,27.000000,0.000000,4823.077148,4685.128418,4322.563965,4553.846191,4592.307617,0.000000,2.000000,,,,0.000000,0.000000,0.000000,0.000000,1.000000,0.000000,,,,,,,,,,,,,,,,,,,,,,,,,
1577806665.890429,28.000000,0.000000,4842.563965,4743.077148,4342.563965,4548.717773,4707.179688,0.000000,2.000000,,,,0.000000,0.000000,0.000000,0.000000,1.000000,0.000000,,,,,,,,,,,,,,,,,,,,,,,,,
1577806665.898238,29.000000,0.000000,4789.743652,4648.205078,4348.717773,4582.563965,4686.666504,0.000000,2.000000,,,,0.000000,0.000000,0.000000,0.000000,1.000000,0.000000,,,,,,,,,,,,,,,,,,,,,,,,,
1577806665.905946,30.000000,0.000000,4774.358887,4590.256348,4335.897461,4555.384766,4707.179688,0.000000,2.000000,,,,0.000000,0.000000,0.000000,0.000000,1.000000,0.000000,,,,,,,,,,,,,,,,,,,,,,,,,
1577806665.913754,31.000000,0.000000,4754.871582,4644.615234,4339.487305,4561.538574,4722.563965,0.000000,2.000000,,,,0.000000,0.000000,0.000000,0.000000,1.000000,0.000000,,,,,,,,,,,,,,,,,,,,,,,,,
1577806665.921461,32.000000,0.000000,4702.051270,4673.333496,4344.615234,4549.230957,4696.410156,0.000000,2.000000,,,,0.000000,0.000000,0.000000,0.000000,1.000000,0.000000,,,,,,,,,,,,,,,,,,,,,,,,,
1577806665.929269,33.000000,0.000000,4722.563965,4657.436035,4377.948730,4544.102539,4752.307617,0.000000,2.000000,,,,0.000000,0.000000,0.000000,0.000000,1.000000,0.000000,,,,,,,,,,,,,,,,,,,,,,,,,
1577806665.936977,34.000000,0.000000,4680.000000,4656.410156,4364.102539,4575.897461,4701.025879,0.000000,2.000000,,,,0.000000,0.000000,0.000000,0.000000,1.000000,0.000000,,,,,,,,,,,,,,,,,,,,,,,,,
1577806665.944785,35.000000,0.000000,4641.538574,4681.538574,4315.384766,4561.538574,4660.000000,0.000000,2.000000,,,,0.000000,0.000000,0.000000,0.000000,1.000000,0.000000,,,,,,,,,,,,,,,,,,,,,,,,,
1577806665.952493,36.000000,0.000000,4721.025879,4677.948730,4369.230957,4580.000000,4667.692383,0.000000,2.000000,,,,0.000000,0.000000,0.000000,0.000000,1.000000,0.000000,,,,,,,,,,,,,,,,,,,,,,,,,
1577806665.960300,37.000000,0.000000,4766.666504,4698.974121,4386.666504,4591.282227,4620.512695,0.000000,2.000000,,,,0.000000,0.000000,0.000000,0.000000,1.000000,0.000000,,,,,,,,,,,,,,,,,,,,,,,,,
1577806665.968008,38.000000,0.000000,4685.641113,4720.512695,4386.666504,4577.948730,4649.743652,0.000000,2.000000,,,,0.000000,0.000000,0.000000,0.000000,1.000000,0.000000,,,,,,,,,,,,,,,,,,,,,,,,,
1577806665.975716,39.000000,0.000000,4619.487305,4708.205078,4356.922852,4568.205078,4604.102539,0.000000,2.000000,,,,0.000000,0.000000,0.000000,0.000000,1.000000,0.000000,192.397873,9.104018,4.101033,4.997715,18.192408,107.002747,6.489425,1.544538,10.507873,15.779681,1.734928,1.919188,1.992760,3.333128,10.261277,10.604949,1.771635,0.803432,4.800737,4.596408,217.499008,20.476871,3.979128,12.663944,32.438461
1577806665.983524,40.000000,0.000000,4711.794922,4775.897461,4265.641113,4561.025879,4495.897461,0.000000,2.000000,,,,0.000000,0.000000,0.000000,0.000000,1.000000,0.000000,,,,,,,,,,,,,,,,,,,,,,,,,
1577806665.991232,41.000000,0.000000,4745.641113,4785.128418,4354.358887,4610.769043,4567.179688,0.000000,2.000000,,,,0.000000,0.000000,0.000000,0.000000,1.000000,0.000000,,,,,,,,,,,,,,,,,,,,,,,,,
1577806665.999040,42.000000,0.000000,4740.512695,4747.692383,4401.025879,4587.179688,4651.282227,0.000000,2.000000,,,,0.000000,0.000000,0.000000,0.000000,1.000000,0.000000,,,,,,,,,,,,,,,,,,,,,,,,,
1577806666.006748,43.000000,0.000000,4774.871582,4770.256348,4314.871582,4539.487305,4585.128418,0.000000,2.000000,,,,0.000000,0.000000,0.000000,0.000000,1.000000,0.000000,,,,,,,,,,,,,,,,,,,,,,,,,
1577806666.014556,44.000000,0.000000,4749.230957,4687.692383,4340.000000,4595.384766,4496.410156,0.000000,2.000000,,,,0.000000,0.000000,0.000000,0.000000,1.000000,0.000000,,,,,,,,,,,,,,,,,,,,,,,,,
1577806666.022264,45.000000,0.000000,4816.922852,4682.563965,4323.077148,4616.410156,4544.102539,0.000000,2.000000,,,,0.000000,0.000000,0.000000,0.000000,1.000000,0.000000,,,,,,,,,,,,,,,,,,,,,,,,,
1577806666.030072,46.000000,0.000000,4869.743652,4790.256348,4329.230957,4619.487305,4617.948730,0.000000,2.000000,,,,0.000000,0.000000,0.000000,0.000000,1.000000,0.000000,,,,,,,,,,,,,,,,,,,,,,,,,
1577806666.037780,47.000000,0.000000,4772.307617,4734.871582,4382.563965,4557.948730,4681.538574,0.000000,2.000000,,,,0.000000,0.000000,0.000000,0.000000,1.000000,0.000000,,,,,,,,,,,,,,,,,,,,,,,,,
1577806666.045588,48.000000,0.000000,4795.897461,4667.179688,4350.256348,4516.410156,4692.307617,0.000000,2.000000,,,,0.000000,0.000000,0.000000,0.000000,1.000000,0.000000,,,,,,,,,,,,,,,,,,,,,,,,,
1577806666.053296,49.000000,0.000000,4810.769043,4628.717773,4323.589844,4577.436035,4575.897461,0.000000,2.000000,,,,0.000000,0.000000,0.000000,0.000000,1.000000,0.000000,,,,,,,,,,,,,,,,,,,,,,,,,
1577806666.061104,50.000000,0.000000,4760.000000,4635.897461,4330.256348,4546.666504,4624.615234,0.000000,2.000000,,,,0.000000,0.000000,0.000000,0.000000,1.000000,0.000000,,,,,,,,,,,,,,,,,,,,,,,,,
1577806666.068812,51.000000,0.000000,4776.410156,4700.512695,4354.358887,4534.358887,4783.077148,0.000000,2.000000,,,,0.000000,0.000000,0.000000,0.000000,1.000000,0.000000,,,,,,,,,,,,,,,,,,,,,,,,,
1577806666.076620,52.000000,0.000000,4723.589844,4663.077148,4355.384766,4587.692383,4732.820313,0.000000,2.000000,,,,0.000000,0.000000,0.000000,0.000000,1.000000,0.000000,,,,,,,,,,,,,,,,,,,,,,,,,
1577806666.084328,53.000000,0.000000,4698.461426,4599.487305,4328.205078,4560.000000,4700.000000,0.000000,2.000000,,,,0.000000,0.000000,0.000000,0.000000,1.000000,0.000000,,,,,,,,,,,,,,,,,,,,,,,,,
1577806666.092136,54.000000,0.000000,4681.538574,4613.846191,4344.102539,4564.102539,4703.589844,0.000000,2.000000,,,,0.000000,0.000000,0.000000,0.000000,1.000000,0.000000,,,,,,,,,,,,,,,,,,,,,,,,,
1577806666.099844,55.000000,0.000000,4638.974121,4687.692383,4360.512695,4561.025879,4695.384766,0.000000,2.000000,,,,0.000000,0.000000,0.000000,0.000000,1.000000,0.000000,193.468002,8.484238,3.662661,5.072228,18.085001,106.454674,6.377172,1.460681,10.275656,16.098091,1.769651,2.020530,1.857399,3.385261,10.808854,10.523675,1.731574,0.626233,4.464731,4.136536,217.204727,19.299471,3.883456,13.466434,32.392868
1577806666.107552,56.000000,0.000000,4708.205078,4709.743652,4408.205078,4557.948730,4738.974121,0.000000,2.000000,,,,0.000000,0.000000,0.000000,0.000000,1.000000,0.000000,,,,,,,,,,,,,,,,,,,,,,,,,
1577806666.115360,57.000000,0.000000,4723.077148,4683.589844,4362.051270,4574.871582,4590.769043,0.000000,2.000000,,,,0.000000,0.000000,0.000000,0.000000,1.000000,0.000000,,,,,,,,,,,,,,,,,,,,,,,,,
1577806666.123069,58.000000,0.000000,4647.692383,4728.717773,4278.461426,4569.230957,4528.205078,0.000000,2.000000,,,,0.000000,0.000000,0.000000,0.000000,1.000000,0.000000,,,,,,,,,,,,,,,,,,,,,,,,,
1577806666.130877,59.000000,0.000000,4689.743652,4732.820313,4363.077148,4593.333496,4637.948730,0.000000,2.000000,,,,0.000000,0.000000,0.000000,0.000000,1.000000,0.000000,,,,,,,,,,,,,,,,,,,,,,,,,
1577806666.138585,60.000000,0.000000,4790.769043,4742.563965,4369.230957,4580.000000,4600.512695,0.000000,2.000000,,,,0.000000,0.000000,0.000000,0.000000,1.000000,0.000000,,,,,,,,,,,,,,,,,,,,,,,,,
1577806666.146393,61.000000,0.000000,4696.922852,4753.333496,4316.922852,4553.846191,4571.794922,0.000000,2.000000,,,,0.000000,0.000000,0.000000,0.000000,1.000000,0.000000,,,,,,,,,,,,,,,,,,,,,,,,,
1577806666.154101,62.000000,0.000000,4604.102539,4682.051270,4352.820313,4574.871582,4587.692383,0.000000,2.000000,,,,0.000000,0.000000,0.000000,0.000000,1.000000,0.000000,,,,,,,,,,,,,,,,,,,,,,,,,
1577806666.161909,63.000000,0.000000,4737.436035,4727.179688,4330.256348,4607.692383,4525.641113,0.000000,2.000000,,,,0.000000,0.000000,0.000000,0.000000,1.000000,0.000000,,,,,,,,,,,,,,,,,,,,,,,,,
1577806666.169617,64.000000,0.000000,4797.436035,4808.205078,4353.846191,4637.436035,4534.871582,450.000000,2.000000,,,,0.000000,0.000000,0.000000,0.000000,1.000000,0.000000,,,,,,,,,,,,,,,,,,,,,,,,,
1577806666.177425,65.000000,0.000000,4738.461426,4769.230957,4384.615234,4578.974121,4637.436035,450.000000,2.000000,,,,0.000000,0.000000,0.000000,0.000000,1.000000,0.000000,,,,,,,,,,,,,,,,,,,,,,,,,
1577806666.185133,66.000000,0.000000,4749.743652,4721.538574,4347.179688,4523.589844,4591.794922,0.000000,2.000000,,,,0.000000,0.000000,0.000000,0.000000,1.000000,0.000000,,,,,,,,,,,,,,,,,,,,,,,,,
1577806666.192941,67.000000,0.000000,4756.410156,4666.153809,4340.512695,4587.179688,4488.205078,450.000000,2.000000,,,,0.000000,0.000000,0.000000,0.000000,1.000000,0.000000,,,,,,,,,,,,,,,,,,,,,,,,,
1577806666.200649,68.000000,0.000000,4818.461426,4688.717773,4318.461426,4639.487305,4537.948730,0.000000,2.000000,,,,0.000000,0.000000,0.000000,0.000000,1.000000,0.000000,,,,,,,,,,,,,,,,,,,,,,,,,
1577806666.208457,69.000000,0.000000,4856.922852,4781.025879,4328.205078,4621.025879,4632.307617,450.000000,2.000000,,,,0.000000,0.000000,0.000000,0.000000,1.000000,0.000000,,,,,,,,,,,,,,,,,,,,,,,,,
1577806666.216165,70.000000,0.000000,4777.436035,4743.077148,4385.128418,4545.128418,4685.641113,9.000000,2.000000,,,,0.000000,0.000000,0.000000,0.000000,1.000000,0.000000,,,,,,,,,,,,,,,,,,,,,,,,,
1577806666.223973,71.000000,0.000000,4769.230957,4652.307617,4363.589844,4526.153809,4664.102539,450.000000,2.000000,,,,0.000000,0.000000,0.000000,0.000000,1.000000,0.000000,194.836884,7.726715,3.338384,5.141627,17.841053,107.422180,6.133116,1.417614,10.072408,16.210960,1.886273,2.090993,1.678743,3.410252,11.189483,10.424703,1.675299,0.507894,4.200733,3.783153,219.098801,18.187838,3.671469,14.029958,32.144272
1577806666.231681,72.000000,0.000000,4812.820313,4617.436035,4327.179688,4584.102539,4559.487305,450.000000,2.000000,,,,0.000000,0.000000,0.000000,0.000000,1.000000,0.000000,,,,,,,,,,,,,,,,,,,,,,,,,
1577806666.239389,73.000000,0.000000,4820.000000,4686.153809,4324.102539,4560.512695,4591.282227,40.000000,2.000000,,,,0.000000,0.000000,0.000000,0.000000,1.000000,0.000000,,,,,,,,,,,,,,,,,,,,,,,,,
1577806666.247198,74.000000,0.000000,4837.436035,4745.128418,4345.641113,4547.692383,4690.769043,450.000000,2.000000,,,,0.000000,0.000000,0.000000,0.000000,1.000000,0.000000,,,,,,,,,,,,,,,,,,,,,,,,,
1577806666.255006,75.000000,0.000000,4784.615234,4646.666504,4347.179688,4578.461426,4675.897461,0.000000,2.000000,,,,0.000000,0.000000,0.000000,0.000000,1.000000,0.000000,,,,,,,,,,,,,,,,,,,,,,,,,
1577806666.262714,76.000000,0.000000,4766.666504,4590.769043,4331.282227,4553.846191,4693.846191,450.000000,2.000000,,,,0.000000,0.000000,0.000000,0.000000,1.000000,0.000000,,,,,,,,,,,,,,,,,,,,,,,,,
1577806666.270422,77.000000,0.000000,4743.589844,4642.563965,4344.615234,4562.563965,4716.922852,450.000000,2.000000,,,,0.000000,0.000000,0.000000,0.000000,1.000000,0.000000,,,,,,,,,,,,,,,,,,,,,,,,,
1577806666.278230,78.000000,0.000000,4694.358887,4667.692383,4351.282227,4550.769043,4710.769043,450.000000,2.000000,,,,0.000000,0.000000,0.000000,0.000000,1.000000,0.000000,,,,,,,,,,,,,,,,,,,,,,,,,
1577806666.285939,79.000000,0.000000,4715.897461,4651.282227,4371.794922,4549.230957,4752.820313,0.000000,2.000000,,,,0.000000,0.000000,0.000000,0.000000,1.000000,0.000000,,,,,,,,,,,,,,,,,,,,,,,,,
1577806666.293747,80.000000,0.000000,4673.333496,4653.333496,4365.128418,4586.153809,4680.000000,450.000000,2.000000,,,,0.000000,0.000000,0.000000,0.000000,1.000000,0.000000,,,,,,,,,,,,,,,,,,,,,,,,,
1577806666.301455,81.000000,0.000000,4642.563965,4686.153809,4329.743652,4568.717773,4653.846191,450.000000,2.000000,,,,0.000000,0.000000,0.000000,0.000000,1.000000,0.000000,,,,,,,,,,,,,,,,,,,,,,,,,
1577806666.309264,82.000000,0.000000,4723.077148,4682.051270,4368.717773,4582.051270,4675.897461,450.000000,2.000000,,,,0.000000,0.000000,0.000000,0.000000,1.000000,0.000000,,,,,,,,,,,,,,,,,,,,,,,,,
1577806666.316972,83.000000,0.000000,4763.077148,4702.051270,4372.820313,4590.769043,4613.846191,0.000000,2.000000,,,,0.000000,0.000000,0.000000,0.000000,1.000000,0.000000,,,,,,,,,,,,,,,,,,,,,,,,,
1577806666.324780,84.000000,0.000000,4684.102539,4724.615234,4382.563965,4583.077148,4630.256348,450.000000,2.000000,,,,0.000000,0.000000,0.000000,0.000000,1.000000,0.000000,,,,,,,,,,,,,,,,,,,,,,,,,
1577806666.332488,85.000000,0.000000,4619.487305,4698.974121,4360.512695,4570.256348,4588.205078,450.000000,2.000000,,,,0.000000,0.000000,0.000000,0.000000,1.000000,0.000000,,,,,,,,,,,,,,,,,,,,,,,,,
1577806666.340296,86.000000,0.000000,4710.256348,4763.077148,4266.666504,4549.743652,4493.333496,450.000000,2.000000,,,,0.000000,0.000000,0.000000,0.000000,1.000000,0.000000,,,,,,,,,,,,,,,,,,,,,,,,,
1577806666.348004,87.000000,0.000000,4754.358887,4792.820313,4348.205078,4598.974121,4562.051270,0.000000,2.000000,,,,0.000000,0.000000,0.000000,0.000000,1.000000,0.000000,195.654205,7.342467,3.101710,5.112003,17.635265,108.910645,6.060450,1.399203,10.007758,16.297710,2.017696,2.145396,1.504961,3.442304,11.393873,10.297606,1.618136,0.474189,4.102153,3.636890,221.689468,17.719904,3.427978,14.324225,32.175949
1577806666.355812,88.000000,0.000000,4736.922852,4748.717773,4408.717773,4607.692383,4640.000000,450.000000,2.000000,,,,0.000000,0.000000,0.000000,0.000000,1.000000,0.000000,,,,,,,,,,,,,,,,,,,,,,,,,
1577806666.363520,89.000000,0.000000,4733.846191,4733.333496,4335.384766,4563.077148,4598.461426,450.000000,2.000000,,,,0.000000,0.000000,0.000000,0.000000,1.000000,0.000000,,,,,,,,,,,,,,,,,,,,,,,,,
1577806666.371328,90.000000,0.000000,4717.436035,4679.487305,4343.589844,4591.282227,4528.205078,450.000000,2.000000,,,,0.000000,0.000000,0.000000,0.000000,1.000000,0.000000,,,,,,,,,,,,,,,,,,,,,,,,,
1577806666.379136,91.000000,0.000000,4803.589844,4710.769043,4324.102539,4626.666504,4533.846191,0.000000,2.000000,,,,0.000000,0.000000,0.000000,0.000000,1.000000,0.000000,,,,,,,,,,,,,,,,,,,,,,,,,
1577806666.386843,92.000000,0.000000,4859.487305,4801.025879,4328.205078,4634.358887,4592.307617,450.000000,2.000000,,,,0.000000,0.000000,0.000000,0.000000,1.000000,0.000000,,,,,,,,,,,,,,,,,,,,,,,,,
1577806666.394552,93.000000,0.000000,4794.871582,4747.692383,4383.077148,4568.205078,4669.230957,450.000000,2.000000,,,,0.000000,0.000000,0.000000,0.000000,1.000000,0.000000,,,,,,,,,,,,,,,,,,,,,,,,,
1577806666.402360,94.000000,0.000000,4792.307617,4674.358887,4362.563965,4526.153809,4647.179688,450.000000,2.000000,,,,0.000000,0.000000,0.000000,0.000000,1.000000,0.000000,,,,,,,,,,,,,,,,,,,,,,,,,
1577806666.410068,95.000000,0.000000,4824.102539,4658.461426,4328.205078,4576.410156,4517.436035,0.000000,2.000000,,,,0.000000,0.000000,0.000000,0.000000,1.000000,0.000000,,,,,,,,,,,,,,,,,,,,,,,,,
1577806666.417776,96.000000,0.000000,4835.384766,4694.358887,4323.077148,4578.461426,4562.563965,450.000000,2.000000,,,,0.000000,0.000000,0.000000,0.000000,1.000000,0.000000,,,,,,,,,,,,,,,,,,,,,,,,,
1577806666.425584,97.000000,0.000000,4849.743652,4764.102539,4342.051270,4570.769043,4674.358887,450.000000,2.000000,,,,0.000000,0.000000,0.000000,0.000000,1.000000,0.000000,,,,,,,,,,,,,,,,,,,,,,,,,
1577806666.433292,98.000000,0.000000,4796.410156,4722.563965,4358.974121,4570.769043,4660.000000,450.000000,2.000000,,,,0.000000,0.000000,0.000000,0.000000,1.000000,0.000000,,,,,,,,,,,,,,,,,,,,,,,,,
1577806666.441101,99.000000,0.000000,4794.358887,4640.000000,4353.846191,4541.538574,4685.641113,0.000000,2.000000,,,,0.000000,0.000000,0.000000,0.000000,1.000000,0.000000,,,,,,,,,,,,,,,,,,,,,,,,,
1577806666.448809,100.000000,0.000000,4764.615234,4606.153809,4348.717773,4567.692383,4707.179688,450.000000,2.000000,,,,0.000000,0.000000,0.000000,0.000000,1.000000,0.000000,,,,,,,,,,,,,,,,,,,,,,,,,
1577806666.456617,101.000000,0.000000,4709.743652,4631.282227,4323.589844,4550.769043,4691.794922,450.000000,2.000000,,,,0.000000,0.000000,0.000000,0.000000,1.000000,0.000000,,,,,,,,,,,,,,,,,,,,,,,,,
1577806666.464425,102.000000,0.000000,4748.717773,4682.051270,4337.436035,4542.563965,4746.666504,450.000000,2.000000,,,,0.000000,0.000000,0.000000,0.000000,1.000000,0.000000,,,,,,,,,,,,,,,,,,,,,,,,,
1577806666.472133,103.000000,0.000000,4685.128418,4672.307617,4364.102539,4586.666504,4723.077148,0.000000,2.000000,,,,0.000000,0.000000,0.000000,0.000000,1.000000,0.000000,195.062637,7.570896,2.915994,4.987269,17.656387,110.116684,6.285818,1.405845,10.081015,16.536825,2.101726,2.188734,1.384423,3.463224,11.426047,10.192799,1.569811,0.522882,4.246280,3.760360,223.747986,18.007624,3.266235,14.351636,32.721165
1577806666.479941,104.000000,0.000000,4631.794922,4656.922852,4355.384766,4565.641113,4697.948730,450.000000,2.000000,,,,0.000000,0.000000,0.000000,0.000000,1.000000,0.000000,,,,,,,,,,,,,,,,,,,,,,,,,
1577806666.487649,105.000000,0.000000,4726.666504,4655.384766,4376.410156,4576.410156,4674.358887,450.000000,2.000000,,,,0.000000,0.000000,0.000000,0.000000,1.000000,0.000000,,,,,,,,,,,,,,,,,,,,,,,,,
1577806666.495457,106.000000,0.000000,4759.487305,4668.717773,4352.307617,4590.769043,4643.077148,450.000000,2.000000,,,,0.000000,0.000000,0.000000,0.000000,1.000000,0.000000,,,,,,,,,,,,,,,,,,,,,,,,,
1577806666.503165,107.000000,0.000000,4688.205078,4683.589844,4368.717773,4576.922852,4699.487305,0.000000,2.000000,,,,0.000000,0.000000,0.000000,0.000000,1.000000,0.000000,,,,,,,,,,,,,,,,,,,,,,,,,
1577806666.510973,108.000000,0.000000,4638.461426,4692.307617,4368.717773,4568.205078,4595.384766,450.000000,2.000000,,,,0.000000,0.000000,0.000000,0.000000,1.000000,0.000000,,,,,,,,,,,,,,,,,,,,,,,,,
1577806666.518680,109.000000,0.000000,4685.128418,4780.512695,4285.641113,4570.769043,4467.692383,450.000000,2.000000,,,,0.000000,0.000000,0.000000,0.000000,1.000000,0.000000,,,,,,,,,,,,,,,,,,,,,,,,,
1577806666.526388,110.000000,0.000000,4715.384766,4776.922852,4361.025879,4617.436035,4595.384766,450.000000,2.000000,,,,0.000000,0.000000,0.000000,0.000000,1.000000,0.000000,,,,,,,,,,,,,,,,,,,,,,,,,
1577806666.534196,111.000000,0.000000,4751.282227,4735.384766,4395.384766,4574.871582,4663.589844,0.000000,2.000000,,,,0.000000,0.000000,0.000000,0.000000,1.000000,0.000000,,,,,,,,,,,,,,,,,,,,,,,,,
1577806666.541904,112.000000,0.000000,4755.897461,4767.692383,4313.846191,4517.436035,4574.871582,450.000000,2.000000,,,,0.000000,0.000000,0.000000,0.000000,1.000000,0.000000,,,,,,,,,,,,,,,,,,,,,,,,,
1577806666.549712,113.000000,0.000000,4700.000000,4700.512695,4343.077148,4595.897461,4512.820313,450.000000,2.000000,,,,0.000000,0.000000,0.000000,0.000000,1.000000,0.000000,,,,,,,,,,,,,,,,,,,,,,,,,
1577806666.557421,114.000000,0.000000,4797.948730,4709.743652,4323.589844,4643.077148,4537.948730,450.000000,2.000000,,,,0.000000,0.000000,0.000000,0.000000,1.000000,0.000000,,,,,,,,,,,,,,,,,,,,,,,,,
1577806666.565129,115.000000,0.000000,4869.743652,4805.128418,4328.205078,4634.358887,4584.102539,0.000000,2.000000,,,,0.000000,0.000000,0.000000,0.000000,1.000000,0.000000,,,,,,,,,,,,,,,,,,,,,,,,,
1577806666.572937,116.000000,0.000000,4781.538574,4746.153809,4380.512695,4555.897461,4667.179688,450.000000,2.000000,,,,0.000000,0.000000,0.000000,0.000000,1.000000,0.000000,,,,,,,,,,,,,,,,,,,,,,,,,
1577806666.580745,117.000000,0.000000,4813.846191,4695.384766,4348.205078,4512.820313,4677.436035,450.000000,2.000000,,,,0.000000,0.000000,0.000000,0.000000,1.000000,0.000000,,,,,,,,,,,,,,,,,,,,,,,,,
1577806666.588453,118.000000,0.000000,4825.641113,4636.922852,4335.897461,4578.461426,4542.563965,450.000000,2.000000,,,,0.000000,0.000000,0.000000,0.000000,1.000000,0.000000,,,,,,,,,,,,,,,,,,,,,,,,,
1577806666.596261,119.000000,0.000000,4774.358887,4620.512695,4342.563965,4563.077148,4596.410156,0.000000,2.000000,,,,0.000000,0.000000,0.000000,0.000000,1.000000,0.000000,192.895584,8.302025,2.861876,4.833869,17.988886,110.648933,6.646235,1.421461,10.188881,16.970243,2.119598,2.214375,1.343316,3.463606,11.291167,10.173221,1.535778,0.618214,4.612897,4.139528,224.734573,18.652105,3.313805,14.141584,33.595295
1577806666.603969,120.000000,0.000000,4809.230957,4698.461426,4355.384766,4552.820313,4758.461426,450.000000,2.000000,,,,0.000000,0.000000,0.000000,0.000000,1.000000,0.000000,,,,,,,,,,,,,,,,,,,,,,,,,
1577806666.611777,121.000000,0.000000,4763.589844,4663.077148,4348.205078,4582.563965,4723.589844,450.000000,2.000000,,,,0.000000,0.000000,0.000000,0.000000,1.000000,0.000000,,,,,,,,,,,,,,,,,,,,,,,,,
1577806666.619485,122.000000,0.000000,4730.769043,4598.974121,4311.794922,4547.179688,4708.205078,450.000000,2.000000,,,,0.000000,0.000000,0.000000,0.000000,1.000000,0.000000,,,,,,,,,,,,,,,,,,,,,,,,,
1577806666.627293,123.000000,0.000000,4724.102539,4629.230957,4335.897461,4570.256348,4727.179688,0.000000,2.000000,,,,0.000000,0.000000,0.000000,0.000000,1.000000,0.000000,,,,,,,,,,,,,,,,,,,,,,,,,
1577806666.635001,124.000000,0.000000,4685.641113,4682.563965,4374.871582,4564.615234,4721.538574,450.000000,2.000000,,,,0.000000,0.000000,0.000000,0.000000,1.000000,0.000000,,,,,,,,,,,,,,,,,,,,,,,,,
1577806666.642809,125.000000,0.000000,4714.358887,4684.615234,4407.692383,4548.717773,4750.769043,450.000000,2.000000,,,,0.000000,0.000000,0.000000,0.000000,1.000000,0.000000,,,,,,,,,,,,,,,,,,,,,,,,,
1577806666.650518,126.000000,0.000000,4690.769043,4672.307617,4362.563965,4585.641113,4616.922852,450.000000,2.000000,,,,0.000000,0.000000,0.000000,0.000000,1.000000,0.000000,,,,,,,,,,,,,,,,,,,,,,,,,
1577806666.658325,127.000000,0.000000,4640.512695,4716.922852,4305.128418,4575.384766,4568.205078,230.000000,2.000000,,,,0.000000,0.000000,0.000000,0.000000,1.000000,0.000000,,,,,,,,,,,,,,,,,,,,,,,,,
1577806666.666033,0.000000,0.000000,4700.512695,4701.538574,4376.922852,4581.025879,4665.641113,450.000000,2.000000,,,,0.000000,0.000000,0.000000,0.000000,1.000000,0.000000,,,,,,,,,,,,,,,,,,,,,,,,,
1577806666.673841,1.000000,0.000000,4782.563965,4731.794922,4360.000000,4591.282227,4622.051270,450.000000,2.000000,,,,0.000000,0.000000,0.000000,0.000000,1.000000,0.000000,,,,,,,,,,,,,,,,,,,,,,,,,
1577806666.681549,2.000000,0.000000,4702.563965,4770.769043,4328.717773,4608.717773,4581.538574,0.000000,2.000000,,,,0.000000,0.000000,0.000000,0.000000,1.000000,0.000000,,,,,,,,,,,,,,,,,,,,,,,,,
1577806666.689357,3.000000,0.000000,4618.461426,4680.512695,4364.615234,4588.717773,4564.615234,450.000000,2.000000,,,,0.000000,0.000000,0.000000,0.000000,1.000000,0.000000,,,,,,,,,,,,,,,,,,,,,,,,,
1577806666.697064,4.000000,0.000000,4755.384766,4717.948730,4307.179688,4530.256348,4507.179688,0.000000,2.000000,,,,0.000000,0.000000,0.000000,0.000000,1.000000,0.000000,,,,,,,,,,,,,,,,,,,,,,,,,
1577806666.704773,5.000000,0.000000,4798.974121,4809.230957,4353.846191,4590.769043,4533.846191,450.000000,2.000000,,,,0.000000,0.000000,0.000000,0.000000,1.000000,0.000000,,,,,,,,,,,,,,,,,,,,,,,,,
1577806666.712580,6.000000,0.000000,4740.000000,4765.128418,4397.436035,4622.563965,4632.820313,10.000000,2.000000,,,,0.000000,0.000000,0.000000,0.000000,1.000000,0.000000,,,,,,,,,,,,,,,,,,,,,,,,,
1577806666.720289,7.000000,0.000000,4807.692383,4734.358887,4329.743652,4602.051270,4617.436035,450.000000,2.000000,,,,0.000000,0.000000,0.000000,0.000000,1.000000,0.000000,189.828934,9.198621,2.968667,4.752320,18.581789,110.496269,6.932986,1.431143,10.380274,17.509943,2.084823,2.210993,1.386663,3.468299,11.015307,10.276115,1.521384,0.705684,5.110027,4.700104,224.806091,19.257339,3.613564,13.849717,34.430660
1577806666.728097,8.000000,0.000000,4808.717773,4666.666504,4341.025879,4588.205078,4512.820313,450.000000,2.000000,,,,0.000000,0.000000,0.000000,0.000000,1.000000,0.000000,,,,,,,,,,,,,,,,,,,,,,,,,
1577806666.735805,9.000000,0.000000,4808.205078,4650.769043,4331.282227,4516.922852,4559.487305,44.000000,2.000000,,,,0.000000,0.000000,0.000000,0.000000,1.000000,0.000000,,,,,,,,,,,,,,,,,,,,,,,,,
1577806666.743613,10.000000,0.000000,4842.563965,4750.256348,4329.743652,4548.205078,4667.179688,450.000000,2.000000,,,,0.000000,0.000000,0.000000,0.000000,1.000000,0.000000,,,,,,,,,,,,,,,,,,,,,,,,,
1577806666.751321,11.000000,0.000000,4765.128418,4724.102539,4370.769043,4598.461426,4708.205078,0.000000,2.000000,,,,0.000000,0.000000,0.000000,0.000000,1.000000,0.000000,,,,,,,,,,,,,,,,,,,,,,,,,
1577806666.759129,12.000000,0.000000,4753.333496,4627.179688,4362.051270,4562.563965,4684.615234,450.000000,2.000000,,,,0.000000,0.000000,0.000000,0.000000,1.000000,0.000000,,,,,,,,,,,,,,,,,,,,,,,,,
1577806666.766837,13.000000,0.000000,4777.436035,4596.410156,4335.384766,4555.897461,4586.153809,450.000000,2.000000,,,,0.000000,0.000000,0.000000,0.000000,1.000000,0.000000,,,,,,,,,,,,,,,,,,,,,,,,,
1577806666.774645,14.000000,0.000000,4776.922852,4652.820313,4321.538574,4533.846191,4639.487305,450.000000,2.000000,,,,0.000000,0.000000,0.000000,0.000000,1.000000,0.000000,,,,,,,,,,,,,,,,,,,,,,,,,
1577806666.782353,15.000000,0.000000,4783.589844,4705.128418,4346.666504,4551.794922,4778.974121,0.000000,2.000000,,,,0.000000,0.000000,0.000000,0.000000,1.000000,0.000000,,,,,,,,,,,,,,,,,,,,,,,,,
1577806666.790161,16.000000,0.000000,4697.948730,4652.820313,4363.077148,4587.179688,4725.641113,0.000000,2.000000,,,,0.000000,0.000000,0.000000,0.000000,1.000000,0.000000,,,,,,,,,,,,,,,,,,,,,,,,,
1577806666.797869,17.000000,0.000000,4675.897461,4602.563965,4352.307617,4557.948730,4692.820313,0.000000,2.000000,,,,0.000000,0.000000,0.000000,0.000000,1.000000,0.000000,,,,,,,,,,,,,,,,,,,,,,,,,
1577806666.805677,18.000000,0.000000,4696.922852,4615.897461,4360.512695,4566.153809,4689.230957,0.000000,2.000000,,,,0.000000,0.000000,0.000000,0.000000,1.000000,0.000000,,,,,,,,,,,,,,,,,,,,,,,,,
1577806666.813385,19.000000,0.000000,4669.743652,4692.820313,4344.102539,4562.563965,4678.461426,0.000000,2.000000,,,,0.000000,0.000000,0.000000,0.000000,1.000000,0.000000,,,,,,,,,,,,,,,,,,,,,,,,,
1577806666.821093,20.000000,0.000000,4693.846191,4717.436035,4388.717773,4559.487305,4728.205078,0.000000,2.000000,,,,0.000000,0.000000,0.000000,0.000000,1.000000,0.000000,,,,,,,,,,,,,,,,,,,,,,,,,
1577806666.828901,21.000000,0.000000,4693.846191,4687.692383,4369.743652,4576.922852,4584.615234,0.000000,2.000000,,,,0.000000,0.000000,0.000000,0.000000,1.000000,0.000000,,,,,,,,,,,,,,,,,,,,,,,,,
1577806666.836710,22.000000,0.000000,4652.820313,4739.487305,4287.692383,4575.384766,4515.384766,0.000000,2.000000,,,,0.000000,0.000000,0.000000,0.000000,1.000000,0.000000,,,,,,,,,,,,,,,,,,,,,,,,,
1577806666.844418,23.000000,0.000000,4698.974121,4737.436035,4355.384766,4598.974121,4637.948730,0.000000,2.000000,,,,0.000000,0.000000,0.000000,0.000000,1.000000,0.000000,186.886185,9.741591,3.215748,4.795008,19.280785,109.756027,6.964184,1.403106,10.776783,17.954962,2.012752,2.160393,1.468255,3.495542,10.621699,10.480877,1.531979,0.757358,5.629005,5.335821,224.286804,19.392897,4.089557,13.572580,34.889408
1577806666.852126,24.000000,0.000000,4788.205078,4735.384766,4365.641113,4572.820313,4615.384766,0.000000,2.000000,,,,0.000000,0.000000,0.000000,0.000000,1.000000,0.000000,,,,,,,,,,,,,,,,,,,,,,,,,
1577806666.859934,25.000000,0.000000,4709.743652,4764.102539,4319.487305,4543.077148,4565.128418,0.000000,2.000000,,,,0.000000,0.000000,0.000000,0.000000,1.000000,0.000000,,,,,,,,,,,,,,,,,,,,,,,,,
1577806666.867642,26.000000,0.000000,4624.102539,4696.410156,4349.743652,4584.615234,4574.358887,0.000000,2.000000,,,,0.000000,0.000000,0.000000,0.000000,1.000000,0.000000,,,,,,,,,,,,,,,,,,,,,,,,,
1577806666.875451,27.000000,0.000000,4749.743652,4719.487305,4325.641113,4630.769043,4524.615234,0.000000,2.000000,,,,0.000000,0.000000,0.000000,0.000000,1.000000,0.000000,,,,,,,,,,,,,,,,,,,,,,,,,
1577806666.883159,28.000000,0.000000,4805.641113,4799.487305,4353.333496,4644.615234,4520.000000,0.000000,2.000000,,,,0.000000,0.000000,0.000000,0.000000,1.000000,0.000000,,,,,,,,,,,,,,,,,,,,,,,,,
1577806666.890967,29.000000,0.000000,4745.128418,4765.128418,4392.820313,4576.410156,4621.538574,0.000000,2.000000,,,,0.000000,0.000000,0.000000,0.000000,1.000000,0.000000,,,,,,,,,,,,,,,,,,,,,,,,,
1577806666.898675,30.000000,0.000000,4755.897461,4708.205078,4354.358887,4525.641113,4600.512695,0.000000,2.000000,,,,0.000000,0.000000,0.000000,0.000000,1.000000,0.000000,,,,,,,,,,,,,,,,,,,,,,,,,
1577806666.906483,31.000000,0.000000,4763.589844,4658.461426,4337.948730,4586.666504,4498.974121,0.000000,2.000000,,,,0.000000,0.000000,0.000000,0.000000,1.000000,0.000000,,,,,,,,,,,,,,,,,,,,,,,,,
1577806666.914291,32.000000,0.000000,4821.025879,4686.666504,4318.461426,4635.384766,4538.974121,0.000000,2.000000,,,,0.000000,0.000000,0.000000,0.000000,1.000000,0.000000,,,,,,,,,,,,,,,,,,,,,,,,,
1577806666.921999,33.000000,0.000000,4854.871582,4769.230957,4333.333496,4621.538574,4636.922852,0.000000,2.000000,,,,0.000000,0.000000,0.000000,0.000000,1.000000,0.000000,,,,,,,,,,,,,,,,,,,,,,,,,
1577806666.929807,34.000000,0.000000,4776.410156,4730.256348,4388.205078,4551.794922,4689.230957,0.000000,2.000000,,,,0.000000,0.000000,0.000000,0.000000,1.000000,0.000000,,,,,,,,,,,,,,,,,,,,,,,,,
1577806666.937515,35.000000,0.000000,4772.820313,4652.307617,4366.666504,4525.641113,4660.512695,0.000000,2.000000,,,,0.000000,0.000000,0.000000,0.000000,1.000000,0.000000,,,,,,,,,,,,,,,,,,,,,,,,,
1577806666.945223,36.000000,0.000000,4812.820313,4620.000000,4326.666504,4574.871582,4553.846191,0.000000,2.000000,,,,0.000000,0.000000,0.000000,0.000000,1.000000,0.000000,,,,,,,,,,,,,,,,,,,,,,,,,
1577806666.953031,37.000000,0.000000,4807.692383,4672.307617,4324.615234,4549.743652,4594.358887,0.000000,2.000000,,,,0.000000,0.000000,0.000000,0.000000,1.000000,0.000000,,,,,,,,,,,,,,,,,,,,,,,,,
1577806666.960739,38.000000,0.000000,4825.641113,4726.666504,4349.230957,4546.153809,4709.230957,0.000000,2.000000,,,,0.000000,0.000000,0.000000,0.000000,1.000000,0.000000,,,,,,,,,,,,,,,,,,,,,,,,,
1577806666.968447,39.000000,0.000000,4777.948730,4643.589844,4347.692383,4585.641113,4691.282227,0.000000,2.000000,,,,0.000000,0.000000,0.000000,0.000000,1.000000,0.000000,185.066757,9.487632,3.510695,4.915338,19.894962,108.705734,6.629616,1.321691,11.458221,18.111942,1.931963,2.054514,1.529553,3.571456,10.135467,10.709700,1.556654,0.798485,6.087676,5.939154,223.834854,18.758070,4.583464,13.379757,34.863277
1577806666.976255,40.000000,0.000000,4756.410156,4585.641113,4325.128418,4557.436035,4696.410156,0.000000,2.000000,,,,0.000000,0.000000,0.000000,0.000000,1.000000,0.000000,,,,,,,,,,,,,,,,,,,,,,,,,
1577806666.983964,41.000000,0.000000,4741.025879,4629.230957,4338.974121,4561.025879,4721.538574,0.000000,2.000000,,,,0.000000,0.000000,0.000000,0.000000,1.000000,0.000000,,,,,,,,,,,,,,,,,,,,,,,,,
1577806666.991872,42.000000,0.000000,4700.512695,4669.230957,4357.948730,4550.769043,4713.846191,0.000000,2.000000,,,,0.000000,0.000000,0.000000,0.000000,1.000000,0.000000,,,,,,,,,,,,,,,,,,,,,,,,,
1577806666.999680,43.000000,0.000000,4722.051270,4658.461426,4388.717773,4549.230957,4754.358887,0.000000,2.000000,,,,0.000000,0.000000,0.000000,0.000000,1.000000,0.000000,,,,,,,,,,,,,,,,,,,,,,,,,
1577806667.007589,44.000000,0.000000,4681.025879,4653.846191,4365.128418,4583.077148,4678.461426,0.000000,2.000000,,,,0.000000,0.000000,0.000000,0.000000,1.000000,0.000000,,,,,,,,,,,,,,,,,,,,,,,,,
1577806667.015397,45.000000,0.000000,4638.974121,4694.871582,4317.436035,4569.743652,4638.974121,0.000000,2.000000,,,,0.000000,0.000000,0.000000,0.000000,1.000000,0.000000,,,,,,,,,,,,,,,,,,,,,,,,,
1577806667.023206,46.000000,0.000000,4715.897461,4689.743652,4373.846191,4582.051270,4662.051270,0.000000,2.000000,,,,0.000000,0.000000,0.000000,0.000000,1.000000,0.000000,,,,,,,,,,,,,,,,,,,,,,,,,
1577806667.030914,47.000000,0.000000,4773.846191,4707.179688,4372.820313,4586.153809,4611.282227,0.000000,2.000000,,,,0.000000,0.000000,0.000000,0.000000,1.000000,0.000000,,,,,,,,,,,,,,,,,,,,,,,,,
1577806667.038722,48.000000,0.000000,4686.666504,4733.333496,4364.615234,4592.820313,4622.563965,0.000000,2.000000,,,,0.000000,0.000000,0.000000,0.000000,1.000000,0.000000,,,,,,,,,,,,,,,,,,,,,,,,,
1577806667.046531,49.000000,0.000000,4606.666504,4696.922852,4364.615234,4587.692383,4581.025879,0.000000,2.000000,,,,0.000000,0.000000,0.000000,0.000000,1.000000,0.000000,,,,,,,,,,,,,,,,,,,,,,,,,
1577806667.054339,50.000000,0.000000,4719.487305,4753.333496,4284.102539,4541.538574,4493.333496,0.000000,2.000000,,,,0.000000,0.000000,0.000000,0.000000,1.000000,0.000000,,,,,,,,,,,,,,,,,,,,,,,,,
1577806667.062048,51.000000,0.000000,4760.512695,4789.743652,4354.871582,4590.769043,4557.436035,0.000000,2.000000,,,,0.000000,0.000000,0.000000,0.000000,1.000000,0.000000,,,,,,,,,,,,,,,,,,,,,,,,,
1577806667.069756,52.000000,0.000000,4735.384766,4749.230957,4400.000000,4615.897461,4640.000000,0.000000,2.000000,,,,0.000000,0.000000,0.000000,0.000000,1.000000,0.000000,,,,,,,,,,,,,,,,,,,,,,,,,
1577806667.077565,53.000000,0.000000,4784.102539,4751.794922,4320.512695,4592.307617,4586.666504,0.000000,2.000000,,,,0.000000,0.000000,0.000000,0.000000,1.000000,0.000000,,,,,,,,,,,,,,,,,,,,,,,,,
1577806667.085273,54.000000,0.000000,4770.256348,4673.846191,4343.077148,4591.282227,4491.282227,0.000000,2.000000,,,,0.000000,0.000000,0.000000,0.000000,1.000000,0.000000,,,,,,,,,,,,,,,,,,,,,,,,,
1577806667.093082,55.000000,0.000000,4812.820313,4666.153809,4329.230957,4546.666504,4544.615234,0.000000,2.000000,,,,0.000000,0.000000,0.000000,0.000000,1.000000,0.000000,184.867096,8.521039,3.669127,5.023652,20.293165,108.015419,6.084745,1.226343,12.408996,17.939230,1.861978,1.900490,1.540091,3.696567,9.585728,10.880840,1.585349,0.865875,6.512924,6.437886,224.680115,17.544050,4.905801,13.309504,34.585533
1577806667.100890,56.000000,0.000000,4857.436035,4775.384766,4332.820313,4573.846191,4631.794922,0.000000,2.000000,,,,0.000000,0.000000,0.000000,0.000000,1.000000,0.000000,,,,,,,,,,,,,,,,,,,,,,,,,
1577806667.108598,57.000000,0.000000,4771.282227,4733.333496,4377.436035,4585.128418,4687.179688,0.000000,2.000000,,,,0.000000,0.000000,0.000000,0.000000,1.000000,0.000000,,,,,,,,,,,,,,,,,,,,,,,,,
1577806667.116306,58.000000,0.000000,4775.384766,4650.769043,4353.333496,4536.410156,4701.025879,0.000000,2.000000,,,,0.000000,0.000000,0.000000,0.000000,1.000000,0.000000,,,,,,,,,,,,,,,,,,,,,,,,,
1577806667.124215,59.000000,0.000000,4806.666504,4613.846191,4330.769043,4553.333496,4605.128418,0.000000,2.000000,,,,0.000000,0.000000,0.000000,0.000000,1.000000,0.000000,,,,,,,,,,,,,,,,,,,,,,,,,
1577806667.132023,60.000000,0.000000,4790.256348,4643.077148,4325.128418,4548.717773,4627.179688,0.000000,2.000000,,,,0.000000,0.000000,0.000000,0.000000,1.000000,0.000000,,,,,,,,,,,,,,,,,,,,,,,,,
